* Measurement data measured by REW V5.20
* Source: ASIO MOTU M Series, In 1
* Format: 256k Log Swept Sine, 1 sweep at -12.0 dBFS with no timing reference
* Dated: 2022/05/10 19:04:05
* REW Settings:
*  C-weighting compensation: Off
*  Target level: 75.0 dB
* Note: 
* Measurement: 1more Evo NC RC1
* Smoothing: 1/12 octave
* Frequency Step: 1/24 octave
* Start Frequency: 20.000 Hz
*
* Freq(Hz)	SPL(dB)	Phase(degrees)
20.000000	92.661	107.1095
20.600000	92.870	103.3614
21.200001	93.048	99.7656
21.799999	93.190	96.2833
22.400000	93.295	92.9785
23.000000	93.375	89.9029
23.600000	93.440	87.0334
24.299999	93.502	83.8960
25.000000	93.546	80.9820
25.799999	93.579	77.9465
26.500000	93.598	75.5465
27.200001	93.610	73.3893
28.000000	93.628	71.1900
29.000000	93.655	68.6919
30.000000	93.680	66.4963
30.700001	93.717	65.1217
31.500000	93.782	63.4703
32.500000	93.835	61.2098
33.500000	93.839	59.1418
34.500000	93.844	57.4238
35.500000	93.872	55.8263
36.500000	93.896	54.2641
37.500000	93.915	52.9130
38.700001	93.966	51.4359
40.000000	94.018	49.7968
41.200001	94.053	48.4525
42.500000	94.103	47.1186
43.700001	94.148	45.9131
45.000000	94.193	44.7228
46.200001	94.239	43.7153
47.500000	94.292	42.6987
48.700001	94.345	41.8462
50.000000	94.425	40.9282
51.500000	94.509	39.6627
53.000000	94.573	38.4612
54.500000	94.650	37.2830
56.000000	94.724	36.0404
58.000000	94.817	34.4273
60.000000	94.911	32.8653
61.500000	94.976	31.6997
63.000000	95.029	30.5656
65.000000	95.084	29.1016
67.000000	95.119	27.6874
69.000000	95.144	26.3079
71.000000	95.165	24.9569
73.000000	95.178	23.6743
75.000000	95.184	22.4981
77.500000	95.184	21.1244
80.000000	95.172	19.8317
82.500000	95.151	18.6778
85.000000	95.131	17.6599
87.500000	95.114	16.7112
90.000000	95.095	15.8510
92.500000	95.084	15.0948
95.000000	95.082	14.3908
97.500000	95.085	13.7190
100.000000	95.091	13.0790
103.000000	95.096	12.4109
106.000000	95.110	11.7604
109.000000	95.129	11.0978
112.000000	95.153	10.4580
115.000000	95.181	9.8045
118.000000	95.208	9.1455
122.000000	95.252	8.2878
125.000000	95.287	7.6330
128.000000	95.319	6.9617
132.000000	95.359	6.0693
136.000000	95.394	5.1763
140.000000	95.426	4.2786
145.000000	95.462	3.1692
150.000000	95.494	2.0605
155.000000	95.521	0.9460
160.000000	95.539	-0.1349
165.000000	95.550	-1.1949
170.000000	95.555	-2.2518
175.000000	95.556	-3.2731
180.000000	95.552	-4.2558
185.000000	95.543	-5.2203
190.000000	95.529	-6.1492
195.000000	95.507	-7.0389
200.000000	95.479	-7.8989
206.000000	95.445	-8.8906
212.000000	95.408	-9.7972
218.000000	95.371	-10.6238
224.000000	95.338	-11.3900
230.000000	95.308	-12.1444
236.000000	95.282	-12.8907
243.000000	95.248	-13.7487
250.000000	95.210	-14.5979
258.000000	95.162	-15.5587
265.000000	95.118	-16.3606
272.000000	95.071	-17.1227
280.000000	95.015	-17.9520
290.000000	94.942	-18.9374
300.000000	94.870	-19.8497
307.000000	94.819	-20.4399
315.000000	94.759	-21.0837
325.000000	94.684	-21.8425
335.000000	94.611	-22.5376
345.000000	94.540	-23.1834
355.000000	94.469	-23.7941
365.000000	94.402	-24.3497
375.000000	94.337	-24.8582
387.000000	94.268	-25.4168
400.000000	94.203	-25.9651
412.000000	94.154	-26.4615
425.000000	94.112	-27.0103
437.000000	94.085	-27.5587
450.000000	94.064	-28.2681
462.000000	94.043	-29.0995
475.000000	93.993	-30.2361
487.000000	93.891	-31.3951
500.000000	93.701	-32.3439
515.000000	93.469	-32.5492
530.000000	93.341	-32.3546
545.000000	93.275	-32.4299
560.000000	93.208	-32.7340
580.000000	93.092	-33.1954
600.000000	92.955	-33.5474
615.000000	92.848	-33.7035
630.000000	92.744	-33.7645
650.000000	92.609	-33.7108
670.000000	92.486	-33.5234
690.000000	92.378	-33.2243
710.000000	92.285	-32.8362
730.000000	92.208	-32.3769
750.000000	92.148	-31.8626
775.000000	92.094	-31.1501
800.000000	92.065	-30.3837
825.000000	92.062	-29.5936
850.000000	92.085	-28.7951
875.000000	92.132	-27.9979
900.000000	92.205	-27.2345
925.000000	92.302	-26.5253
950.000000	92.420	-25.8970
975.000000	92.558	-25.3721
1000.000000	92.713	-24.9681
1030.000000	92.913	-24.6623
1060.000000	93.123	-24.5639
1090.000000	93.335	-24.6634
1120.000000	93.540	-24.9403
1150.000000	93.734	-25.3615
1180.000000	93.914	-25.8810
1220.000000	94.130	-26.6417
1250.000000	94.279	-27.2022
1280.000000	94.426	-27.7192
1320.000000	94.632	-28.3449
1360.000000	94.868	-28.9994
1400.000000	95.134	-29.8741
1450.000000	95.473	-31.4799
1500.000000	95.767	-33.5857
1550.000000	95.996	-35.9547
1600.000000	96.164	-38.3997
1650.000000	96.281	-40.8266
1700.000000	96.356	-43.1886
1750.000000	96.394	-45.4514
1800.000000	96.403	-47.6013
1850.000000	96.387	-49.6317
1900.000000	96.349	-51.5354
1950.000000	96.292	-53.3085
2000.000000	96.221	-54.9456
2060.000000	96.117	-56.7334
2120.000000	95.998	-58.3282
2180.000000	95.869	-59.7305
2240.000000	95.734	-60.9492
2300.000000	95.595	-61.9941
2360.000000	95.457	-62.8711
2430.000000	95.297	-63.6950
2500.000000	95.145	-64.3130
2580.000000	94.985	-64.7797
2650.000000	94.865	-64.9974
2720.000000	94.770	-65.0716
2800.000000	94.695	-65.0519
2900.000000	94.660	-65.0342
3000.000000	94.677	-65.4039
3070.000000	94.665	-66.0779
3150.000000	94.562	-66.9432
3250.000000	94.340	-67.3414
3350.000000	94.140	-66.9389
3450.000000	94.000	-66.2022
3550.000000	93.904	-65.3730
3650.000000	93.833	-64.5058
3750.000000	93.775	-63.5832
3870.000000	93.713	-62.3364
4000.000000	93.651	-60.6622
4120.000000	93.615	-58.6471
4250.000000	93.649	-55.7911
4370.000000	93.822	-52.5819
4500.000000	94.249	-48.9411
4620.000000	94.897	-46.2263
4750.000000	95.795	-45.0061
4870.000000	96.653	-46.0485
5000.000000	97.433	-49.4708
5150.000000	97.976	-55.3971
5300.000000	98.088	-61.9398
5450.000000	97.815	-67.8010
5600.000000	97.239	-72.0665
5800.000000	96.284	-74.1091
6000.000000	95.393	-74.4841
6150.000000	94.612	-73.2644
6300.000000	93.827	-70.2575
6500.000000	92.930	-63.2951
6700.000000	92.506	-53.1075
6900.000000	92.951	-41.4186
7100.000000	94.374	-31.3208
7300.000000	96.524	-25.6564
7500.000000	98.976	-26.8973
7750.000000	101.397	-41.9948
8000.000000	101.657	-67.9815
8250.000000	99.587	-87.3196
8500.000000	96.518	-93.2600
8750.000000	93.604	-90.7017
9000.000000	91.225	-83.9356
9250.000000	89.357	-75.2876
9500.000000	87.829	-66.1800
9750.000000	86.316	-55.7581
10000.000000	84.827	-41.7829
10300.000000	83.726	-19.6973
10600.000000	84.324	3.5300
10900.000000	86.146	20.7258
11200.000000	88.086	30.0858
11500.000000	89.673	33.3271
11800.000000	90.674	32.4204
12200.000000	90.890	30.1026
12500.000000	90.542	31.3934
12800.000000	90.138	35.3402
13200.000000	89.849	44.0169
13600.000000	90.438	54.3562
14000.000000	92.067	60.0156
14500.000000	93.429	50.4112
15000.000000	91.821	41.3917
15500.000000	90.421	49.1936
16000.000000	91.363	46.1072
16500.000000	90.535	25.3695
17000.000000	86.766	15.8101
17500.000000	82.030	23.4379
18000.000000	78.170	37.7387
18500.000000	75.813	52.0894
19000.000000	74.932	61.9789
19500.000000	75.133	62.5187
20000.000000	75.497	49.6053
20600.000000	74.843	17.1218
21200.000000	71.968	-21.4894
21800.000000	66.339	-38.0127
