* Measurement data measured by REW V5.20
* Source: ASIO MOTU M Series, In 1
* Format: 256k Log Swept Sine, 1 sweep at -12.0 dBFS with no timing reference
* Dated: 2022/08/23 19:29:39
* REW Settings:
*  C-weighting compensation: Off
*  Target level: 75.0 dB
* Note: 
* Measurement: 7Hz ZERO RC1
* Smoothing: 1/12 octave
* Frequency Step: 1/24 octave
* Start Frequency: 20.000 Hz
*
* Freq(Hz)	SPL(dB)	Phase(degrees)
20.000000	100.896	-155.2678
20.600000	100.925	-156.6825
21.200001	100.946	-158.0549
21.799999	100.961	-159.3636
22.400000	100.972	-160.6173
23.000000	100.977	-161.8238
23.600000	100.977	-162.9630
24.299999	100.976	-164.2044
25.000000	100.977	-165.4157
25.799999	100.968	-166.8091
26.500000	100.944	-167.9611
27.200001	100.916	-168.9982
28.000000	100.890	-170.1013
29.000000	100.860	-171.4491
30.000000	100.828	-172.7427
30.700001	100.807	-173.6194
31.500000	100.782	-174.6097
32.500000	100.744	-175.8201
33.500000	100.699	-176.9521
34.500000	100.652	-178.0068
35.500000	100.603	-179.0363
36.500000	100.546	179.9851
37.500000	100.486	179.0807
38.700001	100.415	178.0468
40.000000	100.337	176.9535
41.200001	100.258	175.9980
42.500000	100.174	175.0659
43.700001	100.103	174.2533
45.000000	100.027	173.4177
46.200001	99.960	172.7205
47.500000	99.893	172.0237
48.700001	99.834	171.3783
50.000000	99.757	170.6243
51.500000	99.636	169.9038
53.000000	99.523	169.3513
54.500000	99.420	168.7806
56.000000	99.321	168.2061
58.000000	99.191	167.4764
60.000000	99.073	166.8675
61.500000	98.990	166.4114
63.000000	98.903	165.9733
65.000000	98.785	165.4349
67.000000	98.667	164.9312
69.000000	98.553	164.4639
71.000000	98.440	164.0457
73.000000	98.331	163.7092
75.000000	98.226	163.4213
77.500000	98.093	163.0861
80.000000	97.961	162.7929
82.500000	97.835	162.5258
85.000000	97.714	162.2928
87.500000	97.586	162.1101
90.000000	97.459	161.9929
92.500000	97.345	161.8388
95.000000	97.238	161.6892
97.500000	97.139	161.5766
100.000000	97.039	161.5074
103.000000	96.910	161.5298
106.000000	96.786	161.5769
109.000000	96.665	161.5682
112.000000	96.549	161.5793
115.000000	96.437	161.6426
118.000000	96.327	161.7454
122.000000	96.181	161.9153
125.000000	96.073	162.0786
128.000000	95.968	162.2616
132.000000	95.829	162.5273
136.000000	95.690	162.8835
140.000000	95.555	163.3911
145.000000	95.401	164.2469
150.000000	95.296	165.3385
155.000000	95.271	166.2679
160.000000	95.289	166.8189
165.000000	95.290	166.9690
170.000000	95.247	166.9954
175.000000	95.172	167.0992
180.000000	95.084	167.3333
185.000000	95.004	167.7005
190.000000	94.938	168.1529
195.000000	94.888	168.6400
200.000000	94.856	169.0966
206.000000	94.838	169.5158
212.000000	94.819	169.7544
218.000000	94.788	169.9001
224.000000	94.741	170.0273
230.000000	94.682	170.1791
236.000000	94.617	170.3909
243.000000	94.540	170.7189
250.000000	94.466	171.1089
258.000000	94.387	171.5478
265.000000	94.322	171.9649
272.000000	94.262	172.4165
280.000000	94.198	172.9548
290.000000	94.126	173.6605
300.000000	94.064	174.3895
307.000000	94.030	174.9001
315.000000	94.001	175.4716
325.000000	93.973	176.1375
335.000000	93.950	176.7222
345.000000	93.927	177.2643
355.000000	93.898	177.7797
365.000000	93.866	178.2883
375.000000	93.836	178.8138
387.000000	93.802	179.4561
400.000000	93.768	-179.8399
412.000000	93.741	-179.1920
425.000000	93.715	-178.4892
437.000000	93.694	-177.8470
450.000000	93.674	-177.1547
462.000000	93.659	-176.5185
475.000000	93.647	-175.8343
487.000000	93.638	-175.2104
500.000000	93.631	-174.5472
515.000000	93.626	-173.7969
530.000000	93.623	-173.0630
545.000000	93.621	-172.3416
560.000000	93.619	-171.6191
580.000000	93.619	-170.6479
600.000000	93.622	-169.6732
615.000000	93.627	-168.9367
630.000000	93.634	-168.1985
650.000000	93.648	-167.2095
670.000000	93.666	-166.1918
690.000000	93.690	-165.1688
710.000000	93.719	-164.1451
730.000000	93.755	-163.1137
750.000000	93.798	-162.0746
775.000000	93.862	-160.7702
800.000000	93.940	-159.4641
825.000000	94.032	-158.1672
850.000000	94.141	-156.8892
875.000000	94.268	-155.6586
900.000000	94.415	-154.5024
925.000000	94.588	-153.4928
950.000000	94.784	-152.8233
975.000000	94.935	-152.8111
1000.000000	94.888	-152.6738
1030.000000	94.881	-150.1862
1060.000000	95.192	-148.1221
1090.000000	95.512	-147.1953
1120.000000	95.788	-146.6719
1150.000000	96.037	-146.3146
1180.000000	96.268	-146.0660
1220.000000	96.553	-145.8696
1250.000000	96.751	-145.7959
1280.000000	96.936	-145.7680
1320.000000	97.167	-145.7786
1360.000000	97.382	-145.8185
1400.000000	97.584	-145.8675
1450.000000	97.823	-145.9349
1500.000000	98.052	-146.0009
1550.000000	98.273	-146.0712
1600.000000	98.491	-146.1438
1650.000000	98.709	-146.2261
1700.000000	98.926	-146.3283
1750.000000	99.144	-146.4612
1800.000000	99.364	-146.6394
1850.000000	99.585	-146.8702
1900.000000	99.807	-147.1599
1950.000000	100.028	-147.5114
2000.000000	100.248	-147.9273
2060.000000	100.512	-148.5171
2120.000000	100.772	-149.2109
2180.000000	101.028	-150.0143
2240.000000	101.279	-150.9352
2300.000000	101.522	-151.9784
2360.000000	101.754	-153.1400
2430.000000	102.007	-154.6298
2500.000000	102.238	-156.2430
2580.000000	102.477	-158.2154
2650.000000	102.663	-160.0524
2720.000000	102.824	-161.9929
2800.000000	102.969	-164.3024
2900.000000	103.092	-167.2216
3000.000000	103.157	-170.0680
3070.000000	103.175	-171.9948
3150.000000	103.172	-174.1380
3250.000000	103.133	-176.7095
3350.000000	103.058	-179.1283
3450.000000	102.954	178.6144
3550.000000	102.824	176.5352
3650.000000	102.674	174.6536
3750.000000	102.511	172.9691
3870.000000	102.307	171.1851
4000.000000	102.081	169.5038
4120.000000	101.871	168.1432
4250.000000	101.645	166.8456
4370.000000	101.437	165.7946
4500.000000	101.213	164.7971
4620.000000	101.007	163.9950
4750.000000	100.786	163.2549
4870.000000	100.584	162.6925
5000.000000	100.368	162.2159
5150.000000	100.124	161.8497
5300.000000	99.890	161.7045
5450.000000	99.673	161.7960
5600.000000	99.484	162.1485
5800.000000	99.319	163.0263
6000.000000	99.297	163.8213
6150.000000	99.333	164.2039
6300.000000	99.423	164.4980
6500.000000	99.658	164.5305
6700.000000	100.034	163.7291
6900.000000	100.539	161.4914
7100.000000	101.087	156.8915
7300.000000	101.447	149.3571
7500.000000	101.391	139.6460
7750.000000	100.563	127.0570
8000.000000	98.980	117.4476
8250.000000	96.999	112.4715
8500.000000	94.974	111.5012
8750.000000	93.094	113.3463
9000.000000	91.428	117.0052
9250.000000	89.971	121.7703
9500.000000	88.684	127.2175
9750.000000	87.507	133.2408
10000.000000	86.388	140.1360
10300.000000	85.139	150.2762
10600.000000	84.141	162.9010
10900.000000	83.646	178.0082
11200.000000	84.093	-165.3032
11500.000000	85.716	-150.7018
11800.000000	87.785	-142.7666
12200.000000	90.053	-141.0451
12500.000000	91.527	-141.8746
12800.000000	93.141	-144.0210
13200.000000	95.383	-152.8268
13600.000000	96.748	-171.8931
14000.000000	96.360	165.2672
14500.000000	94.061	146.4731
15000.000000	91.452	137.1471
15500.000000	88.991	130.5906
16000.000000	86.296	126.4969
16500.000000	83.281	127.3864
17000.000000	80.326	133.6317
17500.000000	77.836	142.6765
18000.000000	75.814	152.8743
18500.000000	74.170	163.9324
19000.000000	73.084	175.8064
19500.000000	72.894	-175.7412
20000.000000	72.996	-176.5339
20600.000000	71.592	172.9189
21200.000000	67.585	174.2459
21800.000000	62.448	-168.1351
