* Measurement data measured by REW V5.20
* Source: ASIO hdspfire, Analog 2 (1)
* Format: 256k Log Swept Sine, 1 sweep at -12.0 dBFS using a loopback as a timing reference
* Dated: 2021/12/28 8:41:38
* REW Settings:
*  C-weighting compensation: Off
*  Target level: 75.0 dB
* Note: Delay 0.0103 ms (3.5 mm, 0.14 in)  relative to Loopback from 1: Analog 1 (1) to 1: Analog 1 (1) with no timing offset
* Measurement: ACEFAST Crystal T3 R
* Smoothing: None
* Frequency Step: 1/24 octave
* Start Frequency: 20.000 Hz
*
* Freq(Hz)	SPL(dB)	Phase(degrees)
20.000000	88.4	-139.7864
20.600000	88.9	-144.0598
21.200001	89.4	-148.2472
21.799999	89.8	-152.4991
22.400000	90.2	-156.3597
23.000000	90.6	-159.7118
23.600000	91.1	-163.2566
24.299999	91.6	-168.0935
25.000000	92.0	-172.8119
25.799999	92.3	-177.2119
26.500000	92.7	178.9579
27.200001	93.1	174.7795
28.000000	93.3	170.5194
29.000000	93.7	166.1911
30.000000	94.2	161.5387
30.700001	94.4	158.3250
31.500000	94.6	155.2187
32.500000	94.9	151.5353
33.500000	95.2	147.4431
34.500000	95.4	143.5944
35.500000	95.7	139.9481
36.500000	95.8	136.2524
37.500000	96.0	133.2603
38.700001	96.3	129.7343
40.000000	96.4	125.7417
41.200001	96.6	122.7046
42.500000	96.7	119.0089
43.700001	96.8	116.0665
45.000000	97.1	112.9236
46.200001	97.0	108.4363
47.500000	97.0	107.2729
48.700001	97.2	104.8583
50.000000	97.4	102.5520
51.500000	97.4	99.7942
53.000000	97.5	97.4973
54.500000	97.5	95.0400
56.000000	97.5	92.7505
58.000000	97.6	89.7289
60.000000	97.7	87.2971
61.500000	97.7	85.4874
63.000000	97.7	83.8154
65.000000	97.7	81.6181
67.000000	97.7	79.3779
69.000000	97.8	77.5416
71.000000	97.8	75.7722
73.000000	97.8	73.9342
75.000000	97.8	72.2509
77.500000	97.8	70.3286
80.000000	97.8	68.5106
82.500000	97.7	66.6914
85.000000	97.7	65.1393
87.500000	97.6	63.4402
90.000000	97.6	61.8666
92.500000	97.5	60.5812
95.000000	97.5	59.4531
97.500000	97.4	58.1533
100.000000	97.3	57.0665
103.000000	97.2	55.7730
106.000000	97.1	54.6675
109.000000	96.9	53.6680
112.000000	96.8	52.7784
115.000000	96.7	52.1097
118.000000	96.5	51.2085
122.000000	96.3	50.5820
125.000000	96.2	50.6230
128.000000	96.0	49.8627
132.000000	95.8	49.3363
136.000000	95.6	49.2401
140.000000	95.4	49.5220
145.000000	95.1	49.5685
150.000000	94.9	50.0307
155.000000	94.6	50.8741
160.000000	94.4	51.7372
165.000000	94.1	52.6481
170.000000	94.0	54.2322
175.000000	93.8	55.8825
180.000000	93.6	57.1838
185.000000	93.5	58.8802
190.000000	93.3	60.6213
195.000000	93.2	62.1395
200.000000	93.1	63.8958
206.000000	93.1	66.1039
212.000000	93.0	68.3275
218.000000	93.0	70.3231
224.000000	93.0	72.3173
230.000000	93.1	74.0311
236.000000	93.1	75.8849
243.000000	93.2	77.9487
250.000000	93.1	80.3086
258.000000	93.3	81.8329
265.000000	93.4	83.4787
272.000000	93.4	84.9551
280.000000	93.5	86.5534
290.000000	93.6	88.6916
300.000000	93.7	90.3452
307.000000	93.8	91.9626
315.000000	93.9	93.1658
325.000000	93.9	94.7665
335.000000	94.0	96.3330
345.000000	94.0	97.8790
355.000000	94.1	99.3853
365.000000	94.1	100.5158
375.000000	94.1	102.6030
387.000000	94.1	103.9555
400.000000	94.1	105.7498
412.000000	94.0	107.5614
425.000000	94.1	109.9020
437.000000	94.0	112.0347
450.000000	94.1	114.2557
462.000000	94.1	115.8815
475.000000	94.1	117.8490
487.000000	94.0	119.5103
500.000000	94.0	121.4647
515.000000	93.9	123.8789
530.000000	93.9	126.3820
545.000000	93.9	128.9438
560.000000	93.9	131.6385
580.000000	93.9	134.7779
600.000000	93.9	137.7563
615.000000	93.8	139.9066
630.000000	93.8	142.2070
650.000000	93.7	145.3846
670.000000	93.7	148.6929
690.000000	93.6	152.0398
710.000000	93.6	155.4171
730.000000	93.6	158.7399
750.000000	93.5	162.1733
775.000000	93.5	166.5361
800.000000	93.6	169.9175
825.000000	93.6	175.4072
850.000000	93.6	179.8099
875.000000	93.7	-175.7646
900.000000	93.8	-171.5528
925.000000	93.9	-167.4119
950.000000	94.0	-163.2864
975.000000	94.2	-159.4780
1000.000000	94.4	-155.5901
1030.000000	94.7	-151.2653
1060.000000	94.9	-147.2814
1090.000000	95.2	-143.5241
1120.000000	95.4	-139.9205
1150.000000	95.7	-136.6696
1180.000000	95.9	-133.5339
1220.000000	96.2	-129.6096
1250.000000	96.4	-126.7366
1280.000000	96.6	-124.0438
1320.000000	96.9	-120.5358
1360.000000	97.1	-117.1547
1400.000000	97.3	-113.8225
1450.000000	97.6	-109.9462
1500.000000	97.8	-106.0720
1550.000000	98.0	-102.5482
1600.000000	98.4	-99.1817
1650.000000	98.5	-95.7535
1700.000000	98.7	-92.5940
1750.000000	98.9	-89.5939
1800.000000	99.1	-86.8707
1850.000000	99.2	-84.1270
1900.000000	99.3	-81.4298
1950.000000	99.5	-78.6558
2000.000000	99.6	-76.1235
2060.000000	99.8	-73.1578
2120.000000	99.9	-70.3120
2180.000000	100.1	-67.7457
2240.000000	100.2	-65.2421
2300.000000	100.3	-62.9025
2360.000000	100.4	-60.5924
2430.000000	100.5	-58.0577
2500.000000	100.6	-55.6780
2580.000000	100.7	-53.2501
2650.000000	100.7	-51.3658
2720.000000	100.7	-49.4452
2800.000000	100.7	-47.4489
2900.000000	100.7	-45.1675
3000.000000	100.6	-42.9868
3070.000000	100.5	-41.4668
3150.000000	100.4	-39.5782
3250.000000	100.2	-37.1776
3350.000000	99.9	-34.5308
3450.000000	99.7	-31.2227
3550.000000	99.6	-27.7847
3650.000000	99.6	-24.7539
3750.000000	99.5	-22.0776
3870.000000	99.5	-18.8938
4000.000000	99.5	-15.9448
4120.000000	99.6	-13.5641
4250.000000	99.7	-11.5479
4370.000000	99.7	-10.4252
4500.000000	99.8	-9.5837
4620.000000	99.7	-9.2832
4750.000000	99.7	-9.1107
4870.000000	99.6	-9.1499
5000.000000	99.4	-9.3994
5150.000000	99.1	-9.5012
5300.000000	99.1	-6.2234
5450.000000	99.4	-7.2440
5600.000000	99.4	-9.8396
5800.000000	99.4	-14.4953
6000.000000	98.9	-20.4091
6150.000000	98.1	-23.8537
6300.000000	97.2	-26.2963
6500.000000	96.1	-22.9085
6700.000000	95.7	-22.8492
6900.000000	95.2	-19.7682
7100.000000	95.2	-17.0798
7300.000000	95.8	-14.4774
7500.000000	96.8	-14.0656
7750.000000	98.6	-20.0945
8000.000000	100.8	-35.4355
8250.000000	101.5	-65.8041
8500.000000	99.9	-91.8040
8750.000000	97.9	-112.0826
9000.000000	95.5	-131.8495
9250.000000	92.4	-146.0150
9500.000000	89.0	-155.0998
9750.000000	85.9	-159.5635
10000.000000	83.3	-158.9827
10300.000000	80.5	-157.4388
10600.000000	78.7	-156.1987
10900.000000	76.9	-152.6771
11200.000000	75.7	-148.3143
11500.000000	75.2	-147.9526
11800.000000	74.5	-148.0508
12200.000000	74.5	-146.1436
12500.000000	74.6	-147.9077
12800.000000	75.7	-151.4638
13200.000000	76.2	-150.0784
13600.000000	78.7	-156.7006
14000.000000	81.4	-173.4352
14500.000000	87.2	164.8535
15000.000000	93.6	79.7702
15500.000000	87.2	-2.5485
16000.000000	82.4	-34.7690
16500.000000	78.5	-63.7741
17000.000000	75.9	-94.0510
17500.000000	74.7	-124.6711
18000.000000	75.4	-143.2428
18500.000000	76.6	162.7560
19000.000000	74.7	74.1003
19500.000000	63.6	17.4392
20000.000000	57.7	-17.9633
20600.000000	51.1	-37.4424
21200.000000	45.4	-105.3884
21800.000000	43.1	-134.2285
