* Measurement data measured by REW V5.20
* Source: ASIO MOTU M Series, In 1
* Format: 256k Log Swept Sine, 1 sweep at -12.0 dBFS with no timing reference
* Dated: 2022/03/30 14:18:27
* REW Settings:
*  C-weighting compensation: Off
*  Target level: 75.0 dB
* Note: 
* Measurement: Air Pro SV RC1
* Smoothing: 1/12 octave
* Frequency Step: 1/24 octave
* Start Frequency: 20.000 Hz
*
* Freq(Hz)	SPL(dB)	Phase(degrees)
20.000000	100.4	-114.4108
20.600000	100.5	-116.8711
21.200001	100.5	-119.1852
21.799999	100.5	-121.2466
22.400000	100.6	-123.1686
23.000000	100.7	-125.1482
23.600000	100.8	-127.1801
24.299999	100.8	-129.3896
25.000000	100.9	-131.4083
25.799999	100.9	-133.8058
26.500000	100.9	-135.9623
27.200001	100.9	-137.9335
28.000000	100.9	-139.9875
29.000000	100.9	-142.4371
30.000000	100.9	-144.6871
30.700001	100.9	-146.2696
31.500000	100.9	-147.9875
32.500000	100.9	-149.8863
33.500000	100.8	-151.8882
34.500000	100.8	-153.6717
35.500000	100.8	-155.1622
36.500000	100.7	-156.6984
37.500000	100.7	-158.1073
38.700001	100.7	-159.7559
40.000000	100.6	-161.5032
41.200001	100.5	-163.0204
42.500000	100.5	-164.4834
43.700001	100.4	-165.6960
45.000000	100.4	-167.0298
46.200001	100.3	-168.2711
47.500000	100.3	-169.5313
48.700001	100.2	-170.6022
50.000000	100.1	-171.7109
51.500000	100.1	-172.9503
53.000000	100.0	-174.0358
54.500000	99.9	-175.1159
56.000000	99.9	-176.1853
58.000000	99.8	-177.5349
60.000000	99.7	-178.7347
61.500000	99.6	-179.5769
63.000000	99.5	179.6023
65.000000	99.5	178.5251
67.000000	99.4	177.4778
69.000000	99.3	176.5169
71.000000	99.2	175.6552
73.000000	99.1	174.8260
75.000000	99.0	174.0053
77.500000	98.9	172.9550
80.000000	98.8	172.0139
82.500000	98.7	171.1857
85.000000	98.6	170.3035
87.500000	98.5	169.3051
90.000000	98.4	168.2899
92.500000	98.3	167.6661
95.000000	98.2	167.1370
97.500000	98.2	166.4841
100.000000	98.0	165.7749
103.000000	97.9	164.9800
106.000000	97.8	164.2573
109.000000	97.7	163.5868
112.000000	97.6	162.9528
115.000000	97.5	162.3440
118.000000	97.3	161.7719
122.000000	97.2	161.0601
125.000000	97.1	160.5445
128.000000	96.9	160.0779
132.000000	96.8	159.4667
136.000000	96.6	158.8610
140.000000	96.4	158.3860
145.000000	96.0	158.1686
150.000000	95.7	158.8970
155.000000	95.6	160.2528
160.000000	95.6	160.8611
165.000000	95.6	160.6055
170.000000	95.5	160.2129
175.000000	95.2	160.1633
180.000000	95.0	160.4464
185.000000	94.9	160.6292
190.000000	94.9	160.5815
195.000000	94.8	160.5460
200.000000	94.7	160.5175
206.000000	94.6	160.5317
212.000000	94.4	160.6513
218.000000	94.3	160.8602
224.000000	94.1	161.1578
230.000000	94.0	161.4961
236.000000	93.9	161.8695
243.000000	93.7	162.3439
250.000000	93.6	162.8738
258.000000	93.5	163.4979
265.000000	93.4	164.0788
272.000000	93.2	164.6740
280.000000	93.1	165.3764
290.000000	93.0	166.2644
300.000000	92.9	167.1653
307.000000	92.8	167.7999
315.000000	92.7	168.5225
325.000000	92.7	169.4267
335.000000	92.6	170.3267
345.000000	92.5	171.2327
355.000000	92.4	172.1618
365.000000	92.4	173.1196
375.000000	92.3	174.1189
387.000000	92.3	175.3685
400.000000	92.2	176.7388
412.000000	92.2	177.9731
425.000000	92.3	179.2284
437.000000	92.3	-179.7421
450.000000	92.4	-178.8245
462.000000	92.4	-178.1743
475.000000	92.5	-177.6693
487.000000	92.6	-177.3351
500.000000	92.6	-177.0432
515.000000	92.7	-176.7553
530.000000	92.7	-176.4900
545.000000	92.7	-176.2386
560.000000	92.7	-176.0342
580.000000	92.7	-175.8221
600.000000	92.7	-175.6246
615.000000	92.7	-175.4623
630.000000	92.7	-175.2949
650.000000	92.7	-175.0667
670.000000	92.7	-174.8545
690.000000	92.7	-174.6926
710.000000	92.7	-174.5690
730.000000	92.7	-174.4520
750.000000	92.7	-174.3123
775.000000	92.7	-174.1135
800.000000	92.7	-173.8746
825.000000	92.7	-173.4432
850.000000	92.7	-172.6919
875.000000	92.7	-171.7238
900.000000	92.8	-170.7231
925.000000	92.8	-169.7389
950.000000	92.9	-168.7935
975.000000	92.9	-167.9042
1000.000000	93.0	-167.0873
1030.000000	93.1	-166.2175
1060.000000	93.2	-165.4773
1090.000000	93.2	-164.8575
1120.000000	93.3	-164.3359
1150.000000	93.4	-163.8758
1180.000000	93.4	-163.4293
1220.000000	93.5	-162.8154
1250.000000	93.5	-162.4211
1280.000000	93.5	-162.1603
1320.000000	93.6	-161.9322
1360.000000	93.6	-161.6130
1400.000000	93.6	-161.0640
1450.000000	93.7	-160.0861
1500.000000	93.8	-158.8535
1550.000000	94.0	-157.2853
1600.000000	94.2	-155.4330
1650.000000	94.3	-153.4169
1700.000000	94.3	-151.3321
1750.000000	94.5	-149.2694
1800.000000	94.9	-147.2783
1850.000000	95.3	-145.2932
1900.000000	95.8	-143.3160
1950.000000	96.4	-141.5818
2000.000000	97.0	-140.3373
2060.000000	97.6	-139.4907
2120.000000	98.3	-138.9774
2180.000000	98.9	-138.8198
2240.000000	99.5	-139.0734
2300.000000	100.1	-139.3384
2360.000000	100.6	-139.5253
2430.000000	101.2	-139.9379
2500.000000	101.9	-140.8372
2580.000000	102.5	-142.5180
2650.000000	103.0	-144.5689
2720.000000	103.5	-147.3160
2800.000000	103.8	-151.3973
2900.000000	104.0	-156.9918
3000.000000	104.1	-162.1971
3070.000000	104.1	-165.5320
3150.000000	104.0	-169.0443
3250.000000	103.9	-172.9805
3350.000000	103.7	-176.4112
3450.000000	103.5	-179.3409
3550.000000	103.1	178.2361
3650.000000	102.8	176.3057
3750.000000	102.4	174.8318
3870.000000	102.0	173.6251
4000.000000	101.6	173.0148
4120.000000	101.2	173.1476
4250.000000	100.8	174.0184
4370.000000	100.4	175.3499
4500.000000	100.2	177.2809
4620.000000	100.0	179.4481
4750.000000	99.8	-177.8861
4870.000000	99.9	-175.2962
5000.000000	100.0	-172.7308
5150.000000	100.5	-170.6635
5300.000000	101.1	-169.7094
5450.000000	101.8	-170.2349
5600.000000	102.7	-172.9484
5800.000000	103.6	179.0578
6000.000000	103.9	166.8207
6150.000000	103.6	157.0070
6300.000000	102.8	148.7120
6500.000000	101.5	141.7832
6700.000000	100.2	138.7217
6900.000000	99.1	137.8137
7100.000000	98.3	138.2360
7300.000000	97.8	139.1935
7500.000000	97.8	140.9579
7750.000000	98.6	144.1548
8000.000000	100.2	145.6431
8250.000000	101.9	142.5560
8500.000000	103.2	132.1118
8750.000000	103.3	114.4117
9000.000000	102.0	96.4445
9250.000000	99.7	85.5940
9500.000000	96.9	82.4542
9750.000000	94.4	84.3037
10000.000000	92.3	88.8192
10300.000000	90.2	95.9290
10600.000000	88.5	104.1258
10900.000000	87.0	113.3047
11200.000000	85.9	123.8181
11500.000000	85.1	135.7437
11800.000000	84.6	148.0549
12200.000000	84.3	163.9200
12500.000000	84.3	175.5616
12800.000000	84.5	-172.8587
13200.000000	85.3	-157.7873
13600.000000	86.7	-143.3230
14000.000000	89.1	-130.5308
14500.000000	93.0	-125.7159
15000.000000	95.1	-144.0102
15500.000000	93.4	-162.8362
16000.000000	90.0	-160.3213
16500.000000	87.6	-148.0646
17000.000000	87.4	-140.5298
17500.000000	88.4	-146.8159
18000.000000	88.3	-169.3464
18500.000000	85.9	167.5522
19000.000000	81.8	157.1783
19500.000000	77.1	155.9394
20000.000000	72.3	159.3187
20600.000000	66.4	168.6442
21200.000000	60.6	-175.2313
21800.000000	56.0	-155.8076
