* Measurement data measured by REW V5.20
* Source: ASIO MOTU M Series, In 1
* Format: 256k Log Swept Sine, 1 sweep at -12.0 dBFS with no timing reference
* Dated: 2022/09/10 15:55:41
* REW Settings:
*  C-weighting compensation: Off
*  Target level: 75.0 dB
* Note: 
* Measurement: Alkaid LC1
* Smoothing: 1/12 octave
* Frequency Step: 1/24 octave
* Start Frequency: 20.000 Hz
*
* Freq(Hz)	SPL(dB)	Phase(degrees)
20.000000	102.071	24.0188
20.600000	102.141	23.2710
21.200001	102.212	22.5368
21.799999	102.283	21.7744
22.400000	102.346	20.9923
23.000000	102.399	20.2379
23.600000	102.448	19.5330
24.299999	102.504	18.7432
25.000000	102.556	17.9683
25.799999	102.607	17.1295
26.500000	102.651	16.4406
27.200001	102.695	15.7691
28.000000	102.745	15.0051
29.000000	102.803	14.0394
30.000000	102.852	13.0799
30.700001	102.881	12.4415
31.500000	102.913	11.7407
32.500000	102.950	10.8946
33.500000	102.985	10.0864
34.500000	103.016	9.2982
35.500000	103.042	8.5295
36.500000	103.064	7.7801
37.500000	103.081	7.0522
38.700001	103.101	6.2173
40.000000	103.125	5.3131
41.200001	103.141	4.4597
42.500000	103.149	3.6065
43.700001	103.159	2.8808
45.000000	103.170	2.0990
46.200001	103.174	1.3666
47.500000	103.171	0.6001
48.700001	103.163	-0.1112
50.000000	103.147	-0.8017
51.500000	103.146	-1.5681
53.000000	103.142	-2.3764
54.500000	103.135	-3.1479
56.000000	103.123	-3.9053
58.000000	103.093	-4.8533
60.000000	103.062	-5.7644
61.500000	103.038	-6.4414
63.000000	103.015	-7.1039
65.000000	102.983	-7.9635
67.000000	102.945	-8.7795
69.000000	102.903	-9.5674
71.000000	102.860	-10.3435
73.000000	102.817	-11.0970
75.000000	102.771	-11.8151
77.500000	102.708	-12.6801
80.000000	102.643	-13.5320
82.500000	102.578	-14.3517
85.000000	102.506	-15.0843
87.500000	102.417	-15.8036
90.000000	102.319	-16.4683
92.500000	102.259	-17.1468
95.000000	102.202	-17.8857
97.500000	102.129	-18.5284
100.000000	102.046	-19.1199
103.000000	101.949	-19.8190
106.000000	101.852	-20.4751
109.000000	101.749	-21.0754
112.000000	101.643	-21.6530
115.000000	101.534	-22.1895
118.000000	101.423	-22.6704
122.000000	101.271	-23.2336
125.000000	101.155	-23.5777
128.000000	101.040	-23.8385
132.000000	100.893	-24.0435
136.000000	100.761	-24.0767
140.000000	100.661	-23.9718
145.000000	100.598	-23.8575
150.000000	100.585	-24.0271
155.000000	100.580	-24.5132
160.000000	100.563	-25.3874
165.000000	100.500	-26.5050
170.000000	100.382	-27.6096
175.000000	100.232	-28.5582
180.000000	100.067	-29.3028
185.000000	99.900	-29.8786
190.000000	99.732	-30.3522
195.000000	99.563	-30.7460
200.000000	99.401	-31.0624
206.000000	99.217	-31.3769
212.000000	99.037	-31.6289
218.000000	98.862	-31.8242
224.000000	98.691	-31.9770
230.000000	98.525	-32.0872
236.000000	98.363	-32.1623
243.000000	98.178	-32.2122
250.000000	97.997	-32.2189
258.000000	97.790	-32.1682
265.000000	97.614	-32.0778
272.000000	97.441	-31.9466
280.000000	97.248	-31.7398
290.000000	97.014	-31.3768
300.000000	96.791	-30.8724
307.000000	96.648	-30.4382
315.000000	96.507	-29.8886
325.000000	96.371	-29.2766
335.000000	96.254	-28.9273
345.000000	96.120	-28.7794
355.000000	95.958	-28.6112
365.000000	95.784	-28.3251
375.000000	95.609	-27.9498
387.000000	95.404	-27.4053
400.000000	95.193	-26.7272
412.000000	95.007	-26.0380
425.000000	94.817	-25.2434
437.000000	94.649	-24.4699
450.000000	94.476	-23.5948
462.000000	94.323	-22.7638
475.000000	94.166	-21.8343
487.000000	94.028	-20.9504
500.000000	93.885	-19.9688
515.000000	93.730	-18.8139
530.000000	93.585	-17.6325
545.000000	93.448	-16.4221
560.000000	93.322	-15.1855
580.000000	93.166	-13.5038
600.000000	93.026	-11.7847
615.000000	92.932	-10.4782
630.000000	92.845	-9.1540
650.000000	92.742	-7.3625
670.000000	92.656	-5.5547
690.000000	92.584	-3.7235
710.000000	92.525	-1.8709
730.000000	92.481	-0.0036
750.000000	92.451	1.8741
775.000000	92.434	4.2487
800.000000	92.438	6.6368
825.000000	92.463	9.0554
850.000000	92.508	11.5355
875.000000	92.583	14.1282
900.000000	92.706	16.8479
925.000000	92.906	19.5587
950.000000	93.180	21.9701
975.000000	93.491	23.9076
1000.000000	93.800	25.4358
1030.000000	94.155	26.9281
1060.000000	94.498	28.1856
1090.000000	94.835	29.2495
1120.000000	95.167	30.1229
1150.000000	95.492	30.8131
1180.000000	95.807	31.3362
1220.000000	96.211	31.8174
1250.000000	96.502	32.0456
1280.000000	96.781	32.1790
1320.000000	97.137	32.2368
1360.000000	97.477	32.1835
1400.000000	97.804	32.0382
1450.000000	98.198	31.7387
1500.000000	98.578	31.3091
1550.000000	98.947	30.7477
1600.000000	99.306	30.0512
1650.000000	99.652	29.2047
1700.000000	99.985	28.2037
1750.000000	100.301	27.0505
1800.000000	100.598	25.7495
1850.000000	100.872	24.3102
1900.000000	101.121	22.7481
1950.000000	101.342	21.0867
2000.000000	101.533	19.3505
2060.000000	101.722	17.2099
2120.000000	101.867	15.0554
2180.000000	101.969	12.9357
2240.000000	102.034	10.8972
2300.000000	102.065	8.9746
2360.000000	102.071	7.1807
2430.000000	102.051	5.2524
2500.000000	102.006	3.5088
2580.000000	101.931	1.7615
2650.000000	101.852	0.4432
2720.000000	101.765	-0.7002
2800.000000	101.658	-1.8158
2900.000000	101.510	-2.9128
3000.000000	101.344	-3.6635
3070.000000	101.210	-3.8984
3150.000000	101.052	-3.6761
3250.000000	100.919	-2.5498
3350.000000	100.948	-0.9065
3450.000000	101.149	0.5343
3550.000000	101.465	1.3370
3650.000000	101.838	1.3877
3750.000000	102.230	0.6891
3870.000000	102.686	-1.1327
4000.000000	103.104	-4.3165
4120.000000	103.351	-8.2783
4250.000000	103.395	-13.3181
4370.000000	103.184	-18.0669
4500.000000	102.686	-22.5080
4620.000000	102.027	-25.3202
4750.000000	101.184	-26.5425
4870.000000	100.373	-25.8754
5000.000000	99.544	-23.2849
5150.000000	98.757	-18.1378
5300.000000	98.262	-11.0902
5450.000000	98.175	-2.6727
5600.000000	98.659	6.4524
5800.000000	100.392	16.4069
6000.000000	102.539	18.1572
6150.000000	103.782	14.4764
6300.000000	104.563	8.6654
6500.000000	104.940	0.8521
6700.000000	104.886	-4.5850
6900.000000	104.788	-7.4774
7100.000000	104.873	-9.0022
7300.000000	105.197	-10.5431
7500.000000	105.706	-13.3033
7750.000000	106.362	-20.0606
8000.000000	106.571	-30.7479
8250.000000	105.977	-42.3602
8500.000000	104.671	-50.8308
8750.000000	103.058	-54.6667
9000.000000	101.514	-54.8357
9250.000000	100.221	-52.8567
9500.000000	99.219	-50.0048
9750.000000	98.462	-47.3101
10000.000000	97.826	-45.4650
10300.000000	96.962	-44.2594
10600.000000	95.777	-41.9918
10900.000000	94.467	-36.2172
11200.000000	93.507	-27.7132
11500.000000	93.055	-18.7504
11800.000000	93.050	-10.6006
12200.000000	93.483	-2.8244
12500.000000	93.867	0.3515
12800.000000	94.147	1.8958
13200.000000	94.329	2.7323
13600.000000	94.399	3.0891
14000.000000	94.491	2.6756
14500.000000	94.623	-0.6191
15000.000000	94.282	-8.1716
15500.000000	93.116	-15.0174
16000.000000	91.691	-19.9291
16500.000000	89.934	-23.4048
17000.000000	88.154	-23.4942
17500.000000	86.860	-25.0637
18000.000000	85.508	-30.9527
18500.000000	83.489	-38.1882
19000.000000	80.736	-42.6985
19500.000000	77.408	-41.6487
20000.000000	73.860	-33.6074
20600.000000	70.286	-21.1197
21200.000000	67.070	-7.3350
21800.000000	64.053	9.5270
