* Measurement data measured by REW V5.20
* Source: ASIO MOTU M Series, In 1
* Format: 256k Log Swept Sine, 1 sweep at -12.0 dBFS using a loopback as a timing reference
* Dated: 2022/02/21 21:41:36
* REW Settings:
*  C-weighting compensation: Off
*  Target level: 75.0 dB
* Note: Delay 9,389.9412 ms (3,220.750 m, 10566 ft 9 in)  relative to Loopback from 1: Out 1 to 2: In 2 with no timing offset
* Measurement: Hyperion LC1
* Smoothing: 1/12 octave
* Frequency Step: 1/24 octave
* Start Frequency: 20.000 Hz
*
* Freq(Hz)	SPL(dB)	Phase(degrees)
20.000000	95.2	-73.8281
20.600000	95.3	-104.0566
21.200001	95.3	-134.1250
21.799999	95.4	-164.0957
22.400000	95.5	165.9561
23.000000	95.6	136.0000
23.600000	95.8	106.0352
24.299999	95.9	131.0928
25.000000	95.9	156.2109
25.799999	96.0	-123.5898
26.500000	96.1	-98.3770
27.200001	96.2	-73.1641
28.000000	96.2	5.3740
29.000000	96.3	155.5566
30.000000	96.3	177.9229
30.700001	96.4	78.0879
31.500000	96.4	-16.0293
32.500000	96.5	-31.9883
33.500000	96.6	-20.4199
34.500000	96.6	-86.1738
35.500000	96.7	-158.2812
36.500000	96.7	129.3857
37.500000	96.8	57.4209
38.700001	96.8	-93.7871
40.000000	96.9	162.6973
41.200001	96.9	-51.8604
42.500000	96.9	1.6553
43.700001	96.9	-108.0391
45.000000	97.0	55.1553
46.200001	97.0	-103.1182
47.500000	97.0	55.1895
48.700001	97.0	-103.2617
50.000000	97.0	55.0850
51.500000	97.0	127.1211
53.000000	97.0	-160.7686
54.500000	97.1	-88.6147
56.000000	97.1	-16.4653
58.000000	97.1	-160.2935
60.000000	97.1	55.9124
61.500000	97.1	128.1204
63.000000	97.1	-159.6121
65.000000	97.1	56.8030
67.000000	97.0	-86.8328
69.000000	97.0	129.5437
71.000000	97.0	-13.9946
73.000000	96.9	-157.3975
75.000000	96.9	59.1230
77.500000	96.9	59.7295
80.000000	96.9	61.4678
82.500000	96.8	81.4546
85.000000	96.7	-91.0996
87.500000	96.7	-65.5732
90.000000	96.6	28.0781
92.500000	96.4	-128.1738
95.000000	96.4	-53.4443
97.500000	96.3	54.0693
100.000000	96.3	70.3701
103.000000	96.4	-141.4111
106.000000	96.7	4.5049
109.000000	96.9	148.8350
112.000000	97.0	-67.1631
115.000000	97.0	77.2617
118.000000	96.9	-137.9863
122.000000	96.8	-64.5742
125.000000	96.7	80.7559
128.000000	96.6	-133.8125
132.000000	96.6	-59.8125
136.000000	96.5	14.1836
140.000000	96.5	88.1562
145.000000	96.4	90.6250
150.000000	96.3	93.0273
155.000000	96.3	95.4766
160.000000	96.2	98.0273
165.000000	96.2	100.6367
170.000000	96.0	103.3203
175.000000	95.9	106.0820
180.000000	95.7	108.8984
185.000000	95.6	111.7500
190.000000	95.6	114.6016
195.000000	95.6	117.4531
200.000000	95.5	120.2969
206.000000	95.5	51.7344
212.000000	95.4	-16.7656
218.000000	95.3	-85.2031
224.000000	95.2	-153.5547
230.000000	95.1	138.1875
236.000000	95.0	69.9688
243.000000	95.0	-69.6719
250.000000	94.9	150.5234
258.000000	94.9	-60.7812
265.000000	94.8	159.4062
272.000000	94.7	19.6641
280.000000	94.6	168.5938
290.000000	94.5	174.8203
300.000000	94.4	-178.9375
307.000000	94.3	41.5000
315.000000	94.3	-169.4297
325.000000	94.2	-163.0625
335.000000	94.1	-156.6797
345.000000	94.0	-150.2656
355.000000	93.9	-143.8438
365.000000	93.8	-137.4062
375.000000	93.8	-130.9609
387.000000	93.7	92.8125
400.000000	93.6	-114.7500
412.000000	93.5	109.0625
425.000000	93.4	-98.4844
437.000000	93.4	125.3750
450.000000	93.3	-82.1094
462.000000	93.2	141.7188
475.000000	93.2	-65.7969
487.000000	93.1	158.0781
500.000000	93.1	-49.4062
515.000000	93.0	-39.5312
530.000000	93.0	-29.6875
545.000000	92.9	-19.8281
560.000000	92.9	-9.9688
580.000000	92.8	3.1875
600.000000	92.8	16.3438
615.000000	92.8	26.2031
630.000000	92.7	36.0781
650.000000	92.7	49.2344
670.000000	92.7	62.4062
690.000000	92.7	75.5938
710.000000	92.7	88.7500
730.000000	92.6	101.9375
750.000000	92.6	115.0938
775.000000	92.6	131.5625
800.000000	92.7	148.0000
825.000000	92.7	164.4688
850.000000	92.7	-179.0625
875.000000	92.7	-162.6562
900.000000	92.7	-146.2500
925.000000	92.8	-129.9062
950.000000	92.8	-113.5938
975.000000	92.8	-97.3125
1000.000000	92.9	-81.1250
1030.000000	92.9	-61.7812
1060.000000	92.9	-42.5625
1090.000000	92.9	-23.4375
1120.000000	93.0	-4.3125
1150.000000	93.0	14.9062
1180.000000	93.0	34.0000
1220.000000	93.0	59.3750
1250.000000	92.9	78.5000
1280.000000	92.9	97.6250
1320.000000	92.9	123.3125
1360.000000	92.9	149.1875
1400.000000	92.8	175.2500
1450.000000	92.9	-151.8750
1500.000000	93.0	-118.6875
1550.000000	93.2	-85.6250
1600.000000	93.4	-52.4375
1650.000000	93.6	-19.6250
1700.000000	93.7	13.1250
1750.000000	93.8	45.8125
1800.000000	94.1	78.3750
1850.000000	94.5	110.7500
1900.000000	94.9	142.9375
1950.000000	95.4	174.8750
2000.000000	95.8	-153.3750
2060.000000	96.4	-115.8750
2120.000000	97.0	-78.7500
2180.000000	97.6	-42.3125
2240.000000	98.2	-6.5000
2300.000000	98.7	28.5000
2360.000000	99.2	62.7500
2430.000000	99.7	102.0000
2500.000000	100.0	140.3750
2580.000000	100.0	-176.2500
2650.000000	99.9	-138.2500
2720.000000	99.5	-99.5000
2800.000000	98.8	-53.8750
2900.000000	97.7	6.5000
3000.000000	96.8	70.3750
3070.000000	96.5	115.8750
3150.000000	96.4	167.2500
3250.000000	96.3	-129.2500
3350.000000	96.2	-66.1250
3450.000000	96.0	-2.5000
3550.000000	95.9	61.2500
3650.000000	95.8	125.2500
3750.000000	95.8	-170.6250
3870.000000	96.0	-93.7500
4000.000000	96.3	-10.8750
4120.000000	96.8	65.0000
4250.000000	97.3	146.0000
4370.000000	97.9	-140.7500
4500.000000	98.6	-63.1250
4620.000000	99.1	5.6250
4750.000000	99.4	77.5000
4870.000000	99.0	142.7500
5000.000000	98.1	-145.2500
5150.000000	96.5	-58.0000
5300.000000	94.7	33.5000
5450.000000	93.0	128.7500
5600.000000	91.5	-134.0000
5800.000000	89.8	-2.0000
6000.000000	88.7	131.2500
6150.000000	88.0	-128.0000
6300.000000	87.6	-27.5000
6500.000000	87.4	107.0000
6700.000000	87.5	-118.5000
6900.000000	87.9	15.2500
7100.000000	88.8	148.0000
7300.000000	90.1	-81.2500
7500.000000	92.1	45.7500
7750.000000	95.2	-164.2500
8000.000000	97.4	-20.7500
8250.000000	97.6	-136.2500
8500.000000	95.5	109.0000
8750.000000	92.1	-159.5000
9000.000000	88.5	-43.0000
9250.000000	85.8	179.2500
9500.000000	84.6	25.0000
9750.000000	84.7	-82.0000
10000.000000	84.6	-179.0000
10300.000000	83.4	-115.0000
10600.000000	81.9	-73.5000
10900.000000	81.2	111.5000
11200.000000	81.3	-91.0000
11500.000000	82.1	20.0000
11800.000000	83.4	-165.0000
12200.000000	85.7	170.0000
12500.000000	87.0	-122.5000
12800.000000	87.4	22.0000
13200.000000	86.3	97.0000
13600.000000	84.7	59.0000
14000.000000	84.1	-49.5000
14500.000000	85.9	-91.0000
15000.000000	88.5	-32.0000
15500.000000	88.3	7.5000
16000.000000	86.5	-169.5000
16500.000000	87.5	36.0000
17000.000000	86.1	133.0000
17500.000000	80.4	-97.0000
18000.000000	74.3	53.0000
18500.000000	69.3	15.0000
19000.000000	64.0	-47.5000
19500.000000	58.6	-8.0000
20000.000000	54.0	171.0000
20600.000000	55.7	-2.0000
21200.000000	59.8	-91.5000
21800.000000	60.6	-84.5000
