* Measurement data measured by REW V5.20
* Source: ASIO hdspfire, Analog 1 (1)
* Format: 256k Log Swept Sine, 1 sweep at -12.0 dBFS using a loopback as a timing reference
* Dated: 2021/09/11 3:40:22
* REW Settings:
*  C-weighting compensation: Off
*  Target level: 75.0 dB
* Note: Delay 0.0000 ms (0 mm, 0 in)  relative to Loopback from 1: Analog 1 (1) to 1: Analog 1 (1) with no timing offset
* Measurement: Audiosense DT300 R
* Smoothing: None
* Frequency Step: 1/24 octave
* Start Frequency: 20.000 Hz
*
* Freq(Hz)	SPL(dB)	Phase(degrees)
20.000000	97.8	-128.6029
20.600000	97.9	-130.4469
21.200001	98.0	-132.2427
21.799999	98.1	-133.9724
22.400000	98.2	-135.5989
23.000000	98.3	-137.1594
23.600000	98.4	-138.6868
24.299999	98.5	-140.4030
25.000000	98.5	-142.0660
25.799999	98.6	-143.9472
26.500000	98.7	-145.4972
27.200001	98.7	-146.9452
28.000000	98.8	-148.5825
29.000000	98.9	-150.5264
30.000000	98.9	-152.3320
30.700001	99.0	-153.6317
31.500000	99.0	-155.0791
32.500000	99.1	-156.7360
33.500000	99.1	-158.3467
34.500000	99.1	-159.8942
35.500000	99.2	-161.3874
36.500000	99.2	-162.8544
37.500000	99.2	-164.2146
38.700001	99.3	-165.8902
40.000000	99.3	-167.5076
41.200001	99.4	-169.2341
42.500000	99.4	-170.7947
43.700001	99.4	-172.0342
45.000000	99.4	-173.4291
46.200001	99.4	-174.7063
47.500000	99.4	-176.0704
48.700001	99.4	-177.5039
50.000000	99.4	-178.7128
51.500000	99.5	179.8871
53.000000	99.4	178.4771
54.500000	99.4	176.9700
56.000000	99.5	175.9250
58.000000	99.4	173.9287
60.000000	99.4	172.2989
61.500000	99.4	171.0453
63.000000	99.4	169.8300
65.000000	99.4	168.2561
67.000000	99.4	166.7541
69.000000	99.4	165.2970
71.000000	99.4	163.9013
73.000000	99.3	162.4445
75.000000	99.3	161.0220
77.500000	99.3	159.5024
80.000000	99.2	158.1387
82.500000	99.2	156.3628
85.000000	99.2	154.8142
87.500000	99.1	154.3758
90.000000	98.7	156.7623
92.500000	99.1	152.1391
95.000000	98.9	149.8627
97.500000	98.9	148.4074
100.000000	98.9	147.7728
103.000000	98.9	146.7325
106.000000	98.9	145.3792
109.000000	99.0	144.2302
112.000000	99.1	143.0017
115.000000	99.2	140.5679
118.000000	99.2	138.4478
122.000000	99.1	135.8940
125.000000	99.1	133.9374
128.000000	99.0	132.4378
132.000000	98.9	130.2061
136.000000	98.8	128.2526
140.000000	98.7	126.4407
145.000000	98.6	124.1853
150.000000	98.6	122.1379
155.000000	98.4	119.9933
160.000000	98.3	118.1452
165.000000	98.2	116.1655
170.000000	98.1	114.3762
175.000000	98.1	112.6556
180.000000	98.0	110.9203
185.000000	97.9	109.3197
190.000000	97.8	107.7478
195.000000	97.7	106.2562
200.000000	97.6	104.9415
206.000000	97.5	103.1718
212.000000	97.4	101.5428
218.000000	97.3	99.8585
224.000000	97.2	98.2098
230.000000	97.1	96.6434
236.000000	97.0	95.1760
243.000000	96.9	93.5558
250.000000	96.8	91.9197
258.000000	96.7	90.4339
265.000000	96.5	89.1224
272.000000	96.4	87.9117
280.000000	96.3	86.6446
290.000000	96.1	85.2719
300.000000	96.0	84.1631
307.000000	95.9	83.5101
315.000000	95.8	82.8193
325.000000	95.8	81.8148
335.000000	95.8	80.4678
345.000000	95.7	78.9813
355.000000	95.6	77.6188
365.000000	95.5	76.3836
375.000000	95.4	75.3391
387.000000	95.2	74.2977
400.000000	95.1	73.4607
412.000000	95.0	72.5550
425.000000	94.8	71.8719
437.000000	94.7	71.3344
450.000000	94.6	70.7937
462.000000	94.4	70.5346
475.000000	94.3	70.2415
487.000000	94.2	70.0774
500.000000	94.1	70.0206
515.000000	94.0	69.9106
530.000000	93.9	69.9608
545.000000	93.7	70.0561
560.000000	93.6	70.2764
580.000000	93.5	70.6874
600.000000	93.4	71.2175
615.000000	93.3	71.6635
630.000000	93.2	72.2058
650.000000	93.1	72.9890
670.000000	93.0	73.9218
690.000000	92.9	74.9071
710.000000	92.8	76.0069
730.000000	92.7	77.1713
750.000000	92.7	78.5482
775.000000	92.6	80.0923
800.000000	92.5	82.0062
825.000000	92.5	83.7246
850.000000	92.5	85.5192
875.000000	92.5	87.5734
900.000000	92.6	89.5965
925.000000	92.6	91.4955
950.000000	92.7	93.4691
975.000000	92.8	95.3091
1000.000000	92.9	97.1566
1030.000000	93.0	99.1182
1060.000000	93.2	100.9806
1090.000000	93.4	102.7068
1120.000000	93.5	104.2573
1150.000000	93.7	105.6974
1180.000000	93.8	107.0254
1220.000000	94.0	108.6908
1250.000000	94.1	109.8856
1280.000000	94.2	111.0813
1320.000000	94.2	112.6550
1360.000000	94.3	114.2711
1400.000000	94.4	115.9368
1450.000000	94.4	118.1758
1500.000000	94.4	120.8549
1550.000000	94.5	123.8136
1600.000000	94.6	126.5872
1650.000000	94.7	129.2978
1700.000000	94.8	132.0085
1750.000000	94.9	134.7286
1800.000000	95.0	137.4622
1850.000000	95.1	140.2023
1900.000000	95.2	142.9279
1950.000000	95.3	145.5883
2000.000000	95.5	148.2924
2060.000000	95.6	151.3657
2120.000000	95.8	154.3884
2180.000000	96.0	157.2656
2240.000000	96.2	159.9990
2300.000000	96.4	162.5467
2360.000000	96.6	164.9274
2430.000000	96.8	167.5426
2500.000000	97.0	169.9900
2580.000000	97.2	172.6502
2650.000000	97.3	174.8212
2720.000000	97.5	176.9243
2800.000000	97.6	179.1205
2900.000000	97.8	-178.6096
3000.000000	98.0	-176.9187
3070.000000	98.0	-176.0277
3150.000000	98.0	-174.9871
3250.000000	97.8	-173.5724
3350.000000	97.7	-171.9268
3450.000000	97.5	-170.2686
3550.000000	97.3	-169.0206
3650.000000	97.2	-168.7352
3750.000000	96.9	-170.1650
3870.000000	96.0	-173.9023
4000.000000	93.8	-175.1251
4120.000000	91.7	-167.2124
4250.000000	90.5	-153.3750
4370.000000	90.2	-142.7341
4500.000000	90.2	-135.1840
4620.000000	90.1	-131.0153
4750.000000	90.1	-128.7109
4870.000000	90.0	-128.2328
5000.000000	89.9	-129.3552
5150.000000	89.9	-132.7554
5300.000000	90.3	-138.5791
5450.000000	91.3	-147.0151
5600.000000	92.8	-158.4781
5800.000000	95.0	-179.5469
6000.000000	95.7	157.8749
6150.000000	95.0	147.2579
6300.000000	94.2	143.4453
6500.000000	93.3	146.1940
6700.000000	93.0	154.4227
6900.000000	93.1	165.6228
7100.000000	93.9	178.7305
7300.000000	95.3	-170.3214
7500.000000	97.3	-162.1722
7750.000000	100.5	-164.9193
8000.000000	101.1	171.8882
8250.000000	97.6	162.8370
8500.000000	94.3	171.8834
8750.000000	91.9	-172.1431
9000.000000	90.2	-154.0891
9250.000000	88.9	-134.4701
9500.000000	88.0	-114.7566
9750.000000	87.3	-95.1323
10000.000000	86.9	-76.9613
10300.000000	86.1	-53.0129
10600.000000	86.2	-28.5013
10900.000000	86.6	-6.6528
11200.000000	87.2	12.7731
11500.000000	87.9	27.5073
11800.000000	87.6	42.3463
12200.000000	88.3	59.3245
12500.000000	87.6	69.9449
12800.000000	86.7	84.7417
13200.000000	85.7	109.1191
13600.000000	85.4	136.6201
14000.000000	86.2	164.0994
14500.000000	89.1	-167.3308
15000.000000	94.4	-171.3041
15500.000000	91.1	152.4963
16000.000000	84.5	154.4920
16500.000000	78.2	-163.6914
17000.000000	79.1	-122.7950
17500.000000	81.9	-110.1215
18000.000000	81.9	-132.9706
18500.000000	76.3	-136.7217
19000.000000	73.4	-105.6442
19500.000000	77.4	-108.8662
20000.000000	77.6	-145.9045
20600.000000	74.6	150.5602
21200.000000	63.8	98.3020
21800.000000	56.5	121.5151
