* Measurement data measured by REW V5.20
* Source: ASIO Amari ASIO Driver, IN 1
* Format: 256k Log Swept Sine, 1 sweep at -12.0 dBFS using a loopback as a timing reference
* Dated: 2021/09/11 4:30:48
* REW Settings:
*  C-weighting compensation: Off
*  Target level: 75.0 dB
* Note: Delay -0.0086 ms (-2.9 mm, -0.12 in)  relative to Loopback from 1: OUT 1 to 2: IN 2 with no timing offset
* Measurement: Audiosense DT300 L28
* Smoothing: None
* Frequency Step: 1/24 octave
* Start Frequency: 20.000 Hz
*
* Freq(Hz)	SPL(dB)	Phase(degrees)
20.000000	106.8	-148.3774
20.600000	106.8	-150.4065
21.200001	106.9	-152.3792
21.799999	106.9	-154.3295
22.400000	107.0	-156.2173
23.000000	107.0	-158.0109
23.600000	107.0	-159.7454
24.299999	107.0	-161.7539
25.000000	107.0	-163.7231
25.799999	107.0	-165.8775
26.500000	107.0	-167.7075
27.200001	107.0	-169.5016
28.000000	107.0	-171.4849
29.000000	107.0	-173.8904
30.000000	107.0	-176.2477
30.700001	107.0	-177.8358
31.500000	107.0	-179.5808
32.500000	106.9	178.2899
33.500000	106.9	176.2084
34.500000	106.9	174.2411
35.500000	106.8	172.3411
36.500000	106.8	170.4597
37.500000	106.7	168.6827
38.700001	106.6	166.5922
40.000000	106.5	164.5149
41.200001	106.5	162.6538
42.500000	106.4	160.6902
43.700001	106.3	159.0158
45.000000	106.2	157.2783
46.200001	106.1	155.5837
47.500000	106.0	153.9752
48.700001	105.9	152.4467
50.000000	105.8	150.9231
51.500000	105.7	149.1052
53.000000	105.6	147.4098
54.500000	105.4	145.7065
56.000000	105.3	144.2629
58.000000	105.1	142.2202
60.000000	104.9	140.2654
61.500000	104.8	139.0170
63.000000	104.7	137.5367
65.000000	104.5	135.8561
67.000000	104.3	134.1091
69.000000	104.2	132.6102
71.000000	104.0	131.0544
73.000000	103.9	129.7601
75.000000	103.7	128.4124
77.500000	103.5	126.6857
80.000000	103.3	125.0804
82.500000	103.1	123.6990
85.000000	102.8	122.2805
87.500000	102.6	120.7416
90.000000	102.5	119.0045
92.500000	102.2	118.3851
95.000000	102.0	117.4285
97.500000	101.8	116.4471
100.000000	101.6	115.4353
103.000000	101.4	114.3419
106.000000	101.2	113.6054
109.000000	101.0	112.8715
112.000000	100.9	112.0594
115.000000	100.8	111.5224
118.000000	100.8	110.6343
122.000000	100.6	108.5869
125.000000	100.5	107.0278
128.000000	100.4	105.6904
132.000000	100.1	104.0248
136.000000	99.9	102.5746
140.000000	99.6	101.3192
145.000000	99.4	99.8784
150.000000	99.1	98.6074
155.000000	98.8	97.4447
160.000000	98.6	96.3325
165.000000	98.4	95.3275
170.000000	98.1	94.3926
175.000000	97.9	93.5225
180.000000	97.7	92.6614
185.000000	97.5	91.8840
190.000000	97.4	91.1368
195.000000	97.2	90.4482
200.000000	97.0	89.8077
206.000000	96.8	89.1351
212.000000	96.6	88.4927
218.000000	96.4	87.9156
224.000000	96.3	87.4056
230.000000	96.1	86.9312
236.000000	95.9	86.5195
243.000000	95.8	86.0823
250.000000	95.6	85.7395
258.000000	95.4	85.3484
265.000000	95.3	85.0886
272.000000	95.2	84.8892
280.000000	95.0	84.7259
290.000000	94.8	84.6798
300.000000	94.7	84.7902
307.000000	94.6	85.0504
315.000000	94.5	85.4841
325.000000	94.4	86.2089
335.000000	94.4	86.7798
345.000000	94.5	86.7238
355.000000	94.5	86.1926
365.000000	94.5	85.6769
375.000000	94.4	85.3380
387.000000	94.4	85.1998
400.000000	94.3	85.2517
412.000000	94.2	85.4500
425.000000	94.1	85.7744
437.000000	94.1	86.1427
450.000000	94.0	86.5778
462.000000	94.0	87.0802
475.000000	94.0	87.6348
487.000000	94.0	88.1947
500.000000	94.0	88.8301
515.000000	93.9	89.6196
530.000000	93.9	90.4391
545.000000	93.9	91.3140
560.000000	94.0	92.2064
580.000000	94.0	93.4695
600.000000	94.0	94.7739
615.000000	94.0	95.8051
630.000000	94.1	96.8625
650.000000	94.1	98.3041
670.000000	94.2	99.8103
690.000000	94.2	101.3615
710.000000	94.3	102.9639
730.000000	94.4	104.6007
750.000000	94.5	106.2729
775.000000	94.6	108.4191
800.000000	94.7	110.5987
825.000000	94.9	112.8430
850.000000	95.0	115.0964
875.000000	95.2	117.3488
900.000000	95.4	119.5620
925.000000	95.6	121.7562
950.000000	95.9	123.8960
975.000000	96.1	125.9165
1000.000000	96.4	127.8243
1030.000000	96.7	129.9864
1060.000000	97.1	131.9457
1090.000000	97.4	133.7204
1120.000000	97.7	135.2853
1150.000000	98.1	136.7031
1180.000000	98.4	137.9827
1220.000000	98.7	139.5273
1250.000000	99.0	140.6122
1280.000000	99.3	141.6367
1320.000000	99.6	142.9660
1360.000000	99.9	144.2633
1400.000000	100.1	145.5547
1450.000000	100.4	147.1711
1500.000000	100.7	149.0165
1550.000000	100.9	151.0767
1600.000000	101.2	153.0043
1650.000000	101.5	154.7848
1700.000000	101.8	156.4758
1750.000000	102.1	158.0855
1800.000000	102.3	159.6136
1850.000000	102.6	161.0245
1900.000000	102.8	162.3507
1950.000000	103.1	163.5600
2000.000000	103.3	164.6839
2060.000000	103.5	165.9014
2120.000000	103.7	167.0172
2180.000000	103.8	168.0241
2240.000000	104.0	168.9355
2300.000000	104.0	169.8310
2360.000000	104.0	170.7901
2430.000000	104.0	172.0122
2500.000000	104.0	173.4793
2580.000000	103.9	175.5015
2650.000000	103.7	177.6068
2720.000000	103.6	-179.9564
2800.000000	103.5	-176.7957
2900.000000	103.5	-172.6258
3000.000000	103.5	-168.6730
3070.000000	103.5	-166.1394
3150.000000	103.5	-163.4744
3250.000000	103.5	-160.3976
3350.000000	103.5	-157.6160
3450.000000	103.6	-155.2915
3550.000000	103.6	-153.7578
3650.000000	103.5	-153.4774
3750.000000	103.3	-154.9354
3870.000000	102.5	-158.3206
4000.000000	100.5	-158.5183
4120.000000	98.7	-150.4743
4250.000000	97.6	-137.3850
4370.000000	97.5	-127.3397
4500.000000	97.5	-120.1298
4620.000000	97.6	-116.1584
4750.000000	97.7	-114.1153
4870.000000	97.8	-114.0132
5000.000000	97.9	-115.7484
5150.000000	98.3	-120.1733
5300.000000	99.0	-127.2601
5450.000000	100.3	-137.0349
5600.000000	102.0	-149.5482
5800.000000	104.2	-170.2419
6000.000000	105.0	169.3659
6150.000000	104.7	159.1738
6300.000000	104.1	154.4936
6500.000000	103.5	155.1858
6700.000000	103.2	161.2448
6900.000000	103.2	170.4861
7100.000000	103.8	-177.9868
7300.000000	104.9	-167.6292
7500.000000	106.5	-158.6303
7750.000000	109.4	-155.4810
8000.000000	111.5	-173.7353
8250.000000	108.8	166.2693
8500.000000	104.9	169.4442
8750.000000	101.9	-176.3884
9000.000000	99.6	-158.3228
9250.000000	97.8	-137.9462
9500.000000	96.5	-116.7291
9750.000000	95.6	-95.2893
10000.000000	95.0	-75.0239
10300.000000	94.1	-48.5859
10600.000000	94.1	-21.2844
10900.000000	94.6	3.2114
11200.000000	95.3	24.6761
11500.000000	96.1	41.0279
11800.000000	95.9	57.6520
12200.000000	96.4	75.8299
12500.000000	95.6	89.2138
12800.000000	94.6	107.2798
13200.000000	93.7	136.3148
13600.000000	93.5	168.2103
14000.000000	94.3	-159.6903
14500.000000	97.1	-124.2524
15000.000000	102.5	-113.6145
15500.000000	101.3	-146.9936
16000.000000	94.9	-141.8867
16500.000000	88.5	-96.7859
17000.000000	89.1	-45.5876
17500.000000	92.0	-20.2705
18000.000000	92.8	-29.7354
18500.000000	87.6	-23.1276
19000.000000	84.5	17.5480
19500.000000	87.6	38.5518
20000.000000	88.0	30.4363
20600.000000	84.7	8.9354
21200.000000	77.0	-5.3149
21800.000000	63.5	-11.2643
