* Measurement data measured by REW V5.20
* Source: ASIO MOTU M Series, In 1
* Format: 256k Log Swept Sine, 1 sweep at -12.0 dBFS with no timing reference
* Dated: 2022/09/06 18:27:50
* REW Settings:
*  C-weighting compensation: Off
*  Target level: 75.0 dB
* Note: 
* Measurement: CALLA RC1
* Smoothing: 1/12 octave
* Frequency Step: 1/24 octave
* Start Frequency: 20.000 Hz
*
* Freq(Hz)	SPL(dB)	Phase(degrees)
20.000000	106.830	-165.1405
20.600000	106.852	-166.2367
21.200001	106.874	-167.2989
21.799999	106.893	-168.3480
22.400000	106.905	-169.3691
23.000000	106.913	-170.3325
23.600000	106.921	-171.2411
24.299999	106.933	-172.2768
25.000000	106.941	-173.3036
25.799999	106.945	-174.4378
26.500000	106.946	-175.4127
27.200001	106.941	-176.3887
28.000000	106.923	-177.4512
29.000000	106.899	-178.6696
30.000000	106.875	-179.8565
30.700001	106.855	179.3381
31.500000	106.833	178.4484
32.500000	106.803	177.3603
33.500000	106.770	176.3212
34.500000	106.737	175.3084
35.500000	106.697	174.3257
36.500000	106.654	173.4011
37.500000	106.612	172.4928
38.700001	106.555	171.4000
40.000000	106.483	170.2927
41.200001	106.423	169.3747
42.500000	106.366	168.3987
43.700001	106.314	167.5188
45.000000	106.251	166.5945
46.200001	106.189	165.7832
47.500000	106.118	164.9233
48.700001	106.047	164.1317
50.000000	105.965	163.3322
51.500000	105.883	162.4729
53.000000	105.805	161.5973
54.500000	105.725	160.7809
56.000000	105.644	159.9973
58.000000	105.527	159.0029
60.000000	105.407	158.0608
61.500000	105.316	157.3811
63.000000	105.227	156.7259
65.000000	105.108	155.9016
67.000000	104.989	155.1333
69.000000	104.869	154.3911
71.000000	104.748	153.6879
73.000000	104.631	153.0096
75.000000	104.513	152.3725
77.500000	104.364	151.6351
80.000000	104.215	150.9370
82.500000	104.069	150.2854
85.000000	103.925	149.6967
87.500000	103.765	149.1432
90.000000	103.600	148.6823
92.500000	103.472	148.1536
95.000000	103.348	147.5662
97.500000	103.221	147.1237
100.000000	103.088	146.7355
103.000000	102.921	146.2739
106.000000	102.758	145.8543
109.000000	102.597	145.4863
112.000000	102.438	145.1469
115.000000	102.283	144.8329
118.000000	102.132	144.5521
122.000000	101.932	144.2384
125.000000	101.783	144.0385
128.000000	101.634	143.8599
132.000000	101.438	143.6582
136.000000	101.245	143.5038
140.000000	101.055	143.4037
145.000000	100.821	143.3697
150.000000	100.589	143.4550
155.000000	100.356	143.6803
160.000000	100.138	144.0973
165.000000	99.955	144.7181
170.000000	99.830	145.4120
175.000000	99.758	145.8893
180.000000	99.706	145.9689
185.000000	99.628	145.7888
190.000000	99.511	145.5338
195.000000	99.381	145.2510
200.000000	99.239	145.0704
206.000000	99.051	145.0291
212.000000	98.864	145.0873
218.000000	98.684	145.2173
224.000000	98.510	145.3866
230.000000	98.342	145.6067
236.000000	98.179	145.8782
243.000000	97.996	146.2269
250.000000	97.821	146.6024
258.000000	97.627	147.0694
265.000000	97.464	147.5038
272.000000	97.308	147.9584
280.000000	97.137	148.4918
290.000000	96.932	149.1843
300.000000	96.736	149.9022
307.000000	96.606	150.4203
315.000000	96.461	151.0275
325.000000	96.288	151.7997
335.000000	96.123	152.5822
345.000000	95.966	153.3719
355.000000	95.815	154.1806
365.000000	95.671	155.0078
375.000000	95.532	155.8393
387.000000	95.372	156.8542
400.000000	95.207	157.9886
412.000000	95.064	159.0764
425.000000	94.922	160.3157
437.000000	94.812	161.4823
450.000000	94.716	162.6748
462.000000	94.634	163.6559
475.000000	94.538	164.6496
487.000000	94.445	165.5741
500.000000	94.344	166.6118
515.000000	94.232	167.8546
530.000000	94.128	169.1290
545.000000	94.033	170.4244
560.000000	93.945	171.7276
580.000000	93.839	173.4786
600.000000	93.746	175.2494
615.000000	93.683	176.5869
630.000000	93.627	177.9338
650.000000	93.561	179.7440
670.000000	93.506	-178.4325
690.000000	93.458	-176.5810
710.000000	93.414	-174.6644
730.000000	93.380	-172.5751
750.000000	93.395	-170.2680
775.000000	93.511	-167.7247
800.000000	93.604	-165.6878
825.000000	93.673	-163.5401
850.000000	93.760	-161.2640
875.000000	93.877	-158.9493
900.000000	94.025	-156.6324
925.000000	94.211	-154.3580
950.000000	94.432	-152.2141
975.000000	94.677	-150.2404
1000.000000	94.942	-148.4059
1030.000000	95.288	-146.3960
1060.000000	95.661	-144.6369
1090.000000	96.055	-143.1631
1120.000000	96.461	-141.9960
1150.000000	96.871	-141.1338
1180.000000	97.277	-140.5627
1220.000000	97.799	-140.2130
1250.000000	98.171	-140.2122
1280.000000	98.523	-140.3913
1320.000000	98.959	-140.8380
1360.000000	99.359	-141.4516
1400.000000	99.730	-142.1732
1450.000000	100.159	-143.1743
1500.000000	100.562	-144.2596
1550.000000	100.946	-145.4398
1600.000000	101.317	-146.7399
1650.000000	101.678	-148.1937
1700.000000	102.025	-149.8358
1750.000000	102.354	-151.6935
1800.000000	102.662	-153.7849
1850.000000	102.939	-156.1154
1900.000000	103.177	-158.6729
1950.000000	103.368	-161.4266
2000.000000	103.506	-164.3297
2060.000000	103.594	-167.9216
2120.000000	103.594	-171.5119
2180.000000	103.509	-174.9712
2240.000000	103.346	-178.1841
2300.000000	103.119	178.9380
2360.000000	102.842	176.4500
2430.000000	102.473	174.0732
2500.000000	102.076	172.2613
2580.000000	101.609	170.8378
2650.000000	101.206	170.1007
2720.000000	100.815	169.7809
2800.000000	100.395	169.8589
2900.000000	99.918	170.5085
3000.000000	99.503	171.6359
3070.000000	99.249	172.6469
3150.000000	98.997	173.9830
3250.000000	98.740	175.8580
3350.000000	98.544	177.8858
3450.000000	98.406	-179.9815
3550.000000	98.324	-177.7785
3650.000000	98.298	-175.5386
3750.000000	98.329	-173.2997
3870.000000	98.442	-170.6731
4000.000000	98.657	-167.9937
4120.000000	98.941	-165.7711
4250.000000	99.338	-163.7595
4370.000000	99.781	-162.3958
4500.000000	100.330	-161.6165
4620.000000	100.881	-161.6963
4750.000000	101.491	-162.8046
4870.000000	102.024	-164.8786
5000.000000	102.505	-168.2790
5150.000000	102.847	-173.4088
5300.000000	102.890	-179.1068
5450.000000	102.624	175.5873
5600.000000	102.088	171.5605
5800.000000	101.114	170.1398
6000.000000	100.695	172.3496
6150.000000	100.493	171.8578
6300.000000	100.096	172.3922
6500.000000	99.710	175.2334
6700.000000	99.631	179.1415
6900.000000	99.888	-176.6211
7100.000000	100.533	-172.5953
7300.000000	101.654	-169.5370
7500.000000	103.344	-168.7916
7750.000000	106.049	-175.5767
8000.000000	107.996	161.9657
8250.000000	107.389	131.1991
8500.000000	104.489	112.9682
8750.000000	101.052	109.1149
9000.000000	98.238	112.2322
9250.000000	96.239	118.0509
9500.000000	94.902	124.7684
9750.000000	94.096	131.4477
10000.000000	93.739	137.3353
10300.000000	93.801	142.0882
10600.000000	94.136	142.4905
10900.000000	94.202	137.4437
11200.000000	93.380	130.0181
11500.000000	91.564	127.4929
11800.000000	89.534	133.3707
12200.000000	88.239	144.9184
12500.000000	87.910	150.6471
12800.000000	87.682	154.8761
13200.000000	87.193	158.7258
13600.000000	86.447	165.3062
14000.000000	86.217	175.1952
14500.000000	87.584	-171.7723
15000.000000	91.321	-167.0412
15500.000000	94.462	168.8644
16000.000000	92.951	130.3621
16500.000000	88.034	121.3466
17000.000000	83.645	130.2089
17500.000000	81.793	139.9034
18000.000000	81.705	139.9153
18500.000000	81.144	126.0099
19000.000000	78.471	112.4049
19500.000000	74.056	113.9325
20000.000000	69.214	128.0554
20600.000000	64.275	153.4676
21200.000000	61.009	-177.0255
21800.000000	59.592	-151.6073
