* Measurement data measured by REW V5.20
* Source: ASIO MOTU M Series, In 1
* Format: 256k Log Swept Sine, 1 sweep at -12.0 dBFS with no timing reference
* Dated: 2022/05/23 23:22:41
* REW Settings:
*  C-weighting compensation: Off
*  Target level: 75.0 dB
* Note: 
* Measurement: CCA CRA+ RC1
* Smoothing: 1/12 octave
* Frequency Step: 1/24 octave
* Start Frequency: 20.000 Hz
*
* Freq(Hz)	SPL(dB)	Phase(degrees)
20.000000	102.124	-140.1043
20.600000	102.198	-141.4628
21.200001	102.274	-142.7051
21.799999	102.356	-143.8973
22.400000	102.441	-145.1033
23.000000	102.516	-146.3347
23.600000	102.575	-147.5294
24.299999	102.630	-148.7929
25.000000	102.687	-149.9448
25.799999	102.752	-151.2548
26.500000	102.797	-152.3901
27.200001	102.832	-153.4530
28.000000	102.871	-154.6135
29.000000	102.910	-156.0394
30.000000	102.942	-157.3893
30.700001	102.961	-158.3101
31.500000	102.977	-159.2747
32.500000	103.018	-160.3490
33.500000	103.076	-161.5576
34.500000	103.111	-162.8151
35.500000	103.133	-163.9716
36.500000	103.147	-165.0477
37.500000	103.160	-166.0237
38.700001	103.173	-167.1839
40.000000	103.180	-168.4001
41.200001	103.178	-169.5605
42.500000	103.160	-170.7264
43.700001	103.151	-171.7138
45.000000	103.144	-172.7939
46.200001	103.127	-173.7469
47.500000	103.107	-174.6736
48.700001	103.084	-175.4819
50.000000	103.066	-176.2766
51.500000	103.052	-177.3025
53.000000	103.024	-178.3424
54.500000	102.995	-179.3193
56.000000	102.966	179.7714
58.000000	102.926	178.6374
60.000000	102.878	177.5652
61.500000	102.841	176.7853
63.000000	102.802	176.0220
65.000000	102.749	175.0505
67.000000	102.695	174.1445
69.000000	102.638	173.2787
71.000000	102.580	172.4245
73.000000	102.519	171.5914
75.000000	102.458	170.8027
77.500000	102.378	169.8638
80.000000	102.297	168.9626
82.500000	102.217	168.1121
85.000000	102.134	167.3424
87.500000	102.036	166.6102
90.000000	101.933	165.9511
92.500000	101.862	165.2462
95.000000	101.790	164.4763
97.500000	101.707	163.8242
100.000000	101.619	163.2347
103.000000	101.515	162.5472
106.000000	101.412	161.9048
109.000000	101.308	161.3089
112.000000	101.204	160.7365
115.000000	101.101	160.1957
118.000000	100.998	159.6967
122.000000	100.861	159.0836
125.000000	100.759	158.6424
128.000000	100.656	158.2189
132.000000	100.520	157.7011
136.000000	100.384	157.2263
140.000000	100.248	156.8038
145.000000	100.081	156.3220
150.000000	99.913	155.9006
155.000000	99.745	155.5526
160.000000	99.578	155.2830
165.000000	99.416	155.1218
170.000000	99.254	155.0112
175.000000	99.099	154.9899
180.000000	98.965	155.0414
185.000000	98.847	155.1068
190.000000	98.744	155.1557
195.000000	98.648	155.0625
200.000000	98.549	154.9520
206.000000	98.425	154.8629
212.000000	98.296	154.7392
218.000000	98.160	154.6269
224.000000	98.028	154.5669
230.000000	97.894	154.5645
236.000000	97.760	154.5898
243.000000	97.606	154.6599
250.000000	97.455	154.7787
258.000000	97.288	154.9459
265.000000	97.145	155.1225
272.000000	97.006	155.3353
280.000000	96.851	155.6140
290.000000	96.663	156.0118
300.000000	96.483	156.4780
307.000000	96.364	156.8510
315.000000	96.236	157.3129
325.000000	96.088	157.9074
335.000000	95.957	158.4816
345.000000	95.831	159.0132
355.000000	95.707	159.5182
365.000000	95.584	160.0330
375.000000	95.461	160.5688
387.000000	95.316	161.2473
400.000000	95.167	162.0255
412.000000	95.037	162.7693
425.000000	94.903	163.6014
437.000000	94.786	164.3849
450.000000	94.667	165.2483
462.000000	94.564	166.0581
475.000000	94.459	166.9432
487.000000	94.367	167.7684
500.000000	94.273	168.6683
515.000000	94.171	169.7157
530.000000	94.077	170.7757
545.000000	93.990	171.8409
560.000000	93.909	172.9121
580.000000	93.810	174.3569
600.000000	93.722	175.8153
615.000000	93.664	176.9167
630.000000	93.611	178.0271
650.000000	93.548	179.5198
670.000000	93.495	-178.9747
690.000000	93.453	-177.4519
710.000000	93.419	-175.9064
730.000000	93.394	-174.3363
750.000000	93.380	-172.7322
775.000000	93.376	-170.6533
800.000000	93.400	-168.4352
825.000000	93.475	-166.0799
850.000000	93.631	-163.8770
875.000000	93.819	-162.1795
900.000000	93.978	-160.7894
925.000000	94.120	-159.4043
950.000000	94.269	-157.9912
975.000000	94.436	-156.6135
1000.000000	94.621	-155.3242
1030.000000	94.863	-153.9405
1060.000000	95.119	-152.7690
1090.000000	95.381	-151.8200
1120.000000	95.643	-151.0912
1150.000000	95.900	-150.5749
1180.000000	96.145	-150.2498
1220.000000	96.444	-150.0778
1250.000000	96.643	-150.1059
1280.000000	96.816	-150.2223
1320.000000	97.001	-150.4198
1360.000000	97.137	-150.5143
1400.000000	97.242	-150.3517
1450.000000	97.375	-149.7214
1500.000000	97.554	-148.7921
1550.000000	97.789	-147.8417
1600.000000	98.066	-147.0525
1650.000000	98.366	-146.4878
1700.000000	98.676	-146.1409
1750.000000	98.990	-145.9879
1800.000000	99.304	-146.0138
1850.000000	99.616	-146.2061
1900.000000	99.925	-146.5602
1950.000000	100.229	-147.0718
2000.000000	100.525	-147.7410
2060.000000	100.869	-148.7509
2120.000000	101.196	-149.9834
2180.000000	101.501	-151.4305
2240.000000	101.779	-153.0771
2300.000000	102.025	-154.9009
2360.000000	102.236	-156.8714
2430.000000	102.431	-159.3036
2500.000000	102.569	-161.8110
2580.000000	102.657	-164.6678
2650.000000	102.676	-167.0717
2720.000000	102.648	-169.3142
2800.000000	102.572	-171.6246
2900.000000	102.430	-174.1050
3000.000000	102.255	-176.1465
3070.000000	102.121	-177.3326
3150.000000	101.961	-178.4476
3250.000000	101.761	-179.4850
3350.000000	101.576	179.8334
3450.000000	101.417	179.4423
3550.000000	101.290	179.2688
3650.000000	101.199	179.2371
3750.000000	101.148	179.2759
3870.000000	101.139	179.3191
4000.000000	101.190	179.2328
4120.000000	101.286	178.9050
4250.000000	101.429	178.1457
4370.000000	101.580	176.9595
4500.000000	101.736	175.0560
4620.000000	101.840	172.6935
4750.000000	101.872	169.5237
4870.000000	101.795	166.1565
5000.000000	101.563	162.2185
5150.000000	101.045	157.6490
5300.000000	100.137	154.7398
5450.000000	99.218	156.1552
5600.000000	98.788	157.1909
5800.000000	98.078	157.3749
6000.000000	97.260	159.2954
6150.000000	96.702	161.8263
6300.000000	96.231	165.0780
6500.000000	95.765	170.2697
6700.000000	95.511	176.1833
6900.000000	95.495	-177.3989
7100.000000	95.757	-170.7004
7300.000000	96.352	-164.0341
7500.000000	97.356	-157.8152
7750.000000	99.369	-151.8254
8000.000000	102.293	-151.1201
8250.000000	105.277	-162.6872
8500.000000	106.517	170.6633
8750.000000	105.207	145.1585
9000.000000	102.542	133.5306
9250.000000	99.987	131.2703
9500.000000	98.020	132.7332
9750.000000	96.516	135.7354
10000.000000	95.321	139.6819
10300.000000	94.200	145.3326
10600.000000	93.377	151.8179
10900.000000	92.873	158.9802
11200.000000	92.738	166.4009
11500.000000	93.020	173.5485
11800.000000	93.780	179.6819
12200.000000	95.561	-176.0679
12500.000000	97.189	-178.7921
12800.000000	98.416	171.0927
13200.000000	98.387	150.7705
13600.000000	96.459	137.1531
14000.000000	93.942	135.4033
14500.000000	91.680	142.4503
15000.000000	91.054	151.2024
15500.000000	91.467	154.8048
16000.000000	92.461	156.3695
16500.000000	94.709	146.0620
17000.000000	94.442	116.1019
17500.000000	91.165	97.8083
18000.000000	87.226	94.1073
18500.000000	83.873	94.9637
19000.000000	80.925	97.5565
19500.000000	78.085	102.4357
20000.000000	75.344	109.6227
20600.000000	72.179	121.1596
21200.000000	69.082	137.0143
21800.000000	66.382	154.7137
