* Measurement data measured by REW V5.20
* Source: ASIO MOTU M Series, In 1
* Format: 256k Log Swept Sine, 1 sweep at -12.0 dBFS with no timing reference
* Dated: 2022/07/20 16:57:49
* REW Settings:
*  C-weighting compensation: Off
*  Target level: 75.0 dB
* Note: 
* Measurement: D13 S LC1
* Smoothing: 1/12 octave
* Frequency Step: 1/24 octave
* Start Frequency: 20.000 Hz
*
* Freq(Hz)	SPL(dB)	Phase(degrees)
20.000000	102.730	-158.2174
20.600000	102.758	-159.4945
21.200001	102.770	-160.7510
21.799999	102.764	-161.9286
22.400000	102.749	-162.9724
23.000000	102.739	-163.8667
23.600000	102.746	-164.6734
24.299999	102.779	-165.6567
25.000000	102.817	-166.8064
25.799999	102.830	-168.2306
26.500000	102.814	-169.3514
27.200001	102.800	-170.3039
28.000000	102.798	-171.3683
29.000000	102.778	-172.7055
30.000000	102.756	-173.8576
30.700001	102.750	-174.6836
31.500000	102.729	-175.6490
32.500000	102.692	-176.6567
33.500000	102.677	-177.5869
34.500000	102.661	-178.5773
35.500000	102.634	-179.5459
36.500000	102.596	179.5407
37.500000	102.558	178.7163
38.700001	102.519	177.7048
40.000000	102.468	176.5825
41.200001	102.416	175.5840
42.500000	102.353	174.5927
43.700001	102.303	173.8095
45.000000	102.255	172.9559
46.200001	102.201	172.1768
47.500000	102.136	171.3573
48.700001	102.066	170.6276
50.000000	101.993	169.9474
51.500000	101.929	169.1400
53.000000	101.855	168.3107
54.500000	101.777	167.6051
56.000000	101.710	166.9593
58.000000	101.614	165.9760
60.000000	101.504	165.0564
61.500000	101.422	164.4417
63.000000	101.344	163.8898
65.000000	101.243	163.2010
67.000000	101.137	162.5265
69.000000	101.030	161.8842
71.000000	100.927	161.2630
73.000000	100.822	160.6919
75.000000	100.716	160.1658
77.500000	100.583	159.5476
80.000000	100.455	158.9666
82.500000	100.328	158.4258
85.000000	100.197	157.9538
87.500000	100.072	157.4590
90.000000	99.944	156.9556
92.500000	99.820	156.6338
95.000000	99.709	156.3633
97.500000	99.593	156.0627
100.000000	99.474	155.7639
103.000000	99.336	155.4715
106.000000	99.201	155.2249
109.000000	99.067	154.9926
112.000000	98.938	154.7806
115.000000	98.808	154.6038
118.000000	98.679	154.4576
122.000000	98.513	154.2871
125.000000	98.393	154.1889
128.000000	98.274	154.1170
132.000000	98.120	154.0564
136.000000	97.969	154.0316
140.000000	97.822	154.0374
145.000000	97.641	154.0905
150.000000	97.466	154.1671
155.000000	97.297	154.2932
160.000000	97.133	154.4693
165.000000	96.972	154.6649
170.000000	96.813	154.8920
175.000000	96.659	155.1651
180.000000	96.504	155.4881
185.000000	96.353	155.8773
190.000000	96.212	156.3315
195.000000	96.072	156.8472
200.000000	95.936	157.4266
206.000000	95.802	158.1993
212.000000	95.686	159.0482
218.000000	95.625	159.9146
224.000000	95.600	160.6247
230.000000	95.578	161.0016
236.000000	95.536	161.1798
243.000000	95.453	161.3580
250.000000	95.351	161.6207
258.000000	95.225	161.9914
265.000000	95.117	162.3958
272.000000	95.014	162.8539
280.000000	94.901	163.4146
290.000000	94.767	164.1598
300.000000	94.645	164.9380
307.000000	94.565	165.4992
315.000000	94.480	166.1484
325.000000	94.381	166.9620
335.000000	94.291	167.7684
345.000000	94.205	168.5639
355.000000	94.125	169.3701
365.000000	94.051	170.1817
375.000000	93.982	170.9860
387.000000	93.906	171.9497
400.000000	93.832	172.9905
412.000000	93.770	173.9435
425.000000	93.710	174.9627
437.000000	93.660	175.8929
450.000000	93.611	176.8968
462.000000	93.571	177.8174
475.000000	93.532	178.8057
487.000000	93.501	179.7128
500.000000	93.471	-179.3098
515.000000	93.442	-178.1933
530.000000	93.419	-177.0848
545.000000	93.400	-175.9847
560.000000	93.387	-174.8913
580.000000	93.379	-173.4464
600.000000	93.378	-172.0135
615.000000	93.383	-170.9453
630.000000	93.392	-169.8785
650.000000	93.411	-168.4637
670.000000	93.438	-167.0670
690.000000	93.473	-165.6726
710.000000	93.516	-164.2838
730.000000	93.566	-162.8990
750.000000	93.625	-161.5211
775.000000	93.710	-159.8100
800.000000	93.805	-158.1029
825.000000	93.909	-156.3644
850.000000	94.032	-154.4726
875.000000	94.231	-152.5159
900.000000	94.473	-151.0871
925.000000	94.687	-149.8880
950.000000	94.898	-148.7770
975.000000	95.104	-147.7117
1000.000000	95.319	-146.6755
1030.000000	95.590	-145.5437
1060.000000	95.871	-144.5685
1090.000000	96.155	-143.7546
1120.000000	96.439	-143.0917
1150.000000	96.719	-142.5614
1180.000000	96.993	-142.1474
1220.000000	97.348	-141.7431
1250.000000	97.607	-141.5286
1280.000000	97.861	-141.3757
1320.000000	98.194	-141.2567
1360.000000	98.521	-141.2229
1400.000000	98.846	-141.2693
1450.000000	99.250	-141.4456
1500.000000	99.656	-141.7716
1550.000000	100.065	-142.2680
1600.000000	100.475	-142.9603
1650.000000	100.885	-143.8757
1700.000000	101.292	-145.0385
1750.000000	101.691	-146.4722
1800.000000	102.074	-148.1917
1850.000000	102.435	-150.2037
1900.000000	102.765	-152.5052
1950.000000	103.056	-155.0761
2000.000000	103.300	-157.8806
2060.000000	103.519	-161.4809
2120.000000	103.650	-165.2254
2180.000000	103.692	-168.9819
2240.000000	103.647	-172.6176
2300.000000	103.525	-176.0186
2360.000000	103.338	-179.0987
2430.000000	103.057	177.7842
2500.000000	102.729	175.2105
2580.000000	102.325	172.9203
2650.000000	101.962	171.4412
2720.000000	101.605	170.3973
2800.000000	101.213	169.6631
2900.000000	100.760	169.3170
3000.000000	100.353	169.4921
3070.000000	100.099	169.8817
3150.000000	99.845	170.5771
3250.000000	99.601	171.7527
3350.000000	99.457	172.9781
3450.000000	99.377	173.9511
3550.000000	99.319	174.7477
3650.000000	99.283	175.4946
3750.000000	99.279	176.1755
3870.000000	99.316	176.8057
4000.000000	99.393	177.1329
4120.000000	99.471	177.0298
4250.000000	99.529	176.5338
4370.000000	99.543	175.9456
4500.000000	99.541	175.2866
4620.000000	99.529	174.5053
4750.000000	99.473	173.4375
4870.000000	99.361	172.3932
5000.000000	99.169	171.3538
5150.000000	98.830	170.4707
5300.000000	98.309	171.0515
5450.000000	97.963	174.8285
5600.000000	98.173	177.8329
5800.000000	98.411	178.8814
6000.000000	98.561	179.9313
6150.000000	98.720	-179.2178
6300.000000	98.925	-178.4784
6500.000000	99.270	-177.7297
6700.000000	99.710	-177.2343
6900.000000	100.300	-177.0552
7100.000000	101.130	-177.6095
7300.000000	102.266	179.9877
7500.000000	103.608	173.6932
7750.000000	104.886	157.0502
8000.000000	104.626	133.5183
8250.000000	102.616	114.7192
8500.000000	99.723	106.0289
8750.000000	96.805	105.1202
9000.000000	94.289	108.8047
9250.000000	92.270	114.9670
9500.000000	90.703	122.4714
9750.000000	89.529	130.6931
10000.000000	88.705	139.1891
10300.000000	88.127	149.3612
10600.000000	87.978	159.2116
10900.000000	88.282	168.3506
11200.000000	89.123	176.1399
11500.000000	90.583	-179.0220
11800.000000	92.402	179.5222
12200.000000	93.919	162.9600
12500.000000	93.360	145.7805
12800.000000	91.478	135.2603
13200.000000	88.325	134.5260
13600.000000	85.821	142.1616
14000.000000	84.423	152.5104
14500.000000	84.266	164.8784
15000.000000	85.759	169.0230
15500.000000	86.831	154.4893
16000.000000	85.069	135.1224
16500.000000	81.522	132.3589
17000.000000	78.838	136.0939
17500.000000	77.017	133.0159
18000.000000	73.968	131.8579
18500.000000	69.883	144.6556
19000.000000	66.711	162.4299
19500.000000	64.786	177.1897
20000.000000	62.996	-170.7337
20600.000000	60.140	-149.9740
21200.000000	57.774	-117.8373
21800.000000	57.655	-88.0578
