* Measurement data measured by REW V5.20
* Source: ASIO hdspfire, Analog 1 (1)
* Format: 256k Log Swept Sine, 1 sweep at -12.0 dBFS using a loopback as a timing reference
* Dated: 2021/09/16 20:51:17
* REW Settings:
*  C-weighting compensation: Off
*  Target level: 75.0 dB
* Note: Delay 0.0291 ms (10.0 mm, 0.39 in)  relative to Loopback from 1: Analog 1 (1) to 2: Analog 2 (1) with no timing offset
* Measurement: EarFun Air Pro 2 NC R
* Smoothing: None
* Frequency Step: 1/24 octave
* Start Frequency: 20.000 Hz
*
* Freq(Hz)	SPL(dB)	Phase(degrees)
20.000000	102.0	66.2944
20.600000	102.1	64.8210
21.200001	102.1	63.3918
21.799999	102.2	62.1284
22.400000	102.2	61.1413
23.000000	102.3	60.2685
23.600000	102.5	59.2145
24.299999	102.6	57.7371
25.000000	102.7	56.3608
25.799999	102.9	54.9714
26.500000	103.0	53.6241
27.200001	103.1	52.2092
28.000000	103.3	50.6132
29.000000	103.5	48.3480
30.000000	103.7	46.0237
30.700001	103.8	44.4168
31.500000	103.9	42.4651
32.500000	104.0	40.1372
33.500000	104.1	37.8293
34.500000	104.2	35.4699
35.500000	104.2	33.3447
36.500000	104.2	31.2209
37.500000	104.2	29.2355
38.700001	104.2	26.9807
40.000000	104.2	24.5768
41.200001	104.1	22.7640
42.500000	104.1	20.7826
43.700001	104.0	19.0640
45.000000	104.0	17.4157
46.200001	103.9	15.9462
47.500000	103.8	14.5091
48.700001	103.8	13.0372
50.000000	103.7	11.8984
51.500000	103.6	10.4415
53.000000	103.5	8.9917
54.500000	103.5	7.6341
56.000000	103.4	6.3857
58.000000	103.3	4.8105
60.000000	103.2	3.2876
61.500000	103.1	2.1805
63.000000	103.0	1.1203
65.000000	102.9	-0.2211
67.000000	102.8	-1.5143
69.000000	102.7	-2.7679
71.000000	102.6	-3.9749
73.000000	102.5	-5.1428
75.000000	102.4	-6.2512
77.500000	102.2	-7.5952
80.000000	102.1	-8.8853
82.500000	101.9	-10.1195
85.000000	101.8	-11.2164
87.500000	101.6	-12.3141
90.000000	101.4	-13.5806
92.500000	101.3	-14.3690
95.000000	101.1	-15.2849
97.500000	100.9	-16.0999
100.000000	100.8	-16.8771
103.000000	100.5	-17.7028
106.000000	100.3	-18.4279
109.000000	100.0	-19.0737
112.000000	99.8	-19.6873
115.000000	99.6	-20.1744
118.000000	99.3	-20.6080
122.000000	99.0	-21.0690
125.000000	98.8	-21.2869
128.000000	98.5	-21.4695
132.000000	98.2	-21.6047
136.000000	97.9	-21.6006
140.000000	97.6	-21.4095
145.000000	97.2	-20.9818
150.000000	96.9	-20.4113
155.000000	96.5	-19.5425
160.000000	96.2	-18.5023
165.000000	96.0	-17.3239
170.000000	95.7	-16.1437
175.000000	95.5	-15.0515
180.000000	95.3	-13.6693
185.000000	95.1	-12.3174
190.000000	94.9	-10.9181
195.000000	94.8	-9.5371
200.000000	94.6	-8.2073
206.000000	94.5	-6.6115
212.000000	94.4	-4.9771
218.000000	94.3	-3.4949
224.000000	94.2	-2.0917
230.000000	94.1	-0.5198
236.000000	94.1	0.7712
243.000000	94.1	2.3872
250.000000	94.1	3.8011
258.000000	94.1	5.2568
265.000000	94.2	6.4383
272.000000	94.2	7.5000
280.000000	94.2	8.6290
290.000000	94.3	9.9841
300.000000	94.3	11.2161
307.000000	94.4	11.9160
315.000000	94.4	12.6665
325.000000	94.5	13.5869
335.000000	94.5	14.4276
345.000000	94.6	15.1989
355.000000	94.6	15.8322
365.000000	94.7	16.5522
375.000000	94.8	17.1874
387.000000	94.8	17.9231
400.000000	94.9	18.6666
412.000000	95.0	19.3766
425.000000	95.0	20.1000
437.000000	95.1	20.7086
450.000000	95.2	21.3449
462.000000	95.3	21.9616
475.000000	95.3	22.5417
487.000000	95.4	23.0646
500.000000	95.5	23.3759
515.000000	95.6	23.7791
530.000000	95.7	24.0790
545.000000	95.7	24.4623
560.000000	95.7	24.8430
580.000000	95.6	26.4910
600.000000	95.9	29.4822
615.000000	96.3	29.6945
630.000000	96.5	28.6677
650.000000	96.5	27.5586
670.000000	96.5	27.0151
690.000000	96.4	26.6632
710.000000	96.3	26.4957
730.000000	96.1	26.8303
750.000000	95.9	27.3792
775.000000	95.7	28.6427
800.000000	95.4	30.2150
825.000000	95.1	32.4407
850.000000	94.9	34.7963
875.000000	94.6	37.8500
900.000000	94.4	41.2514
925.000000	94.3	44.7458
950.000000	94.2	48.3550
975.000000	94.1	52.2227
1000.000000	94.0	56.0200
1030.000000	94.0	60.7039
1060.000000	94.1	65.4396
1090.000000	94.1	69.9536
1120.000000	94.2	74.4381
1150.000000	94.4	78.6522
1180.000000	94.5	82.8248
1220.000000	94.6	88.1193
1250.000000	94.7	92.0798
1280.000000	94.8	95.9202
1320.000000	94.9	101.3349
1360.000000	94.9	106.4688
1400.000000	95.1	112.2316
1450.000000	95.1	116.3118
1500.000000	95.3	118.4353
1550.000000	95.4	120.7821
1600.000000	95.6	122.8966
1650.000000	95.9	124.9441
1700.000000	96.1	126.8958
1750.000000	96.4	128.6113
1800.000000	96.7	129.9928
1850.000000	97.1	131.0648
1900.000000	97.4	132.0286
1950.000000	97.8	132.5061
2000.000000	98.1	132.7975
2060.000000	98.5	132.9664
2120.000000	99.0	132.8693
2180.000000	99.4	132.5855
2240.000000	99.8	131.9865
2300.000000	100.3	130.8554
2360.000000	100.7	129.3689
2430.000000	101.2	127.1952
2500.000000	101.7	124.6688
2580.000000	102.2	121.1824
2650.000000	102.6	116.3502
2720.000000	102.7	116.1094
2800.000000	103.2	112.2253
2900.000000	103.7	107.9725
3000.000000	103.4	101.6401
3070.000000	104.1	101.9518
3150.000000	104.4	97.5157
3250.000000	104.5	92.2937
3350.000000	104.6	88.1594
3450.000000	104.5	84.4568
3550.000000	104.4	81.1321
3650.000000	104.2	78.1211
3750.000000	104.0	75.4840
3870.000000	103.6	72.7986
4000.000000	103.1	71.9506
4120.000000	103.2	71.3835
4250.000000	103.0	69.7650
4370.000000	102.9	68.7406
4500.000000	102.7	67.9151
4620.000000	102.6	67.9362
4750.000000	102.6	68.8187
4870.000000	102.6	69.5472
5000.000000	102.6	70.3200
5150.000000	102.6	71.0626
5300.000000	102.7	71.5533
5450.000000	102.8	72.4825
5600.000000	102.9	74.3068
5800.000000	103.1	76.6396
6000.000000	103.3	79.0778
6150.000000	103.5	81.0246
6300.000000	104.1	82.0035
6500.000000	104.6	79.9623
6700.000000	104.3	77.2697
6900.000000	103.4	77.4009
7100.000000	102.7	81.6213
7300.000000	102.0	87.3596
7500.000000	101.8	93.4645
7750.000000	101.4	103.5458
8000.000000	101.3	114.0502
8250.000000	101.4	123.6041
8500.000000	101.8	130.7231
8750.000000	101.7	133.0994
9000.000000	100.8	125.4510
9250.000000	99.1	111.0083
9500.000000	97.0	101.7339
9750.000000	95.1	96.7205
10000.000000	93.6	93.8214
10300.000000	92.1	90.2759
10600.000000	90.7	87.9465
10900.000000	89.7	87.0989
11200.000000	89.2	85.4130
11500.000000	88.5	84.1901
11800.000000	88.3	84.3112
12200.000000	88.9	82.2077
12500.000000	89.5	77.5415
12800.000000	90.2	71.7688
13200.000000	91.4	64.0594
13600.000000	93.4	54.3054
14000.000000	96.7	37.9689
14500.000000	101.6	-18.6971
15000.000000	96.7	-85.9674
15500.000000	91.6	-109.9239
16000.000000	88.7	-124.1074
16500.000000	87.1	-136.6554
17000.000000	86.9	-151.9518
17500.000000	87.6	-177.8726
18000.000000	86.2	140.5259
18500.000000	81.4	109.0864
19000.000000	76.1	96.7527
19500.000000	71.8	98.7334
20000.000000	67.9	106.6862
20600.000000	64.9	135.3721
21200.000000	62.1	-175.3906
21800.000000	53.0	-119.4818
