* Measurement data measured by REW V5.20
* Source: ASIO hdspfire, Analog 2 (1)
* Format: 256k Log Swept Sine, 1 sweep at -12.0 dBFS using a loopback as a timing reference
* Dated: 2022/01/19 12:45:34
* REW Settings:
*  C-weighting compensation: Off
*  Target level: 75.0 dB
* Note: Delay -1.9456 ms (-667 mm, -(2 ft 2.27 in))  relative to Loopback from 1: Analog 1 (1) to 1: Analog 1 (1) with no timing offset
* Measurement: Fender TEN3 L
* Smoothing: 1/12 octave
* Frequency Step: 1/24 octave
* Start Frequency: 20.000 Hz
*
* Freq(Hz)	SPL(dB)	Phase(degrees)
20.000000	92.9	-37.6282
20.600000	93.3	-39.6998
21.200001	93.6	-41.5811
21.799999	93.9	-43.3683
22.400000	94.1	-45.1128
23.000000	94.4	-46.7523
23.600000	94.7	-48.2639
24.299999	95.0	-49.9892
25.000000	95.2	-51.7784
25.799999	95.5	-53.7967
26.500000	95.8	-55.4297
27.200001	96.0	-56.9498
28.000000	96.2	-58.5948
29.000000	96.5	-60.5271
30.000000	96.8	-62.3126
30.700001	97.0	-63.4996
31.500000	97.2	-64.8362
32.500000	97.4	-66.4606
33.500000	97.6	-67.9558
34.500000	97.8	-69.3064
35.500000	98.0	-70.6365
36.500000	98.1	-71.9453
37.500000	98.3	-73.0662
38.700001	98.5	-74.3873
40.000000	98.7	-75.7745
41.200001	98.8	-76.8077
42.500000	99.0	-77.8783
43.700001	99.1	-78.8556
45.000000	99.3	-79.8546
46.200001	99.4	-80.7552
47.500000	99.5	-81.6523
48.700001	99.6	-82.3269
50.000000	99.7	-82.9883
51.500000	99.9	-83.7059
53.000000	100.0	-84.3475
54.500000	100.1	-84.9473
56.000000	100.2	-85.4890
58.000000	100.3	-86.1151
60.000000	100.4	-86.6293
61.500000	100.5	-86.9703
63.000000	100.5	-87.2538
65.000000	100.6	-87.5503
67.000000	100.7	-87.7896
69.000000	100.7	-87.9535
71.000000	100.8	-88.0292
73.000000	100.9	-88.0588
75.000000	100.9	-88.0098
77.500000	101.0	-87.9034
80.000000	101.0	-87.7393
82.500000	101.1	-87.4670
85.000000	101.1	-87.1256
87.500000	101.1	-86.7889
90.000000	101.1	-86.3848
92.500000	101.1	-85.7856
95.000000	101.2	-85.2679
97.500000	101.2	-84.6887
100.000000	101.2	-84.0349
103.000000	101.2	-83.1853
106.000000	101.2	-82.2735
109.000000	101.2	-81.3109
112.000000	101.2	-80.2847
115.000000	101.2	-79.2223
118.000000	101.2	-78.1335
122.000000	101.2	-76.6351
125.000000	101.2	-75.4728
128.000000	101.2	-74.2912
132.000000	101.2	-72.6852
136.000000	101.2	-71.0196
140.000000	101.2	-69.2957
145.000000	101.1	-67.0654
150.000000	101.1	-64.7695
155.000000	101.0	-62.3922
160.000000	101.0	-59.9440
165.000000	100.9	-57.4459
170.000000	100.9	-54.8916
175.000000	100.8	-52.2905
180.000000	100.8	-49.6481
185.000000	100.7	-46.9779
190.000000	100.7	-44.2732
195.000000	100.6	-41.5354
200.000000	100.5	-38.7488
206.000000	100.4	-35.3462
212.000000	100.4	-31.8966
218.000000	100.3	-28.3946
224.000000	100.2	-24.8285
230.000000	100.1	-21.1916
236.000000	99.9	-17.4899
243.000000	99.8	-13.0718
250.000000	99.7	-8.5091
258.000000	99.5	-3.0693
265.000000	99.4	1.8882
272.000000	99.3	7.0021
280.000000	99.3	12.8879
290.000000	99.3	19.9742
300.000000	99.3	26.5792
307.000000	99.3	30.9937
315.000000	99.2	35.9725
325.000000	99.2	42.2654
335.000000	99.0	48.7018
345.000000	98.9	55.2831
355.000000	98.8	61.9928
365.000000	98.7	68.8056
375.000000	98.5	75.6938
387.000000	98.4	84.0357
400.000000	98.3	93.1594
412.000000	98.1	101.6469
425.000000	98.0	110.9081
437.000000	97.9	119.5150
450.000000	97.7	128.8989
462.000000	97.6	137.6136
475.000000	97.5	147.1000
487.000000	97.4	155.8950
500.000000	97.3	165.4586
515.000000	97.2	176.5377
530.000000	97.1	-172.3456
545.000000	97.0	-161.1878
560.000000	96.9	-149.9954
580.000000	96.8	-135.0281
600.000000	96.7	-120.0151
615.000000	96.6	-108.7304
630.000000	96.5	-97.4278
650.000000	96.5	-82.3290
670.000000	96.4	-67.1984
690.000000	96.4	-52.0251
710.000000	96.3	-36.7938
730.000000	96.3	-21.4859
750.000000	96.3	-6.1041
775.000000	96.3	13.1288
800.000000	96.4	32.1828
825.000000	96.5	51.0114
850.000000	96.6	69.7374
875.000000	96.7	88.4926
900.000000	96.8	107.3205
925.000000	96.9	126.1599
950.000000	97.1	144.9053
975.000000	97.3	163.4817
1000.000000	97.5	-178.1407
1030.000000	97.8	-156.3538
1060.000000	98.0	-134.8470
1090.000000	98.3	-113.6010
1120.000000	98.5	-92.5879
1150.000000	98.8	-71.7729
1180.000000	99.0	-51.1208
1220.000000	99.2	-23.7806
1250.000000	99.4	-3.3811
1280.000000	99.5	16.9584
1320.000000	99.7	44.0226
1360.000000	99.8	71.0591
1400.000000	99.9	98.0973
1450.000000	100.0	131.9266
1500.000000	100.0	165.8163
1550.000000	100.0	-160.2090
1600.000000	100.0	-126.1314
1650.000000	99.9	-91.9338
1700.000000	99.9	-57.5972
1750.000000	99.8	-23.1006
1800.000000	99.7	11.5761
1850.000000	99.5	46.4517
1900.000000	99.4	81.5462
1950.000000	99.3	116.8757
2000.000000	99.2	152.4362
2060.000000	99.1	-164.6514
2120.000000	99.0	-121.6212
2180.000000	99.0	-78.5781
2240.000000	99.0	-35.4834
2300.000000	98.9	7.7476
2360.000000	99.0	51.1387
2430.000000	99.0	101.9045
2500.000000	99.1	152.7181
2580.000000	99.4	-149.2821
2650.000000	99.6	-98.6851
2720.000000	99.9	-48.3094
2800.000000	100.3	8.8761
2900.000000	100.9	79.5593
3000.000000	101.6	149.1311
3070.000000	102.0	-162.8962
3150.000000	102.5	-108.7800
3250.000000	102.9	-42.0334
3350.000000	103.2	24.0249
3450.000000	103.4	89.7468
3550.000000	103.4	155.4258
3650.000000	103.2	-138.6912
3750.000000	102.8	-72.3521
3870.000000	102.3	8.2278
4000.000000	101.5	97.1343
4120.000000	100.7	-179.0972
4250.000000	99.9	-86.4292
4370.000000	99.2	0.9111
4500.000000	98.8	97.2869
4620.000000	98.7	-172.8672
4750.000000	99.0	-75.9126
4870.000000	99.5	12.2102
5000.000000	100.3	105.7051
5150.000000	101.2	-148.8284
5300.000000	101.9	-45.2996
5450.000000	102.4	57.1882
5600.000000	102.7	159.4690
5800.000000	102.9	-63.6079
6000.000000	103.1	74.0952
6150.000000	103.2	177.6067
6300.000000	103.4	-78.9395
6500.000000	103.7	58.6699
6700.000000	103.9	-164.1309
6900.000000	104.2	-27.2046
7100.000000	104.5	109.4429
7300.000000	104.8	-114.5444
7500.000000	105.3	20.2271
7750.000000	105.8	-174.3027
8000.000000	105.9	-12.9692
8250.000000	105.2	146.3086
8500.000000	103.5	-51.7534
8750.000000	101.4	115.4648
9000.000000	99.1	-72.6943
9250.000000	97.1	102.1426
9500.000000	95.2	-81.2485
9750.000000	93.6	96.4111
10000.000000	92.2	-85.2793
10300.000000	90.6	129.3047
10600.000000	89.3	-15.4888
10900.000000	88.0	-159.5957
11200.000000	86.9	57.0713
11500.000000	86.0	-85.4722
11800.000000	85.3	132.6279
12200.000000	84.9	63.6631
12500.000000	85.0	-78.8633
12800.000000	85.4	137.1250
13200.000000	86.1	62.7363
13600.000000	86.9	-13.3115
14000.000000	88.2	-90.4707
14500.000000	90.8	-103.1104
15000.000000	93.3	-131.8682
15500.000000	93.9	-177.2949
16000.000000	91.6	135.7715
16500.000000	86.7	106.2881
17000.000000	80.3	102.2930
17500.000000	74.4	112.0039
18000.000000	70.4	125.7725
18500.000000	68.4	140.8496
19000.000000	68.0	153.8584
19500.000000	68.7	160.7539
20000.000000	69.7	159.4580
20600.000000	69.7	-141.3398
21200.000000	68.2	-97.0840
21800.000000	67.3	-141.7822
