* Measurement data measured by REW V5.20
* Source: ASIO MOTU M Series, In 1
* Format: 256k Log Swept Sine, 1 sweep at -12.0 dBFS with no timing reference
* Dated: 2022/05/21 20:58:42
* REW Settings:
*  C-weighting compensation: Off
*  Target level: 75.0 dB
* Note: 
* Measurement: Hidizs MM2 Gold RC1
* Smoothing: 1/12 octave
* Frequency Step: 1/24 octave
* Start Frequency: 20.000 Hz
*
* Freq(Hz)	SPL(dB)	Phase(degrees)
20.000000	104.717	-147.0888
20.600000	104.785	-148.6359
21.200001	104.849	-150.1552
21.799999	104.900	-151.6369
22.400000	104.942	-153.0225
23.000000	104.986	-154.3137
23.600000	105.036	-155.6073
24.299999	105.082	-157.1775
25.000000	105.103	-158.6913
25.799999	105.118	-160.2228
26.500000	105.139	-161.4966
27.200001	105.157	-162.7923
28.000000	105.163	-164.2260
29.000000	105.166	-165.8887
30.000000	105.167	-167.5070
30.700001	105.163	-168.6172
31.500000	105.155	-169.8522
32.500000	105.137	-171.3459
33.500000	105.110	-172.7458
34.500000	105.083	-174.0475
35.500000	105.054	-175.2720
36.500000	105.027	-176.4241
37.500000	105.001	-177.5766
38.700001	104.955	-178.9352
40.000000	104.898	179.7007
41.200001	104.844	178.4866
42.500000	104.788	177.2062
43.700001	104.733	176.0308
45.000000	104.669	174.8184
46.200001	104.610	173.7614
47.500000	104.545	172.6783
48.700001	104.485	171.7152
50.000000	104.411	170.6955
51.500000	104.319	169.6538
53.000000	104.233	168.6749
54.500000	104.146	167.7175
56.000000	104.055	166.7941
58.000000	103.932	165.6173
60.000000	103.811	164.5156
61.500000	103.722	163.7231
63.000000	103.632	162.9658
65.000000	103.509	162.0205
67.000000	103.384	161.1452
69.000000	103.263	160.3215
71.000000	103.142	159.5314
73.000000	103.020	158.7935
75.000000	102.898	158.1050
77.500000	102.748	157.3001
80.000000	102.600	156.5433
82.500000	102.450	155.8329
85.000000	102.303	155.1861
87.500000	102.169	154.5710
90.000000	102.038	153.9687
92.500000	101.893	153.4673
95.000000	101.748	153.0540
97.500000	101.608	152.6331
100.000000	101.472	152.2248
103.000000	101.315	151.7772
106.000000	101.160	151.3738
109.000000	101.006	151.0156
112.000000	100.856	150.6957
115.000000	100.709	150.4015
118.000000	100.564	150.1431
122.000000	100.374	149.8520
125.000000	100.235	149.6639
128.000000	100.099	149.5006
132.000000	99.923	149.3221
136.000000	99.749	149.1801
140.000000	99.580	149.0697
145.000000	99.374	148.9822
150.000000	99.175	148.9509
155.000000	98.981	148.9686
160.000000	98.792	149.0148
165.000000	98.608	149.1015
170.000000	98.429	149.2209
175.000000	98.258	149.3814
180.000000	98.089	149.5794
185.000000	97.925	149.8079
190.000000	97.766	150.0643
195.000000	97.608	150.3650
200.000000	97.453	150.7157
206.000000	97.276	151.2255
212.000000	97.109	151.7914
218.000000	96.961	152.4305
224.000000	96.836	153.0822
230.000000	96.733	153.6791
236.000000	96.650	154.1474
243.000000	96.557	154.5394
250.000000	96.447	154.8347
258.000000	96.302	155.1697
265.000000	96.166	155.5209
272.000000	96.031	155.9378
280.000000	95.880	156.4708
290.000000	95.700	157.1946
300.000000	95.530	157.9689
307.000000	95.418	158.5353
315.000000	95.295	159.1995
325.000000	95.148	160.0466
335.000000	95.010	160.9040
345.000000	94.881	161.7838
355.000000	94.758	162.6681
365.000000	94.643	163.5490
375.000000	94.534	164.4407
387.000000	94.411	165.5178
400.000000	94.287	166.6878
412.000000	94.182	167.7672
425.000000	94.075	168.9419
437.000000	93.984	170.0286
450.000000	93.892	171.2057
462.000000	93.814	172.2964
475.000000	93.737	173.4756
487.000000	93.672	174.5594
500.000000	93.608	175.7276
515.000000	93.542	177.0675
530.000000	93.483	178.3964
545.000000	93.431	179.7169
560.000000	93.385	-178.9639
580.000000	93.333	-177.2057
600.000000	93.293	-175.4501
615.000000	93.271	-174.1402
630.000000	93.256	-172.8342
650.000000	93.245	-171.1015
670.000000	93.244	-169.3820
690.000000	93.256	-167.6754
710.000000	93.278	-165.9901
730.000000	93.312	-164.3375
750.000000	93.356	-162.7274
775.000000	93.419	-160.7835
800.000000	93.484	-158.9011
825.000000	93.548	-156.9984
850.000000	93.627	-155.0242
875.000000	93.730	-153.0921
900.000000	93.832	-151.3194
925.000000	93.898	-149.4041
950.000000	93.999	-146.9876
975.000000	94.200	-144.5227
1000.000000	94.460	-142.4331
1030.000000	94.791	-140.3890
1060.000000	95.123	-138.6892
1090.000000	95.452	-137.2448
1120.000000	95.775	-136.0080
1150.000000	96.089	-134.9435
1180.000000	96.394	-134.0205
1220.000000	96.784	-132.9609
1250.000000	97.066	-132.2604
1280.000000	97.340	-131.6187
1320.000000	97.696	-130.8276
1360.000000	98.045	-130.0883
1400.000000	98.390	-129.3888
1450.000000	98.823	-128.5677
1500.000000	99.262	-127.8118
1550.000000	99.713	-127.1375
1600.000000	100.178	-126.5668
1650.000000	100.661	-126.1279
1700.000000	101.160	-125.8479
1750.000000	101.678	-125.7587
1800.000000	102.212	-125.8961
1850.000000	102.760	-126.2964
1900.000000	103.320	-126.9956
1950.000000	103.886	-128.0307
2000.000000	104.451	-129.4380
2060.000000	105.116	-131.6591
2120.000000	105.747	-134.4882
2180.000000	106.323	-137.9179
2240.000000	106.819	-141.8881
2300.000000	107.217	-146.2781
2360.000000	107.501	-150.9139
2430.000000	107.685	-156.3594
2500.000000	107.723	-161.5440
2580.000000	107.624	-166.8427
2650.000000	107.454	-170.7866
2720.000000	107.242	-174.0600
2800.000000	106.989	-177.0461
2900.000000	106.703	-179.8546
3000.000000	106.492	178.0529
3070.000000	106.402	176.8279
3150.000000	106.361	175.5004
3250.000000	106.401	173.7028
3350.000000	106.528	171.4425
3450.000000	106.710	168.3950
3550.000000	106.890	164.2876
3650.000000	106.992	158.9902
3750.000000	106.927	152.6447
3870.000000	106.524	144.3642
4000.000000	105.649	136.0240
4120.000000	104.512	130.1518
4250.000000	103.084	126.3745
4370.000000	101.725	125.1795
4500.000000	100.320	125.9410
4620.000000	99.140	128.1196
4750.000000	98.022	131.6680
4870.000000	97.149	135.7305
5000.000000	96.379	140.6900
5150.000000	95.713	146.7755
5300.000000	95.262	152.8857
5450.000000	94.980	158.7529
5600.000000	94.811	164.3238
5800.000000	94.689	171.6934
6000.000000	94.729	179.9042
6150.000000	95.033	-173.0392
6300.000000	95.799	-165.7687
6500.000000	97.641	-159.1275
6700.000000	99.507	-161.3583
6900.000000	100.195	-169.5497
7100.000000	99.986	-173.7117
7300.000000	100.003	-172.3468
7500.000000	100.840	-169.7673
7750.000000	102.854	-171.5195
8000.000000	104.677	174.3831
8250.000000	104.643	151.2111
8500.000000	102.606	135.2847
8750.000000	99.927	131.9283
9000.000000	97.778	135.8786
9250.000000	96.524	142.6803
9500.000000	96.161	149.8391
9750.000000	96.646	155.3047
10000.000000	97.803	156.2996
10300.000000	99.201	146.8025
10600.000000	99.153	127.0596
10900.000000	97.144	111.0654
11200.000000	94.115	106.7381
11500.000000	91.228	110.4895
11800.000000	89.029	117.6266
12200.000000	87.149	128.0080
12500.000000	86.282	134.8309
12800.000000	85.655	140.2414
13200.000000	84.894	145.4359
13600.000000	83.980	149.7714
14000.000000	82.916	155.1909
14500.000000	81.707	164.7052
15000.000000	81.151	176.2293
15500.000000	81.778	-173.7006
16000.000000	83.611	-172.9626
16500.000000	84.680	167.0298
17000.000000	82.163	145.8058
17500.000000	76.768	161.8008
18000.000000	74.618	-169.5345
18500.000000	76.232	-163.6756
19000.000000	76.882	-177.7058
19500.000000	75.461	161.8547
20000.000000	71.984	149.9757
20600.000000	66.347	147.8605
21200.000000	60.294	137.7787
21800.000000	53.801	102.7525
