* Measurement data measured by REW V5.20
* Source: ASIO MOTU M Series, In 1
* Format: 256k Log Swept Sine, 1 sweep at -12.0 dBFS with no timing reference
* Dated: 2022/04/13 16:45:38
* REW Settings:
*  C-weighting compensation: Off
*  Target level: 75.0 dB
* Note: 
* Measurement: HiTune T1 LC1
* Smoothing: 1/12 octave
* Frequency Step: 1/24 octave
* Start Frequency: 20.000 Hz
*
* Freq(Hz)	SPL(dB)	Phase(degrees)
20.000000	88.3	101.6152
20.600000	88.7	104.0885
21.200001	89.1	105.9978
21.799999	89.7	107.3816
22.400000	90.3	108.1631
23.000000	90.9	108.2183
23.600000	91.5	107.5876
24.299999	92.1	106.2557
25.000000	92.6	104.5969
25.799999	93.1	102.5914
26.500000	93.4	100.9197
27.200001	93.7	99.3725
28.000000	94.1	97.6547
29.000000	94.5	95.5963
30.000000	94.9	93.8821
30.700001	95.2	92.7249
31.500000	95.5	91.2364
32.500000	95.9	89.2852
33.500000	96.3	87.2775
34.500000	96.7	85.0410
35.500000	97.0	82.7353
36.500000	97.3	80.4377
37.500000	97.6	78.1074
38.700001	97.9	75.3018
40.000000	98.1	72.3079
41.200001	98.3	69.6955
42.500000	98.5	67.0507
43.700001	98.6	64.7417
45.000000	98.8	62.3772
46.200001	98.9	60.3080
47.500000	99.0	58.2310
48.700001	99.2	56.4358
50.000000	99.3	54.4654
51.500000	99.4	52.2595
53.000000	99.5	50.2198
54.500000	99.6	48.2369
56.000000	99.7	46.3099
58.000000	99.8	43.8611
60.000000	99.9	41.5171
61.500000	99.9	39.7978
63.000000	100.0	38.1035
65.000000	100.1	35.8831
67.000000	100.2	33.7164
69.000000	100.2	31.6152
71.000000	100.2	29.5504
73.000000	100.3	27.5596
75.000000	100.3	25.6317
77.500000	100.3	23.3023
80.000000	100.3	21.0624
82.500000	100.3	18.8989
85.000000	100.2	16.8409
87.500000	100.2	14.8841
90.000000	100.1	13.0068
92.500000	100.1	11.2179
95.000000	100.0	9.5215
97.500000	99.9	7.8821
100.000000	99.8	6.3152
103.000000	99.7	4.5636
106.000000	99.6	2.9142
109.000000	99.5	1.3495
112.000000	99.3	-0.1195
115.000000	99.2	-1.4844
118.000000	99.1	-2.7498
122.000000	98.9	-4.2827
125.000000	98.7	-5.3265
128.000000	98.6	-6.2811
132.000000	98.3	-7.4174
136.000000	98.1	-8.3968
140.000000	97.9	-9.2283
145.000000	97.7	-10.0873
150.000000	97.4	-10.7465
155.000000	97.2	-11.2294
160.000000	97.0	-11.5572
165.000000	96.8	-11.7252
170.000000	96.6	-11.7509
175.000000	96.3	-11.6787
180.000000	96.0	-11.5079
185.000000	95.8	-11.2494
190.000000	95.7	-10.9293
195.000000	95.6	-10.5491
200.000000	95.5	-10.1193
206.000000	95.4	-9.5750
212.000000	95.3	-8.9800
218.000000	95.2	-8.3155
224.000000	95.1	-7.5671
230.000000	95.0	-6.7397
236.000000	95.0	-5.9692
243.000000	95.1	-5.4404
250.000000	95.1	-5.2748
258.000000	95.1	-5.1541
265.000000	95.0	-5.0258
272.000000	95.0	-4.8817
280.000000	95.0	-4.7184
290.000000	94.9	-4.5469
300.000000	94.9	-4.4194
307.000000	94.9	-4.3491
315.000000	94.9	-4.2825
325.000000	94.8	-4.2128
335.000000	94.8	-4.1400
345.000000	94.7	-4.0510
355.000000	94.7	-3.9287
365.000000	94.7	-3.7768
375.000000	94.6	-3.6180
387.000000	94.6	-3.4149
400.000000	94.5	-3.1713
412.000000	94.4	-2.9148
425.000000	94.3	-2.6069
437.000000	94.3	-2.2859
450.000000	94.2	-1.8869
462.000000	94.2	-1.4791
475.000000	94.1	-1.0322
487.000000	94.0	-0.6229
500.000000	94.0	-0.1422
515.000000	93.9	0.5004
530.000000	93.9	1.2400
545.000000	93.8	2.0488
560.000000	93.7	2.9033
580.000000	93.7	4.1036
600.000000	93.6	5.3711
615.000000	93.5	6.3452
630.000000	93.5	7.3224
650.000000	93.5	8.6362
670.000000	93.4	9.9938
690.000000	93.4	11.4043
710.000000	93.4	12.8579
730.000000	93.4	14.3531
750.000000	93.4	15.8534
775.000000	93.4	17.6745
800.000000	93.5	19.4433
825.000000	93.6	21.2157
850.000000	93.7	22.9971
875.000000	93.8	24.7684
900.000000	93.9	26.5186
925.000000	94.1	28.2722
950.000000	94.3	30.0332
975.000000	94.5	31.7549
1000.000000	94.7	33.3769
1030.000000	94.9	35.1558
1060.000000	95.2	36.7373
1090.000000	95.5	38.1238
1120.000000	95.8	39.3588
1150.000000	96.1	40.5155
1180.000000	96.5	41.6004
1220.000000	96.9	42.8710
1250.000000	97.2	43.6816
1280.000000	97.5	44.3752
1320.000000	98.0	45.1177
1360.000000	98.4	45.6716
1400.000000	98.9	46.1100
1450.000000	99.4	46.4733
1500.000000	100.0	46.5091
1550.000000	100.5	46.2833
1600.000000	101.0	45.9568
1650.000000	101.2	45.6668
1700.000000	101.4	45.3018
1750.000000	101.5	44.7952
1800.000000	101.7	44.4268
1850.000000	102.0	44.4382
1900.000000	102.3	44.6917
1950.000000	102.7	45.0005
2000.000000	103.2	45.2707
2060.000000	103.8	45.2346
2120.000000	104.5	44.4854
2180.000000	105.1	42.8589
2240.000000	105.7	40.5067
2300.000000	106.2	37.6491
2360.000000	106.7	34.1183
2430.000000	107.2	28.9256
2500.000000	107.5	23.0905
2580.000000	107.6	16.7675
2650.000000	107.4	12.1078
2720.000000	107.1	8.4752
2800.000000	106.7	5.5793
2900.000000	106.2	3.5914
3000.000000	105.8	3.1318
3070.000000	105.5	3.3845
3150.000000	105.2	3.8304
3250.000000	105.1	4.4832
3350.000000	105.1	5.0795
3450.000000	105.1	5.2780
3550.000000	105.1	4.8269
3650.000000	105.0	3.8586
3750.000000	104.9	2.6696
3870.000000	104.6	1.3406
4000.000000	104.4	0.5778
4120.000000	104.1	0.5146
4250.000000	103.9	0.8892
4370.000000	103.7	1.4865
4500.000000	103.7	2.3505
4620.000000	103.7	3.5439
4750.000000	103.8	5.3232
4870.000000	104.0	7.0826
5000.000000	104.3	8.8689
5150.000000	104.8	10.5940
5300.000000	105.4	11.6583
5450.000000	106.1	11.6144
5600.000000	106.9	9.9462
5800.000000	107.8	4.5704
6000.000000	108.3	-3.8867
6150.000000	108.2	-10.4749
6300.000000	107.9	-16.0742
6500.000000	107.3	-22.3256
6700.000000	106.4	-27.6371
6900.000000	105.2	-31.2042
7100.000000	104.0	-32.5986
7300.000000	102.9	-32.1005
7500.000000	102.2	-30.4603
7750.000000	102.1	-27.7343
8000.000000	102.7	-25.1078
8250.000000	103.6	-23.0887
8500.000000	104.7	-22.6609
8750.000000	106.1	-27.5585
9000.000000	107.1	-41.4050
9250.000000	106.9	-63.2549
9500.000000	104.7	-81.6362
9750.000000	101.2	-86.5142
10000.000000	97.7	-79.9279
10300.000000	94.8	-66.9348
10600.000000	93.3	-55.3558
10900.000000	92.4	-46.2321
11200.000000	91.6	-38.2094
11500.000000	91.0	-30.3547
11800.000000	90.4	-22.3735
12200.000000	90.0	-11.5818
12500.000000	89.9	-3.6482
12800.000000	90.0	3.8980
13200.000000	90.6	13.3015
13600.000000	91.7	21.6516
14000.000000	93.8	27.9692
14500.000000	98.1	28.2649
15000.000000	102.2	5.5876
15500.000000	102.4	-37.7517
16000.000000	99.1	-61.9565
16500.000000	96.4	-68.5448
17000.000000	96.5	-74.9459
17500.000000	98.3	-97.7367
18000.000000	98.1	-143.0664
18500.000000	94.5	179.6462
19000.000000	89.0	164.7050
19500.000000	83.3	159.4469
20000.000000	78.3	154.9621
20600.000000	73.1	145.9929
21200.000000	68.5	130.8790
21800.000000	64.4	113.0649
