* Measurement data measured by REW V5.20
* Source: ASIO MOTU M Series, In 1
* Format: 256k Log Swept Sine, 1 sweep at -12.0 dBFS with no timing reference
* Dated: 2022/04/13 16:46:35
* REW Settings:
*  C-weighting compensation: Off
*  Target level: 75.0 dB
* Note: 
* Measurement: HiTune T1 SB LC1
* Smoothing: 1/12 octave
* Frequency Step: 1/24 octave
* Start Frequency: 20.000 Hz
*
* Freq(Hz)	SPL(dB)	Phase(degrees)
20.000000	97.0	111.1255
20.600000	97.3	108.8316
21.200001	97.6	106.6684
21.799999	97.9	104.5316
22.400000	98.2	102.3711
23.000000	98.5	100.2199
23.600000	98.7	98.1497
24.299999	99.0	95.8499
25.000000	99.3	93.5994
25.799999	99.7	91.0248
26.500000	99.9	88.7852
27.200001	100.2	86.5801
28.000000	100.5	84.1078
29.000000	100.8	81.0383
30.000000	101.2	78.0197
30.700001	101.4	75.9765
31.500000	101.7	73.6425
32.500000	102.0	70.7162
33.500000	102.3	67.8540
34.500000	102.5	64.9550
35.500000	102.8	62.0099
36.500000	103.1	59.0478
37.500000	103.4	56.0394
38.700001	103.6	52.3645
40.000000	103.9	48.3035
41.200001	104.1	44.4980
42.500000	104.3	40.3482
43.700001	104.5	36.4909
45.000000	104.6	32.2740
46.200001	104.7	28.3848
47.500000	104.8	24.2105
48.700001	104.8	20.4143
50.000000	104.8	16.3510
51.500000	104.8	11.8108
53.000000	104.7	7.4950
54.500000	104.5	3.3948
56.000000	104.4	-0.4798
58.000000	104.1	-5.3081
60.000000	103.8	-9.7153
61.500000	103.5	-12.7541
63.000000	103.3	-15.5783
65.000000	103.0	-19.0539
67.000000	102.6	-22.2324
69.000000	102.3	-25.1360
71.000000	101.9	-27.8051
73.000000	101.5	-30.2489
75.000000	101.2	-32.4765
77.500000	100.8	-35.0405
80.000000	100.3	-37.3628
82.500000	99.9	-39.4448
85.000000	99.5	-41.3554
87.500000	99.1	-43.1026
90.000000	98.6	-44.7181
92.500000	98.2	-46.1627
95.000000	97.8	-47.4464
97.500000	97.4	-48.6312
100.000000	97.0	-49.6997
103.000000	96.6	-50.8295
106.000000	96.1	-51.8119
109.000000	95.6	-52.6342
112.000000	95.2	-53.3012
115.000000	94.7	-53.8141
118.000000	94.2	-54.1781
122.000000	93.6	-54.4242
125.000000	93.2	-54.4033
128.000000	92.7	-54.2113
132.000000	92.1	-53.7075
136.000000	91.6	-52.8977
140.000000	91.0	-51.7911
145.000000	90.4	-50.0102
150.000000	89.7	-47.7895
155.000000	89.2	-45.1747
160.000000	88.7	-42.2120
165.000000	88.3	-38.9143
170.000000	87.9	-35.3821
175.000000	87.5	-31.7488
180.000000	87.3	-28.0940
185.000000	87.1	-24.5161
190.000000	87.1	-21.0724
195.000000	87.1	-17.8210
200.000000	87.2	-14.7900
206.000000	87.3	-11.4741
212.000000	87.4	-8.4998
218.000000	87.5	-5.8485
224.000000	87.7	-3.4005
230.000000	87.9	-1.1346
236.000000	88.1	0.8213
243.000000	88.4	2.4339
250.000000	88.7	3.4453
258.000000	88.9	4.3055
265.000000	89.1	4.9430
272.000000	89.2	5.5010
280.000000	89.4	6.0697
290.000000	89.5	6.6508
300.000000	89.7	7.1029
307.000000	89.8	7.3692
315.000000	89.9	7.6433
325.000000	90.0	7.9478
335.000000	90.1	8.2329
345.000000	90.2	8.5366
355.000000	90.2	8.8498
365.000000	90.3	9.1710
375.000000	90.4	9.5063
387.000000	90.4	9.9074
400.000000	90.5	10.3327
412.000000	90.5	10.7442
425.000000	90.6	11.2224
437.000000	90.7	11.6987
450.000000	90.7	12.2490
462.000000	90.8	12.7671
475.000000	90.8	13.2929
487.000000	90.9	13.7373
500.000000	90.9	14.2030
515.000000	91.0	14.7451
530.000000	91.0	15.2989
545.000000	91.1	15.8615
560.000000	91.1	16.4335
580.000000	91.1	17.2179
600.000000	91.2	18.0383
615.000000	91.2	18.6609
630.000000	91.2	19.2762
650.000000	91.3	20.0899
670.000000	91.3	20.9144
690.000000	91.4	21.7798
710.000000	91.4	22.6809
730.000000	91.4	23.6204
750.000000	91.5	24.5987
775.000000	91.6	25.8717
800.000000	91.7	27.1912
825.000000	91.7	28.5417
850.000000	91.8	29.9066
875.000000	92.0	31.2739
900.000000	92.1	32.6180
925.000000	92.2	33.9178
950.000000	92.4	35.1496
975.000000	92.5	36.2937
1000.000000	92.7	37.3353
1030.000000	92.9	38.4298
1060.000000	93.1	39.3426
1090.000000	93.3	40.0769
1120.000000	93.5	40.6233
1150.000000	93.7	40.9406
1180.000000	93.8	41.0453
1220.000000	94.0	40.9931
1250.000000	94.2	40.8846
1280.000000	94.3	40.7472
1320.000000	94.4	40.5562
1360.000000	94.6	40.3976
1400.000000	94.7	40.3558
1450.000000	94.9	40.5248
1500.000000	95.0	40.8364
1550.000000	95.3	41.2327
1600.000000	95.5	41.7012
1650.000000	95.6	42.2107
1700.000000	95.5	42.7121
1750.000000	95.6	43.1415
1800.000000	95.7	43.5307
1850.000000	95.8	44.0725
1900.000000	96.0	44.7282
1950.000000	96.1	45.4126
2000.000000	96.3	46.1318
2060.000000	96.6	46.8337
2120.000000	96.8	47.0925
2180.000000	97.0	46.9668
2240.000000	97.1	46.8189
2300.000000	97.2	47.0251
2360.000000	97.4	47.4931
2430.000000	97.6	47.8859
2500.000000	97.9	47.9373
2580.000000	98.1	47.4742
2650.000000	98.4	46.6967
2720.000000	98.6	45.7588
2800.000000	98.9	44.5624
2900.000000	99.2	42.9471
3000.000000	99.4	41.3385
3070.000000	99.6	40.1789
3150.000000	99.9	38.5800
3250.000000	100.3	36.0887
3350.000000	100.7	33.1076
3450.000000	101.1	29.4947
3550.000000	101.5	25.0539
3650.000000	101.7	19.9572
3750.000000	101.8	14.6154
3870.000000	101.8	8.2540
4000.000000	101.7	1.8636
4120.000000	101.6	-3.4822
4250.000000	101.5	-8.8890
4370.000000	101.5	-13.6688
4500.000000	101.5	-18.5555
4620.000000	101.6	-22.0498
4750.000000	101.7	-23.8646
4870.000000	101.9	-24.6004
5000.000000	102.2	-25.2993
5150.000000	102.7	-26.3692
5300.000000	103.3	-28.0398
5450.000000	103.9	-30.7430
5600.000000	104.6	-34.8728
5800.000000	105.3	-42.8274
6000.000000	105.6	-53.2860
6150.000000	105.3	-61.2116
6300.000000	104.8	-67.9487
6500.000000	103.9	-75.3279
6700.000000	102.6	-81.1462
6900.000000	101.1	-83.7187
7100.000000	99.4	-81.8714
7300.000000	97.9	-76.6095
7500.000000	96.7	-69.1858
7750.000000	96.1	-58.0596
8000.000000	96.6	-46.1043
8250.000000	97.5	-34.4797
8500.000000	98.8	-24.6951
8750.000000	100.5	-20.3161
9000.000000	101.9	-25.0040
9250.000000	102.0	-38.0560
9500.000000	100.4	-48.7938
9750.000000	97.6	-48.4489
10000.000000	94.8	-39.2352
10300.000000	92.3	-24.7312
10600.000000	90.6	-12.1780
10900.000000	89.6	-1.6956
11200.000000	89.0	7.6048
11500.000000	88.6	16.1174
11800.000000	88.3	24.1247
12200.000000	88.3	34.3277
12500.000000	88.4	41.7071
12800.000000	88.7	48.8283
13200.000000	89.5	57.7533
13600.000000	90.8	65.6362
14000.000000	93.1	71.5154
14500.000000	97.6	71.3016
15000.000000	101.7	48.1480
15500.000000	101.9	4.4904
16000.000000	98.7	-19.8721
16500.000000	96.1	-26.5967
17000.000000	96.3	-33.1192
17500.000000	98.1	-56.0191
18000.000000	98.0	-101.4553
18500.000000	94.4	-139.0392
19000.000000	88.8	-154.4905
19500.000000	83.2	-159.9032
20000.000000	78.3	-164.3236
20600.000000	73.0	-173.1096
21200.000000	68.4	171.9729
21800.000000	64.4	154.3687
