* Measurement data measured by REW V5.20
* Source: ASIO MOTU M Series, In 1
* Format: 256k Log Swept Sine, 1 sweep at -12.0 dBFS with no timing reference
* Dated: 2022/08/25 16:55:34
* REW Settings:
*  C-weighting compensation: Off
*  Target level: 75.0 dB
* Note: 
* Measurement: Earbuds X3 Lite LC1
* Smoothing: 1/12 octave
* Frequency Step: 1/24 octave
* Start Frequency: 20.000 Hz
*
* Freq(Hz)	SPL(dB)	Phase(degrees)
20.000000	96.268	119.0974
20.600000	96.419	118.0467
21.200001	96.707	117.3049
21.799999	97.066	115.8387
22.400000	97.345	113.7074
23.000000	97.512	111.7190
23.600000	97.652	110.2637
24.299999	97.835	108.8406
25.000000	97.995	107.4612
25.799999	98.141	106.2299
26.500000	98.275	105.4168
27.200001	98.413	104.6748
28.000000	98.567	103.8830
29.000000	98.742	103.1178
30.000000	98.992	102.8241
30.700001	99.222	102.1957
31.500000	99.359	101.1323
32.500000	99.415	101.6766
33.500000	99.795	103.6425
34.500000	100.336	104.4455
35.500000	100.842	104.8331
36.500000	101.389	105.1207
37.500000	101.959	104.9851
38.700001	102.661	104.2585
40.000000	103.409	102.6113
41.200001	104.071	100.5454
42.500000	104.784	97.4854
43.700001	105.322	93.8037
45.000000	105.782	89.7726
46.200001	106.142	86.0275
47.500000	106.447	81.9715
48.700001	106.648	78.3518
50.000000	106.793	74.7070
51.500000	106.901	70.8421
53.000000	106.973	67.2800
54.500000	107.035	63.9076
56.000000	107.088	60.6376
58.000000	107.116	56.5789
60.000000	107.099	53.0656
61.500000	107.068	50.7174
63.000000	107.025	48.5397
65.000000	106.968	45.8755
67.000000	106.912	43.3817
69.000000	106.849	41.0961
71.000000	106.781	38.9459
73.000000	106.707	36.9076
75.000000	106.635	35.0587
77.500000	106.565	32.9064
80.000000	106.490	30.8322
82.500000	106.412	28.8503
85.000000	106.332	26.9708
87.500000	106.248	25.2177
90.000000	106.162	23.5484
92.500000	106.081	21.9379
95.000000	105.999	20.3693
97.500000	105.912	18.8669
100.000000	105.823	17.4181
103.000000	105.717	15.7539
106.000000	105.608	14.1589
109.000000	105.495	12.6118
112.000000	105.380	11.1031
115.000000	105.261	9.6474
118.000000	105.140	8.2561
122.000000	104.975	6.4706
125.000000	104.846	5.1847
128.000000	104.715	3.9461
132.000000	104.539	2.3689
136.000000	104.355	0.8636
140.000000	104.165	-0.5865
145.000000	103.916	-2.3110
150.000000	103.652	-3.9219
155.000000	103.358	-5.3332
160.000000	103.027	-6.3026
165.000000	102.744	-6.4212
170.000000	102.654	-6.5334
175.000000	102.604	-7.9379
180.000000	102.417	-9.7558
185.000000	102.140	-11.2359
190.000000	101.813	-12.2764
195.000000	101.450	-12.6090
200.000000	101.149	-11.8237
206.000000	101.129	-10.6444
212.000000	101.249	-11.7461
218.000000	101.149	-13.9108
224.000000	100.913	-15.6092
230.000000	100.649	-16.8379
236.000000	100.390	-17.8054
243.000000	100.098	-18.7230
250.000000	99.816	-19.5018
258.000000	99.508	-20.3160
265.000000	99.249	-20.9332
272.000000	98.998	-21.4812
280.000000	98.722	-22.0514
290.000000	98.390	-22.6957
300.000000	98.075	-23.2695
307.000000	97.865	-23.6307
315.000000	97.635	-24.0279
325.000000	97.357	-24.5072
335.000000	97.091	-24.9591
345.000000	96.839	-25.3741
355.000000	96.599	-25.7998
365.000000	96.367	-26.2490
375.000000	96.148	-26.6849
387.000000	95.897	-27.2082
400.000000	95.636	-27.7870
412.000000	95.408	-28.3683
425.000000	95.172	-29.0226
437.000000	94.960	-29.6508
450.000000	94.735	-30.3482
462.000000	94.534	-30.9914
475.000000	94.319	-31.6943
487.000000	94.123	-32.3424
500.000000	93.914	-33.0314
515.000000	93.679	-33.7827
530.000000	93.450	-34.4758
545.000000	93.227	-35.0890
560.000000	93.017	-35.6304
580.000000	92.763	-36.2066
600.000000	92.548	-36.6028
615.000000	92.417	-36.8123
630.000000	92.317	-36.9831
650.000000	92.219	-37.0216
670.000000	92.196	-36.4812
690.000000	92.270	-35.3163
710.000000	92.387	-33.9431
730.000000	92.537	-32.7648
750.000000	92.723	-31.8393
775.000000	92.996	-31.0309
800.000000	93.294	-30.6001
825.000000	93.612	-30.5008
850.000000	93.946	-30.7403
875.000000	94.285	-31.3596
900.000000	94.592	-32.2612
925.000000	94.892	-33.1277
950.000000	95.217	-34.1314
975.000000	95.548	-35.3545
1000.000000	95.879	-36.7406
1030.000000	96.283	-38.6070
1060.000000	96.693	-40.7512
1090.000000	97.098	-43.1746
1120.000000	97.491	-45.8452
1150.000000	97.869	-48.7238
1180.000000	98.231	-51.7751
1220.000000	98.686	-56.0657
1250.000000	99.008	-59.4105
1280.000000	99.314	-62.8337
1320.000000	99.701	-67.4921
1360.000000	100.067	-72.2324
1400.000000	100.416	-77.0267
1450.000000	100.833	-83.0524
1500.000000	101.241	-89.0281
1550.000000	101.677	-94.9767
1600.000000	102.145	-101.2563
1650.000000	102.585	-107.8933
1700.000000	102.996	-114.5945
1750.000000	103.402	-121.2852
1800.000000	103.821	-127.9644
1850.000000	104.275	-134.7594
1900.000000	104.749	-141.9137
1950.000000	105.207	-149.4192
2000.000000	105.641	-157.1414
2060.000000	106.133	-166.5584
2120.000000	106.620	-176.0027
2180.000000	107.129	174.3430
2240.000000	107.638	164.3064
2300.000000	108.130	153.9208
2360.000000	108.599	143.2364
2430.000000	109.115	130.4951
2500.000000	109.631	117.5822
2580.000000	110.278	102.1049
2650.000000	110.786	87.2036
2720.000000	111.093	71.6916
2800.000000	111.205	55.7298
2900.000000	111.172	41.5750
3000.000000	110.942	30.9286
3070.000000	110.696	24.3973
3150.000000	110.376	17.7581
3250.000000	109.962	10.3522
3350.000000	109.492	3.7274
3450.000000	108.959	-1.5261
3550.000000	108.492	-5.2703
3650.000000	108.176	-8.2056
3750.000000	107.988	-10.9374
3870.000000	107.860	-14.3845
4000.000000	107.723	-18.2245
4120.000000	107.598	-21.3754
4250.000000	107.519	-24.4360
4370.000000	107.503	-27.2083
4500.000000	107.526	-30.3340
4620.000000	107.562	-33.4371
4750.000000	107.587	-37.1116
4870.000000	107.563	-40.7712
5000.000000	107.455	-44.9195
5150.000000	107.190	-49.7029
5300.000000	106.755	-54.0787
5450.000000	106.164	-57.6008
5600.000000	105.454	-59.9396
5800.000000	104.416	-60.9005
6000.000000	103.397	-59.4232
6150.000000	102.705	-56.9916
6300.000000	102.105	-53.6360
6500.000000	101.488	-48.0237
6700.000000	101.113	-41.5116
6900.000000	101.009	-34.5211
7100.000000	101.225	-27.6093
7300.000000	101.813	-21.7232
7500.000000	102.741	-18.4211
7750.000000	103.984	-21.1190
8000.000000	104.329	-32.8986
8250.000000	102.911	-46.0642
8500.000000	100.014	-49.9847
8750.000000	96.642	-43.6330
9000.000000	93.518	-30.8328
9250.000000	90.858	-14.3407
9500.000000	88.655	4.3212
9750.000000	86.829	24.3691
10000.000000	85.314	45.4769
10300.000000	83.867	71.5572
10600.000000	82.726	97.9312
10900.000000	81.775	124.7077
11200.000000	80.959	152.3350
11500.000000	80.329	-179.0122
11800.000000	79.928	-149.5439
12200.000000	79.785	-109.3172
12500.000000	79.989	-78.6566
12800.000000	80.499	-47.6638
13200.000000	81.827	-6.0060
13600.000000	84.320	34.9309
14000.000000	88.322	71.8076
14500.000000	93.702	97.8985
15000.000000	95.047	92.1764
15500.000000	92.360	98.3697
16000.000000	89.685	114.6891
16500.000000	83.800	-175.2846
17000.000000	80.506	-96.7037
17500.000000	83.132	-40.7392
18000.000000	86.759	-0.0533
18500.000000	89.088	20.0474
19000.000000	88.790	29.9378
19500.000000	86.765	44.2487
20000.000000	83.823	60.3740
20600.000000	78.281	86.4622
21200.000000	70.976	51.3275
21800.000000	63.744	77.9270
