* Measurement data measured by REW V5.20
* Source: ASIO hdspfire, Analog 2 (1)
* Format: 256k Log Swept Sine, 1 sweep at -12.0 dBFS using a loopback as a timing reference
* Dated: 2022/01/24 17:38:49
* REW Settings:
*  C-weighting compensation: Off
*  Target level: 75.0 dB
* Note: Delay 0.0035 ms (1.2 mm, 0.05 in)  relative to Loopback from 1: Analog 1 (1) to 1: Analog 1 (1) with no timing offset
* Measurement: iBasso IT01X L
* Smoothing: 1/12 octave
* Frequency Step: 1/24 octave
* Start Frequency: 20.000 Hz
*
* Freq(Hz)	SPL(dB)	Phase(degrees)
20.000000	100.0	-91.6346
20.600000	100.2	-93.8604
21.200001	100.4	-96.0071
21.799999	100.6	-98.1064
22.400000	100.8	-100.1648
23.000000	100.9	-102.1407
23.600000	101.0	-103.9897
24.299999	101.2	-106.0037
25.000000	101.3	-107.9540
25.799999	101.5	-110.1642
26.500000	101.6	-112.0424
27.200001	101.8	-113.8395
28.000000	101.9	-115.8148
29.000000	102.0	-118.2019
30.000000	102.2	-120.4753
30.700001	102.3	-121.9821
31.500000	102.4	-123.6437
32.500000	102.5	-125.6680
33.500000	102.6	-127.6228
34.500000	102.7	-129.5115
35.500000	102.8	-131.3116
36.500000	102.8	-133.0300
37.500000	102.9	-134.7395
38.700001	103.0	-136.7479
40.000000	103.0	-138.7830
41.200001	103.1	-140.5529
42.500000	103.1	-142.3925
43.700001	103.2	-144.0177
45.000000	103.2	-145.7081
46.200001	103.3	-147.2233
47.500000	103.3	-148.7714
48.700001	103.3	-150.1292
50.000000	103.3	-151.5729
51.500000	103.3	-153.2031
53.000000	103.4	-154.7703
54.500000	103.4	-156.2536
56.000000	103.4	-157.6714
58.000000	103.4	-159.4666
60.000000	103.3	-161.1728
61.500000	103.3	-162.4021
63.000000	103.3	-163.5862
65.000000	103.3	-165.0853
67.000000	103.2	-166.5032
69.000000	103.2	-167.8529
71.000000	103.2	-169.1482
73.000000	103.1	-170.3920
75.000000	103.1	-171.5768
77.500000	103.0	-172.9711
80.000000	103.0	-174.2735
82.500000	102.9	-175.5123
85.000000	102.8	-176.7012
87.500000	102.8	-177.7501
90.000000	102.7	-178.7227
92.500000	102.6	-179.7930
95.000000	102.5	179.2067
97.500000	102.5	178.2868
100.000000	102.4	177.4319
103.000000	102.3	176.4796
106.000000	102.2	175.5748
109.000000	102.1	174.7322
112.000000	102.0	173.9220
115.000000	101.9	173.1825
118.000000	101.8	172.5018
122.000000	101.7	171.6305
125.000000	101.6	171.0135
128.000000	101.5	170.4470
132.000000	101.4	169.7663
136.000000	101.3	169.1282
140.000000	101.2	168.5294
145.000000	101.0	167.8434
150.000000	100.9	167.2412
155.000000	100.7	166.7534
160.000000	100.6	166.2924
165.000000	100.4	165.8720
170.000000	100.3	165.5354
175.000000	100.2	165.2543
180.000000	100.0	165.0174
185.000000	99.9	164.8249
190.000000	99.8	164.7034
195.000000	99.6	164.6166
200.000000	99.5	164.5843
206.000000	99.3	164.6611
212.000000	99.2	164.8789
218.000000	99.1	165.2441
224.000000	98.9	165.7391
230.000000	98.9	166.3442
236.000000	98.8	166.9497
243.000000	98.9	167.3710
250.000000	98.9	167.2842
258.000000	98.9	166.7336
265.000000	98.8	166.2264
272.000000	98.7	165.8503
280.000000	98.6	165.5765
290.000000	98.4	165.4545
300.000000	98.3	165.4909
307.000000	98.2	165.5919
315.000000	98.1	165.7549
325.000000	97.9	166.0001
335.000000	97.8	166.2881
345.000000	97.7	166.6096
355.000000	97.6	166.9543
365.000000	97.5	167.3190
375.000000	97.4	167.7010
387.000000	97.3	168.1776
400.000000	97.1	168.7130
412.000000	97.0	169.2140
425.000000	96.9	169.7709
437.000000	96.9	170.2980
450.000000	96.8	170.8792
462.000000	96.7	171.4260
475.000000	96.6	172.0273
487.000000	96.5	172.5926
500.000000	96.5	173.2134
515.000000	96.4	173.9258
530.000000	96.3	174.6486
545.000000	96.2	175.3804
560.000000	96.2	176.1202
580.000000	96.1	177.1168
600.000000	96.0	178.1320
615.000000	96.0	178.8986
630.000000	95.9	179.6773
650.000000	95.9	-179.2645
670.000000	95.8	-178.1854
690.000000	95.8	-177.0793
710.000000	95.8	-175.9522
730.000000	95.7	-174.8104
750.000000	95.7	-173.6599
775.000000	95.7	-172.2152
800.000000	95.7	-170.7567
825.000000	95.8	-169.2938
850.000000	95.8	-167.8391
875.000000	95.9	-166.4037
900.000000	96.0	-165.0125
925.000000	96.1	-163.6804
950.000000	96.2	-162.4297
975.000000	96.3	-161.2806
1000.000000	96.5	-160.2405
1030.000000	96.7	-159.1500
1060.000000	96.9	-158.2304
1090.000000	97.1	-157.4750
1120.000000	97.3	-156.8684
1150.000000	97.4	-156.3909
1180.000000	97.6	-156.0251
1220.000000	97.9	-155.7240
1250.000000	98.1	-155.7111
1280.000000	98.2	-156.0339
1320.000000	98.3	-156.8926
1360.000000	98.3	-156.6473
1400.000000	98.4	-155.6221
1450.000000	98.7	-155.6290
1500.000000	98.8	-156.5738
1550.000000	98.7	-156.7145
1600.000000	98.7	-155.4415
1650.000000	98.8	-153.8333
1700.000000	99.0	-152.5443
1750.000000	99.2	-151.5969
1800.000000	99.5	-150.8958
1850.000000	99.7	-150.3764
1900.000000	99.9	-150.0066
1950.000000	100.2	-149.7720
2000.000000	100.4	-149.6676
2060.000000	100.7	-149.7120
2120.000000	101.0	-149.9460
2180.000000	101.3	-150.3720
2240.000000	101.6	-150.9884
2300.000000	101.9	-151.7911
2360.000000	102.2	-152.7697
2430.000000	102.4	-154.1130
2500.000000	102.7	-155.6412
2580.000000	102.9	-157.5577
2650.000000	103.0	-159.3226
2720.000000	103.2	-161.1071
2800.000000	103.2	-163.0975
2900.000000	103.2	-165.4004
3000.000000	103.2	-167.3864
3070.000000	103.2	-168.5463
3150.000000	103.1	-169.6229
3250.000000	103.0	-170.5963
3350.000000	102.9	-171.1785
3450.000000	102.8	-171.4146
3550.000000	102.7	-171.3647
3650.000000	102.7	-171.0963
3750.000000	102.7	-170.6754
3870.000000	102.8	-170.0605
4000.000000	103.0	-169.3932
4120.000000	103.3	-168.9257
4250.000000	103.7	-168.7681
4370.000000	104.1	-169.1414
4500.000000	104.6	-170.3557
4620.000000	105.2	-172.4608
4750.000000	105.7	-176.0323
4870.000000	106.1	179.4087
5000.000000	106.4	173.3110
5150.000000	106.3	165.5578
5300.000000	105.9	158.2681
5450.000000	105.2	152.5264
5600.000000	104.3	148.8117
5800.000000	103.1	146.8547
6000.000000	102.0	147.5720
6150.000000	101.4	149.3475
6300.000000	100.9	151.8573
6500.000000	100.4	155.9639
6700.000000	100.3	160.6013
6900.000000	100.5	165.5937
7100.000000	101.2	170.1520
7300.000000	102.4	172.4359
7500.000000	104.1	171.4358
7750.000000	106.5	160.6718
8000.000000	107.5	135.1313
8250.000000	105.9	108.5442
8500.000000	102.6	96.4317
8750.000000	99.2	95.9099
9000.000000	96.4	100.7827
9250.000000	94.3	108.0751
9500.000000	92.7	116.6306
9750.000000	91.6	126.0161
10000.000000	90.7	136.1320
10300.000000	90.3	148.9445
10600.000000	90.5	161.4061
10900.000000	91.4	172.6633
11200.000000	92.9	-178.3356
11500.000000	95.0	-173.5013
11800.000000	97.4	-175.0568
12200.000000	99.8	168.9116
12500.000000	100.1	148.7841
12800.000000	98.9	132.0427
13200.000000	96.0	124.3536
13600.000000	93.5	128.3679
14000.000000	92.3	136.9334
14500.000000	93.3	147.4320
15000.000000	96.8	145.2314
15500.000000	98.7	111.1804
16000.000000	95.7	77.0358
16500.000000	90.4	73.1343
17000.000000	86.6	79.9810
17500.000000	85.5	81.6629
18000.000000	85.0	68.6759
18500.000000	82.8	48.5477
19000.000000	78.5	41.1082
19500.000000	73.3	47.6158
20000.000000	68.4	57.3985
20600.000000	64.4	-6.2890
21200.000000	65.8	-171.9607
21800.000000	70.6	142.8589
