* Measurement data measured by REW V5.20
* Source: ASIO hdspfire, Analog 1 (1)
* Format: 256k Log Swept Sine, 1 sweep at -12.0 dBFS with no timing reference
* Dated: 2021/09/04 20:43:54
* REW Settings:
*  C-weighting compensation: Off
*  Target level: 75.0 dB
* Note: 
* Measurement: IKKO OH1S L
* Smoothing: None
* Frequency Step: 1/24 octave
* Start Frequency: 20.000 Hz
*
* Freq(Hz)	SPL(dB)	Phase(degrees)
20.000000	90.2	-96.4753
20.600000	90.4	-98.0459
21.200001	90.6	-99.6600
21.799999	90.8	-101.2922
22.400000	90.9	-102.7982
23.000000	91.1	-104.1389
23.600000	91.2	-105.4237
24.299999	91.4	-106.9911
25.000000	91.6	-108.5889
25.799999	91.7	-110.2501
26.500000	91.8	-111.5245
27.200001	92.0	-112.7970
28.000000	92.1	-114.3488
29.000000	92.3	-116.1310
30.000000	92.5	-117.7023
30.700001	92.6	-118.8038
31.500000	92.7	-119.9840
32.500000	92.8	-121.3995
33.500000	92.9	-122.7463
34.500000	93.1	-124.0124
35.500000	93.2	-125.3534
36.500000	93.3	-126.6207
37.500000	93.3	-127.8926
38.700001	93.4	-129.2136
40.000000	93.5	-130.6593
41.200001	93.6	-131.7984
42.500000	93.7	-133.1851
43.700001	93.8	-134.2110
45.000000	93.9	-135.3638
46.200001	93.9	-136.3713
47.500000	94.0	-137.4454
48.700001	94.1	-138.5527
50.000000	94.1	-139.3744
51.500000	94.2	-140.3641
53.000000	94.3	-141.5208
54.500000	94.3	-142.4572
56.000000	94.4	-143.4198
58.000000	94.5	-144.5433
60.000000	94.5	-145.6577
61.500000	94.5	-146.4186
63.000000	94.6	-147.3152
65.000000	94.6	-148.2957
67.000000	94.7	-149.1450
69.000000	94.7	-149.9406
71.000000	94.7	-150.9741
73.000000	94.8	-151.6919
75.000000	94.8	-152.5811
77.500000	94.8	-153.3537
80.000000	94.9	-154.2312
82.500000	94.9	-155.1561
85.000000	94.9	-155.7746
87.500000	94.9	-156.3491
90.000000	94.6	-157.4749
92.500000	94.9	-157.9855
95.000000	95.0	-158.8597
97.500000	95.0	-159.3035
100.000000	95.0	-159.9572
103.000000	95.0	-160.5425
106.000000	95.0	-161.1442
109.000000	95.0	-161.7676
112.000000	95.0	-162.3810
115.000000	95.0	-162.9702
118.000000	95.0	-163.4961
122.000000	94.9	-163.9337
125.000000	94.9	-164.5171
128.000000	94.8	-164.4799
132.000000	94.8	-164.4634
136.000000	94.8	-164.0386
140.000000	94.9	-164.0197
145.000000	95.0	-164.3851
150.000000	95.1	-164.9302
155.000000	95.2	-165.7335
160.000000	95.2	-166.3934
165.000000	95.2	-167.1229
170.000000	95.2	-167.5873
175.000000	95.2	-168.0838
180.000000	95.2	-168.5891
185.000000	95.2	-169.0178
190.000000	95.2	-169.4654
195.000000	95.2	-169.8737
200.000000	95.2	-170.0771
206.000000	95.2	-170.6497
212.000000	95.2	-170.9413
218.000000	95.1	-171.2575
224.000000	95.1	-171.6252
230.000000	95.1	-171.8460
236.000000	95.1	-172.2085
243.000000	95.1	-172.4197
250.000000	95.1	-172.7520
258.000000	95.0	-173.1791
265.000000	95.0	-173.5247
272.000000	95.0	-173.6914
280.000000	95.0	-173.9301
290.000000	94.9	-174.0623
300.000000	94.9	-174.3098
307.000000	94.9	-174.2190
315.000000	94.8	-174.3510
325.000000	94.8	-174.4783
335.000000	94.8	-174.6022
345.000000	94.8	-174.7374
355.000000	94.8	-174.9489
365.000000	94.7	-175.0749
375.000000	94.7	-175.1338
387.000000	94.7	-175.2896
400.000000	94.6	-175.5345
412.000000	94.6	-175.3643
425.000000	94.5	-175.3985
437.000000	94.4	-175.3214
450.000000	94.4	-175.2034
462.000000	94.3	-175.1702
475.000000	94.3	-174.9932
487.000000	94.2	-174.8695
500.000000	94.2	-174.6253
515.000000	94.1	-174.3555
530.000000	94.1	-174.1122
545.000000	94.0	-173.7346
560.000000	94.0	-173.3396
580.000000	93.9	-172.7739
600.000000	93.8	-171.8209
615.000000	93.8	-171.6594
630.000000	93.8	-171.0815
650.000000	93.7	-170.2657
670.000000	93.7	-169.3071
690.000000	93.7	-168.7310
710.000000	93.6	-167.9174
730.000000	93.5	-166.8712
750.000000	93.5	-165.6052
775.000000	93.5	-164.2766
800.000000	93.5	-162.6200
825.000000	93.6	-161.2410
850.000000	93.6	-159.8482
875.000000	93.7	-158.1157
900.000000	93.8	-156.7440
925.000000	93.9	-154.9512
950.000000	94.1	-153.5709
975.000000	94.3	-152.0384
1000.000000	94.5	-150.7698
1030.000000	94.7	-149.3127
1060.000000	95.0	-148.0487
1090.000000	95.3	-146.9983
1120.000000	95.6	-146.1490
1150.000000	95.9	-145.4878
1180.000000	96.1	-144.9008
1220.000000	96.5	-144.3723
1250.000000	96.8	-144.0569
1280.000000	97.1	-143.8565
1320.000000	97.4	-143.6531
1360.000000	97.7	-143.5289
1400.000000	98.1	-143.3909
1450.000000	98.5	-143.3964
1500.000000	98.9	-143.5491
1550.000000	99.3	-143.7569
1600.000000	99.8	-144.0936
1650.000000	100.2	-144.6184
1700.000000	100.7	-145.4735
1750.000000	101.1	-146.4453
1800.000000	101.5	-147.7509
1850.000000	102.0	-149.3616
1900.000000	102.4	-151.2784
1950.000000	102.7	-153.4490
2000.000000	103.0	-155.8364
2060.000000	103.3	-158.8057
2120.000000	103.5	-161.8569
2180.000000	103.7	-164.7892
2240.000000	103.7	-167.4655
2300.000000	103.7	-169.8029
2360.000000	103.7	-171.7856
2430.000000	103.7	-173.6118
2500.000000	103.7	-174.9680
2580.000000	103.7	-176.1168
2650.000000	103.7	-176.8562
2720.000000	103.8	-177.5858
2800.000000	104.0	-178.6777
2900.000000	104.3	179.4236
3000.000000	104.6	176.7070
3070.000000	104.8	174.1024
3150.000000	105.0	170.2472
3250.000000	105.0	164.2446
3350.000000	104.6	157.7035
3450.000000	103.7	152.1680
3550.000000	102.5	149.2305
3650.000000	101.2	149.6786
3750.000000	99.9	153.4957
3870.000000	98.8	161.6346
4000.000000	98.3	172.8522
4120.000000	98.6	-176.8373
4250.000000	99.3	-167.6049
4370.000000	100.4	-161.5715
4500.000000	101.7	-158.2466
4620.000000	103.0	-158.1781
4750.000000	104.1	-161.1041
4870.000000	104.8	-165.8081
5000.000000	105.1	-171.6619
5150.000000	105.0	-177.4104
5300.000000	104.5	179.2988
5450.000000	104.0	178.5684
5600.000000	103.5	179.9674
5800.000000	103.1	-176.0399
6000.000000	103.1	-170.6291
6150.000000	103.3	-166.1611
6300.000000	103.7	-161.6888
6500.000000	104.6	-156.3228
6700.000000	106.1	-152.7067
6900.000000	108.3	-153.1003
7100.000000	110.9	-163.2462
7300.000000	112.4	169.3755
7500.000000	110.1	142.9030
7750.000000	106.0	133.6995
8000.000000	102.9	136.7503
8250.000000	100.7	144.0197
8500.000000	99.2	152.8770
8750.000000	98.1	162.2740
9000.000000	97.4	171.6602
9250.000000	97.1	-179.3863
9500.000000	97.1	-171.2852
9750.000000	97.4	-164.6445
10000.000000	97.9	-160.0015
10300.000000	98.6	-157.9093
10600.000000	99.0	-159.8387
10900.000000	98.8	-163.6864
11200.000000	98.1	-165.7535
11500.000000	97.1	-164.4271
11800.000000	96.4	-160.4143
12200.000000	95.9	-153.3540
12500.000000	96.2	-148.1885
12800.000000	97.1	-145.0756
13200.000000	99.6	-151.1925
13600.000000	100.9	173.2107
14000.000000	96.1	139.8613
14500.000000	88.6	129.4105
15000.000000	64.3	154.4318
15500.000000	91.1	-118.7594
16000.000000	94.2	-160.3536
16500.000000	95.1	151.4908
17000.000000	89.2	105.4003
17500.000000	82.8	94.0537
18000.000000	77.6	99.9649
18500.000000	80.5	109.2102
19000.000000	78.2	74.9252
19500.000000	77.0	53.3241
20000.000000	76.9	21.2415
20600.000000	75.0	-43.7009
21200.000000	66.5	-140.8191
21800.000000	61.1	154.2434
