* Measurement data measured by REW V5.20
* Source: ASIO MOTU M Series, In 1
* Format: 256k Log Swept Sine, 1 sweep at -12.0 dBFS with no timing reference
* Dated: 2022/04/02 12:37:13
* REW Settings:
*  C-weighting compensation: Off
*  Target level: 75.0 dB
* Note: 
* Measurement: intime Ti •É LC1
* Smoothing: 1/12 octave
* Frequency Step: 1/24 octave
* Start Frequency: 20.000 Hz
*
* Freq(Hz)	SPL(dB)	Phase(degrees)
20.000000	106.8	-154.2406
20.600000	106.8	-155.4240
21.200001	106.8	-156.5744
21.799999	106.8	-157.6908
22.400000	106.8	-158.7650
23.000000	106.8	-159.8011
23.600000	106.9	-160.8091
24.299999	106.9	-161.9467
25.000000	106.9	-163.0308
25.799999	106.9	-164.2219
26.500000	106.9	-165.2556
27.200001	106.9	-166.2816
28.000000	106.9	-167.4028
29.000000	106.8	-168.6939
30.000000	106.8	-169.9741
30.700001	106.8	-170.8873
31.500000	106.8	-171.8672
32.500000	106.8	-173.0403
33.500000	106.8	-174.2241
34.500000	106.8	-175.2451
35.500000	106.8	-176.2015
36.500000	106.7	-177.1746
37.500000	106.7	-178.0821
38.700001	106.7	-179.1906
40.000000	106.6	179.6058
41.200001	106.6	178.5364
42.500000	106.6	177.4482
43.700001	106.5	176.4604
45.000000	106.5	175.4293
46.200001	106.4	174.5229
47.500000	106.4	173.5871
48.700001	106.3	172.7451
50.000000	106.3	171.8155
51.500000	106.2	170.7796
53.000000	106.2	169.8395
54.500000	106.1	168.9155
56.000000	106.0	168.0107
58.000000	106.0	166.8451
60.000000	105.9	165.7148
61.500000	105.8	164.9024
63.000000	105.7	164.1191
65.000000	105.6	163.1165
67.000000	105.5	162.1505
69.000000	105.4	161.2236
71.000000	105.3	160.3413
73.000000	105.2	159.4949
75.000000	105.2	158.6721
77.500000	105.0	157.6909
80.000000	104.9	156.7596
82.500000	104.8	155.8751
85.000000	104.7	155.0161
87.500000	104.5	154.1639
90.000000	104.4	153.3144
92.500000	104.3	152.6001
95.000000	104.2	151.9889
97.500000	104.0	151.3635
100.000000	103.9	150.7337
103.000000	103.8	150.0123
106.000000	103.6	149.3389
109.000000	103.5	148.7008
112.000000	103.3	148.0963
115.000000	103.2	147.5300
118.000000	103.0	146.9971
122.000000	102.9	146.3353
125.000000	102.7	145.8734
128.000000	102.6	145.4353
132.000000	102.4	144.8925
136.000000	102.2	144.4017
140.000000	102.1	143.9554
145.000000	101.8	143.4498
150.000000	101.6	142.9962
155.000000	101.4	142.5892
160.000000	101.3	142.2325
165.000000	101.1	141.9287
170.000000	100.9	141.6650
175.000000	100.6	141.4417
180.000000	100.3	141.2597
185.000000	100.1	141.1108
190.000000	100.0	140.9919
195.000000	99.8	140.9026
200.000000	99.7	140.8427
206.000000	99.5	140.8105
212.000000	99.3	140.8221
218.000000	99.0	140.8680
224.000000	98.8	140.9409
230.000000	98.6	141.0574
236.000000	98.4	141.2218
243.000000	98.2	141.4841
250.000000	97.9	141.8370
258.000000	97.6	142.4738
265.000000	97.3	143.4274
272.000000	97.1	144.9870
280.000000	97.0	147.2807
290.000000	97.2	148.7345
300.000000	97.2	147.9606
307.000000	97.2	147.3131
315.000000	97.0	146.9577
325.000000	96.7	146.9915
335.000000	96.5	147.3307
345.000000	96.3	147.8434
355.000000	96.1	148.4684
365.000000	95.9	149.1618
375.000000	95.7	149.8995
387.000000	95.5	150.8394
400.000000	95.2	151.9070
412.000000	95.0	152.9325
425.000000	94.9	154.0769
437.000000	94.7	155.1606
450.000000	94.6	156.3596
462.000000	94.4	157.4850
475.000000	94.3	158.7243
487.000000	94.1	159.8824
500.000000	94.0	161.1513
515.000000	93.9	162.6247
530.000000	93.8	164.1072
545.000000	93.7	165.5995
560.000000	93.6	167.0992
580.000000	93.5	169.0986
600.000000	93.4	171.0940
615.000000	93.4	172.5872
630.000000	93.4	174.0736
650.000000	93.4	176.0397
670.000000	93.4	177.9847
690.000000	93.4	179.8991
710.000000	93.4	-178.2338
730.000000	93.5	-176.4430
750.000000	93.6	-174.7857
775.000000	93.7	-173.0193
800.000000	93.8	-171.4630
825.000000	93.9	-169.8841
850.000000	93.9	-168.1389
875.000000	94.0	-165.9124
900.000000	94.1	-163.5761
925.000000	94.3	-161.4872
950.000000	94.5	-159.7032
975.000000	94.8	-158.2011
1000.000000	95.0	-156.9491
1030.000000	95.3	-155.7488
1060.000000	95.6	-154.8534
1090.000000	95.9	-154.2324
1120.000000	96.2	-153.8549
1150.000000	96.5	-153.6829
1180.000000	96.7	-153.6797
1220.000000	97.0	-153.8836
1250.000000	97.3	-154.1582
1280.000000	97.5	-154.5118
1320.000000	97.7	-155.0783
1360.000000	97.9	-155.7267
1400.000000	98.2	-156.4400
1450.000000	98.4	-157.4018
1500.000000	98.7	-158.4184
1550.000000	99.0	-159.4751
1600.000000	99.2	-160.5570
1650.000000	99.3	-161.6429
1700.000000	99.3	-162.7182
1750.000000	99.2	-163.7668
1800.000000	99.3	-164.7725
1850.000000	99.4	-165.7231
1900.000000	99.5	-166.6073
1950.000000	99.5	-167.4163
2000.000000	99.6	-168.1451
2060.000000	99.6	-168.9117
2120.000000	99.7	-169.5597
2180.000000	99.7	-170.0941
2240.000000	99.7	-170.5231
2300.000000	99.7	-170.8570
2360.000000	99.7	-171.1097
2430.000000	99.8	-171.3208
2500.000000	99.8	-171.4632
2580.000000	99.9	-171.5759
2650.000000	99.9	-171.6600
2720.000000	100.0	-171.7577
2800.000000	100.1	-171.9180
2900.000000	100.3	-172.2451
3000.000000	100.4	-172.7759
3070.000000	100.6	-173.3004
3150.000000	100.7	-174.0775
3250.000000	101.0	-175.3393
3350.000000	101.2	-176.9282
3450.000000	101.3	-178.8157
3550.000000	101.4	179.0633
3650.000000	101.3	176.8088
3750.000000	101.2	174.5416
3870.000000	101.1	171.9823
4000.000000	100.9	169.6134
4120.000000	100.5	167.9351
4250.000000	100.1	166.7368
4370.000000	99.6	166.2141
4500.000000	99.2	166.2603
4620.000000	98.8	166.7975
4750.000000	98.5	167.7478
4870.000000	98.2	168.8100
5000.000000	98.0	170.0718
5150.000000	97.8	171.6282
5300.000000	97.6	173.2733
5450.000000	97.5	175.0107
5600.000000	97.3	176.8752
5800.000000	97.0	179.7941
6000.000000	96.9	-176.1298
6150.000000	96.9	-172.7616
6300.000000	97.1	-169.6765
6500.000000	97.5	-165.1320
6700.000000	98.1	-160.6753
6900.000000	99.1	-157.7877
7100.000000	100.1	-156.5917
7300.000000	101.4	-156.4695
7500.000000	103.4	-158.5989
7750.000000	106.6	-170.3166
8000.000000	108.4	162.7877
8250.000000	107.5	134.6848
8500.000000	104.6	121.5941
8750.000000	101.6	120.1256
9000.000000	99.4	123.4785
9250.000000	98.0	128.2131
9500.000000	97.4	132.5301
9750.000000	97.3	134.8979
10000.000000	97.5	133.6467
10300.000000	97.7	125.8218
10600.000000	96.9	113.6028
10900.000000	95.0	104.0397
11200.000000	92.3	101.3646
11500.000000	89.7	104.7127
11800.000000	87.4	111.8416
12200.000000	85.0	124.6027
12500.000000	83.8	135.5817
12800.000000	83.2	146.8891
13200.000000	83.0	160.8036
13600.000000	83.7	172.9089
14000.000000	85.9	-178.7782
14500.000000	89.7	171.9573
15000.000000	90.0	132.2869
15500.000000	85.3	112.6843
16000.000000	79.4	118.9545
16500.000000	74.7	132.2322
17000.000000	71.1	155.9053
17500.000000	72.0	-146.4478
18000.000000	77.4	-117.2419
18500.000000	80.7	-141.2270
19000.000000	80.1	179.5756
19500.000000	75.2	-170.1711
20000.000000	69.6	-114.4557
20600.000000	70.6	-86.2811
21200.000000	72.7	-92.8385
21800.000000	71.8	-106.3505
