* Measurement data measured by REW V5.20
* Source: ASIO MOTU M Series, In 1
* Format: 256k Log Swept Sine, 1 sweep at -12.0 dBFS using a loopback as a timing reference
* Dated: 2022/02/12 16:20:59
* REW Settings:
*  C-weighting compensation: Off
*  Target level: 75.0 dB
* Note: Delay 10.7301 ms (3.680 m, 12 ft 0.9 in)  relative to Loopback from 1: Out 1 to 3: Loopback 1 with no timing offset
* Measurement: JH JH13v2 PRO L2
* Smoothing: 1/12 octave
* Frequency Step: 1/24 octave
* Start Frequency: 20.000 Hz
*
* Freq(Hz)	SPL(dB)	Phase(degrees)
20.000000	95.6	51.1144
20.600000	95.7	50.1064
21.200001	95.8	49.1762
21.799999	95.9	48.3093
22.400000	96.0	47.4490
23.000000	96.1	46.5852
23.600000	96.3	45.7560
24.299999	96.4	44.8378
25.000000	96.5	43.9237
25.799999	96.6	42.8984
26.500000	96.7	42.0828
27.200001	96.8	41.3015
28.000000	96.9	40.3416
29.000000	97.0	39.1281
30.000000	97.1	38.0756
30.700001	97.2	37.3551
31.500000	97.3	36.4738
32.500000	97.4	35.3715
33.500000	97.5	34.3806
34.500000	97.5	33.4733
35.500000	97.6	32.5441
36.500000	97.7	31.5976
37.500000	97.8	30.7108
38.700001	97.9	29.6905
40.000000	98.0	28.6078
41.200001	98.0	27.5756
42.500000	98.1	26.5397
43.700001	98.2	25.6398
45.000000	98.2	24.6770
46.200001	98.3	23.8210
47.500000	98.3	22.8986
48.700001	98.4	22.0469
50.000000	98.4	21.1879
51.500000	98.5	20.2260
53.000000	98.5	19.2719
54.500000	98.6	18.3916
56.000000	98.6	17.5127
58.000000	98.7	16.3583
60.000000	98.7	15.2548
61.500000	98.7	14.4415
63.000000	98.7	13.6758
65.000000	98.8	12.7131
67.000000	98.8	11.7615
69.000000	98.8	10.8158
71.000000	98.8	9.9197
73.000000	98.8	9.0909
75.000000	98.8	8.2939
77.500000	98.8	7.2614
80.000000	98.8	6.1946
82.500000	98.8	5.2183
85.000000	98.8	4.3523
87.500000	98.8	3.2512
90.000000	98.7	2.0903
92.500000	98.7	1.5293
95.000000	98.8	1.0207
97.500000	98.8	0.4460
100.000000	98.7	-0.2503
103.000000	98.7	-1.0691
106.000000	98.7	-1.7723
109.000000	98.6	-2.4509
112.000000	98.6	-3.1251
115.000000	98.6	-3.8249
118.000000	98.5	-4.5276
122.000000	98.4	-5.3528
125.000000	98.4	-5.8847
128.000000	98.3	-6.3693
132.000000	98.2	-6.8983
136.000000	98.1	-7.3042
140.000000	98.1	-7.5685
145.000000	98.0	-7.7667
150.000000	98.0	-7.7818
155.000000	98.0	-7.4900
160.000000	98.2	-7.4208
165.000000	98.3	-8.0805
170.000000	98.4	-9.2754
175.000000	98.3	-10.7375
180.000000	98.2	-12.1784
185.000000	98.1	-13.4819
190.000000	98.1	-14.5964
195.000000	98.0	-15.5195
200.000000	98.0	-16.3124
206.000000	97.9	-17.1348
212.000000	97.7	-17.8220
218.000000	97.6	-18.4207
224.000000	97.5	-18.9550
230.000000	97.4	-19.4694
236.000000	97.3	-19.9564
243.000000	97.2	-20.4910
250.000000	97.1	-20.9498
258.000000	97.0	-21.3628
265.000000	96.9	-21.7448
272.000000	96.8	-22.1678
280.000000	96.6	-22.6085
290.000000	96.5	-23.0818
300.000000	96.4	-23.5060
307.000000	96.3	-23.7642
315.000000	96.2	-24.0287
325.000000	96.0	-24.3170
335.000000	95.9	-24.5607
345.000000	95.7	-24.7661
355.000000	95.6	-24.9377
365.000000	95.5	-25.0771
375.000000	95.4	-25.1880
387.000000	95.2	-25.2961
400.000000	95.1	-25.3796
412.000000	94.9	-25.4171
425.000000	94.8	-25.4128
437.000000	94.6	-25.3663
450.000000	94.5	-25.2700
462.000000	94.4	-25.1436
475.000000	94.2	-24.9686
487.000000	94.1	-24.7701
500.000000	94.0	-24.5304
515.000000	93.9	-24.2197
530.000000	93.7	-23.8553
545.000000	93.6	-23.4388
560.000000	93.5	-22.9729
580.000000	93.3	-22.3167
600.000000	93.2	-21.6322
615.000000	93.1	-21.0884
630.000000	93.0	-20.5217
650.000000	92.9	-19.7346
670.000000	92.8	-18.9028
690.000000	92.7	-18.0147
710.000000	92.7	-17.0721
730.000000	92.6	-16.0781
750.000000	92.5	-15.0402
775.000000	92.5	-13.6940
800.000000	92.5	-12.3129
825.000000	92.5	-10.9240
850.000000	92.6	-9.5505
875.000000	92.7	-8.2343
900.000000	92.8	-7.0063
925.000000	92.9	-5.9117
950.000000	93.0	-4.9897
975.000000	93.2	-4.2893
1000.000000	93.4	-3.8446
1030.000000	93.6	-3.6871
1060.000000	93.8	-3.9622
1090.000000	94.0	-4.6386
1120.000000	94.1	-5.6316
1150.000000	94.2	-6.7872
1180.000000	94.2	-7.9178
1220.000000	94.1	-9.1130
1250.000000	94.0	-9.6513
1280.000000	93.9	-9.8648
1320.000000	93.8	-9.7205
1360.000000	93.7	-9.2231
1400.000000	93.7	-8.5107
1450.000000	93.7	-7.4681
1500.000000	93.8	-6.3768
1550.000000	94.1	-5.3017
1600.000000	94.3	-4.2931
1650.000000	94.5	-3.3852
1700.000000	94.6	-2.6107
1750.000000	94.8	-2.0062
1800.000000	95.1	-1.6121
1850.000000	95.6	-1.4719
1900.000000	96.0	-1.6354
1950.000000	96.5	-2.1604
2000.000000	97.0	-3.1046
2060.000000	97.6	-4.8563
2120.000000	98.2	-7.3218
2180.000000	98.7	-10.4631
2240.000000	99.1	-14.1343
2300.000000	99.4	-18.1111
2360.000000	99.7	-22.1933
2430.000000	99.9	-27.0116
2500.000000	100.0	-32.0524
2580.000000	100.1	-38.3392
2650.000000	100.0	-44.1783
2720.000000	99.6	-49.8222
2800.000000	99.0	-55.2281
2900.000000	98.0	-59.4615
3000.000000	97.0	-60.6282
3070.000000	96.4	-59.9203
3150.000000	96.0	-58.1414
3250.000000	95.8	-55.5598
3350.000000	96.0	-53.9424
3450.000000	96.3	-54.2917
3550.000000	96.5	-56.6936
3650.000000	96.4	-60.2757
3750.000000	96.0	-63.7480
3870.000000	95.4	-66.4498
4000.000000	94.7	-67.1182
4120.000000	94.0	-66.0256
4250.000000	93.3	-63.5639
4370.000000	92.9	-60.4459
4500.000000	92.5	-56.3461
4620.000000	92.3	-52.0273
4750.000000	92.2	-46.9454
4870.000000	92.4	-42.0673
5000.000000	92.8	-36.8031
5150.000000	93.5	-31.0975
5300.000000	94.5	-26.2308
5450.000000	95.6	-22.6825
5600.000000	96.9	-20.9351
5800.000000	98.6	-22.1975
6000.000000	100.1	-27.8630
6150.000000	100.8	-33.7737
6300.000000	101.0	-39.0730
6500.000000	101.1	-43.0219
6700.000000	101.2	-43.3186
6900.000000	102.0	-41.6338
7100.000000	103.5	-40.3335
7300.000000	105.8	-42.3982
7500.000000	108.6	-51.7114
7750.000000	111.6	-78.4518
8000.000000	112.4	-116.6368
8250.000000	110.5	-148.8895
8500.000000	106.8	-165.1202
8750.000000	102.8	-168.6953
9000.000000	99.4	-165.6034
9250.000000	96.8	-159.8055
9500.000000	95.1	-153.6992
9750.000000	94.0	-148.4164
10000.000000	93.2	-145.0901
10300.000000	92.4	-144.7684
10600.000000	91.1	-146.3262
10900.000000	89.1	-144.9357
11200.000000	87.0	-138.2083
11500.000000	85.2	-127.3718
11800.000000	84.2	-115.0040
12200.000000	84.0	-101.0676
12500.000000	84.3	-95.9647
12800.000000	84.3	-96.0801
13200.000000	83.0	-96.9875
13600.000000	80.8	-87.8790
14000.000000	79.3	-70.7023
14500.000000	79.1	-50.0137
15000.000000	81.9	-21.9174
15500.000000	88.3	-6.6811
16000.000000	93.0	-29.0167
16500.000000	93.0	-79.3340
17000.000000	88.8	-105.8352
17500.000000	83.5	-103.6483
18000.000000	80.0	-93.8597
18500.000000	78.5	-91.0064
19000.000000	76.6	-92.3434
19500.000000	73.9	-87.7827
20000.000000	71.0	-77.5569
20600.000000	68.1	-64.2126
21200.000000	66.0	-50.5544
21800.000000	64.6	-36.1490
