* Measurement data measured by REW V5.20
* Source: ASIO MOTU M Series, In 1
* Format: 256k Log Swept Sine, 1 sweep at -12.0 dBFS using a loopback as a timing reference
* Dated: 2022/02/12 16:26:21
* REW Settings:
*  C-weighting compensation: Off
*  Target level: 75.0 dB
* Note: Delay 10.7188 ms (3.677 m, 12 ft 0.7 in)  relative to Loopback from 1: Out 1 to 3: Loopback 1 with no timing offset
* Measurement: JH JH13v2 PRO R1
* Smoothing: 1/12 octave
* Frequency Step: 1/24 octave
* Start Frequency: 20.000 Hz
*
* Freq(Hz)	SPL(dB)	Phase(degrees)
20.000000	91.2	-22.0370
20.600000	91.3	-25.0503
21.200001	91.5	-28.0127
21.799999	91.6	-30.9401
22.400000	91.8	-33.8742
23.000000	91.9	-36.8021
23.600000	92.1	-39.6843
24.299999	92.3	-43.0048
25.000000	92.4	-46.3472
25.799999	92.6	-50.2228
26.500000	92.7	-53.6030
27.200001	92.9	-56.9119
28.000000	93.0	-60.6423
29.000000	93.2	-65.3798
30.000000	93.4	-70.1818
30.700001	93.5	-73.5497
31.500000	93.6	-77.3871
32.500000	93.8	-82.1727
33.500000	93.9	-86.9442
34.500000	94.1	-91.5668
35.500000	94.3	-96.4002
36.500000	94.4	-101.3943
37.500000	94.5	-105.9568
38.700001	94.6	-111.2772
40.000000	94.7	-117.2861
41.200001	94.8	-122.9418
42.500000	94.9	-128.9033
43.700001	95.0	-134.3587
45.000000	95.1	-140.2742
46.200001	95.2	-145.6863
47.500000	95.3	-151.5461
48.700001	95.4	-156.9654
50.000000	95.5	-162.7869
51.500000	95.6	-169.4835
53.000000	95.6	-176.1785
54.500000	95.7	177.1785
56.000000	95.8	170.5760
58.000000	95.9	161.7923
60.000000	95.9	153.0441
61.500000	96.0	146.5009
63.000000	96.0	139.9856
65.000000	96.1	131.3458
67.000000	96.2	122.7307
69.000000	96.2	114.1274
71.000000	96.3	105.5670
73.000000	96.3	97.0601
75.000000	96.3	88.5793
77.500000	96.4	77.9700
80.000000	96.4	67.3610
82.500000	96.4	56.8668
85.000000	96.5	46.4124
87.500000	96.5	35.7017
90.000000	96.5	24.8664
92.500000	96.5	14.6617
95.000000	96.5	4.6936
97.500000	96.5	-5.4464
100.000000	96.5	-15.7339
103.000000	96.5	-28.0615
106.000000	96.5	-40.3141
109.000000	96.5	-52.5638
112.000000	96.5	-64.7927
115.000000	96.5	-76.9791
118.000000	96.5	-89.1409
122.000000	96.5	-105.3113
125.000000	96.5	-117.3940
128.000000	96.4	-129.4557
132.000000	96.4	-145.4639
136.000000	96.4	-161.4061
140.000000	96.3	-177.2849
145.000000	96.2	162.9873
150.000000	96.2	143.4548
155.000000	96.2	124.2147
160.000000	96.2	105.2246
165.000000	96.3	86.0581
170.000000	96.4	66.5432
175.000000	96.5	46.6843
180.000000	96.5	26.4935
185.000000	96.5	6.1515
190.000000	96.6	-14.2305
195.000000	96.6	-34.5437
200.000000	96.6	-54.7478
206.000000	96.5	-78.8683
212.000000	96.5	-102.8459
218.000000	96.4	-126.6847
224.000000	96.3	-150.4277
230.000000	96.2	-174.0842
236.000000	96.2	162.2983
243.000000	96.1	134.7837
250.000000	96.1	107.3040
258.000000	96.0	75.9611
265.000000	95.9	48.5792
272.000000	95.8	21.2190
280.000000	95.8	-10.0242
290.000000	95.7	-49.0367
300.000000	95.6	-88.0083
307.000000	95.5	-115.2646
315.000000	95.5	-146.3944
325.000000	95.4	174.7205
335.000000	95.3	135.8635
345.000000	95.2	97.0327
355.000000	95.1	58.2346
365.000000	95.1	19.4712
375.000000	95.0	-19.2753
387.000000	94.9	-65.7458
400.000000	94.8	-116.0508
412.000000	94.6	-162.4429
425.000000	94.6	147.3335
437.000000	94.5	101.0029
450.000000	94.4	50.8442
462.000000	94.3	4.5837
475.000000	94.2	-45.5037
487.000000	94.1	-91.7117
500.000000	94.0	-141.7363
515.000000	93.9	160.5811
530.000000	93.8	102.9370
545.000000	93.7	45.3218
560.000000	93.7	-12.2585
580.000000	93.6	-88.9893
600.000000	93.5	-165.6963
615.000000	93.4	136.7786
630.000000	93.3	79.2725
650.000000	93.2	2.6482
670.000000	93.2	-73.9023
690.000000	93.1	-150.3875
710.000000	93.0	133.1792
730.000000	93.0	56.7930
750.000000	92.9	-19.5518
775.000000	92.9	-114.9243
800.000000	92.9	149.7358
825.000000	92.9	54.4089
850.000000	92.9	-40.9243
875.000000	93.0	-136.3025
900.000000	93.1	128.2505
925.000000	93.2	32.6997
950.000000	93.3	-62.9814
975.000000	93.4	-158.8101
1000.000000	93.5	105.1953
1030.000000	93.6	-10.2168
1060.000000	93.8	-125.8369
1090.000000	93.9	118.3872
1120.000000	93.9	2.5107
1150.000000	94.0	-113.4185
1180.000000	94.1	130.6279
1220.000000	94.2	-23.9858
1250.000000	94.2	-139.9375
1280.000000	94.2	104.1279
1320.000000	94.3	-50.4209
1360.000000	94.4	155.0757
1400.000000	94.4	0.6226
1450.000000	94.5	167.6172
1500.000000	94.7	-25.3335
1550.000000	94.9	141.7441
1600.000000	95.1	-51.1753
1650.000000	95.2	115.8760
1700.000000	95.2	-77.1304
1750.000000	95.2	89.7793
1800.000000	95.4	-103.4209
1850.000000	95.7	63.2422
1900.000000	96.0	-130.2529
1950.000000	96.3	36.0728
2000.000000	96.5	-157.7939
2060.000000	96.9	-30.6934
2120.000000	97.2	96.1309
2180.000000	97.4	-137.2969
2240.000000	97.7	-10.9355
2300.000000	97.9	115.2539
2360.000000	98.2	-118.7158
2430.000000	98.4	-31.9727
2500.000000	98.7	54.1846
2580.000000	98.9	100.0859
2650.000000	98.9	-175.7070
2720.000000	98.7	-91.6689
2800.000000	98.1	-45.9785
2900.000000	97.2	-76.0361
3000.000000	96.4	-103.2725
3070.000000	95.9	-13.3340
3150.000000	95.6	38.3457
3250.000000	95.5	12.5332
3350.000000	95.5	-14.5215
3450.000000	95.5	-43.0059
3550.000000	95.2	-72.3154
3650.000000	94.7	-101.4307
3750.000000	94.0	-129.5645
3870.000000	93.3	126.3086
4000.000000	92.5	-14.7275
4120.000000	91.8	-115.9961
4250.000000	91.1	105.2812
4370.000000	90.7	5.6055
4500.000000	90.4	-131.8340
4620.000000	90.3	129.3242
4750.000000	90.4	-7.5957
4870.000000	90.8	-106.3730
5000.000000	91.3	116.2109
5150.000000	92.3	-98.7461
5300.000000	93.5	44.5312
5450.000000	94.8	-174.6895
5600.000000	95.9	-36.7598
5800.000000	96.9	-96.0273
6000.000000	97.1	-155.2070
6150.000000	97.1	-17.5508
6300.000000	97.0	122.4434
6500.000000	97.1	72.0391
6700.000000	97.8	23.1758
6900.000000	99.2	-26.2695
7100.000000	101.2	-78.6309
7300.000000	103.5	-136.3633
7500.000000	105.7	159.2520
7750.000000	107.9	-109.1367
8000.000000	109.0	-24.3438
8250.000000	108.0	59.5723
8500.000000	104.8	156.0312
8750.000000	101.0	-92.8867
9000.000000	97.9	24.9922
9250.000000	95.9	143.6055
9500.000000	94.7	-99.8516
9750.000000	93.6	14.1172
10000.000000	92.2	127.1328
10300.000000	90.1	49.3711
10600.000000	87.7	-23.1406
10900.000000	85.6	-91.5195
11200.000000	84.3	-158.5742
11500.000000	83.8	132.4883
11800.000000	83.6	58.8438
12200.000000	82.7	-45.7148
12500.000000	81.0	-122.1094
12800.000000	79.0	167.6953
13200.000000	76.7	82.2500
13600.000000	75.9	0.0898
14000.000000	76.9	-84.6992
14500.000000	79.5	157.2617
15000.000000	81.6	26.8281
15500.000000	83.5	-109.6211
16000.000000	85.3	99.8711
16500.000000	83.8	-62.4375
17000.000000	79.4	157.6719
17500.000000	75.3	27.4375
18000.000000	71.9	-104.0469
18500.000000	67.6	134.0469
19000.000000	63.4	16.3750
19500.000000	60.1	-147.6172
20000.000000	56.0	126.3281
20600.000000	51.5	-2.2109
21200.000000	55.3	34.8047
21800.000000	60.2	75.2344
