* Measurement data measured by REW V5.20
* Source: ASIO MOTU M Series, In 1
* Format: 256k Log Swept Sine, 1 sweep at -12.0 dBFS with no timing reference
* Dated: 2022/08/29 15:02:36
* REW Settings:
*  C-weighting compensation: Off
*  Target level: 75.0 dB
* Note: 
* Measurement: JH16v2 3 RC1
* Smoothing: 1/12 octave
* Frequency Step: 1/24 octave
* Start Frequency: 20.000 Hz
*
* Freq(Hz)	SPL(dB)	Phase(degrees)
20.000000	106.433	29.2414
20.600000	106.502	28.4240
21.200001	106.567	27.6498
21.799999	106.630	26.9121
22.400000	106.692	26.1940
23.000000	106.750	25.4911
23.600000	106.803	24.8163
24.299999	106.862	24.0735
25.000000	106.921	23.3575
25.799999	106.985	22.5398
26.500000	107.033	21.8391
27.200001	107.077	21.1791
28.000000	107.127	20.4688
29.000000	107.190	19.5957
30.000000	107.247	18.7291
30.700001	107.283	18.1450
31.500000	107.322	17.5103
32.500000	107.371	16.7562
33.500000	107.417	16.0116
34.500000	107.457	15.2775
35.500000	107.491	14.5850
36.500000	107.524	13.9247
37.500000	107.557	13.2685
38.700001	107.593	12.5001
40.000000	107.631	11.6801
41.200001	107.655	10.9540
42.500000	107.684	10.2983
43.700001	107.718	9.6735
45.000000	107.748	8.9913
46.200001	107.775	8.3600
47.500000	107.799	7.6617
48.700001	107.817	7.0360
50.000000	107.834	6.3806
51.500000	107.855	5.6777
53.000000	107.878	4.9735
54.500000	107.897	4.2621
56.000000	107.908	3.5549
58.000000	107.916	2.6874
60.000000	107.927	1.8342
61.500000	107.930	1.2137
63.000000	107.931	0.6119
65.000000	107.929	-0.1771
67.000000	107.926	-0.9497
69.000000	107.921	-1.7034
71.000000	107.914	-2.4283
73.000000	107.904	-3.1317
75.000000	107.891	-3.8167
77.500000	107.873	-4.6542
80.000000	107.852	-5.4631
82.500000	107.828	-6.2523
85.000000	107.802	-7.0282
87.500000	107.779	-7.7767
90.000000	107.757	-8.5348
92.500000	107.715	-9.2486
95.000000	107.673	-9.8854
97.500000	107.633	-10.5468
100.000000	107.594	-11.1992
103.000000	107.545	-11.9337
106.000000	107.493	-12.6472
109.000000	107.438	-13.3451
112.000000	107.381	-14.0158
115.000000	107.323	-14.6599
118.000000	107.262	-15.2852
122.000000	107.177	-16.0861
125.000000	107.111	-16.6477
128.000000	107.044	-17.1764
132.000000	106.949	-17.8288
136.000000	106.850	-18.4301
140.000000	106.750	-18.9672
145.000000	106.623	-19.5113
150.000000	106.496	-19.8790
155.000000	106.386	-20.0385
160.000000	106.312	-20.0089
165.000000	106.296	-19.9426
170.000000	106.338	-20.1367
175.000000	106.397	-20.8024
180.000000	106.425	-21.8774
185.000000	106.396	-23.1030
190.000000	106.322	-24.2742
195.000000	106.220	-25.3065
200.000000	106.105	-26.2006
206.000000	105.961	-27.1289
212.000000	105.814	-27.9137
218.000000	105.668	-28.5881
224.000000	105.525	-29.1864
230.000000	105.384	-29.7192
236.000000	105.247	-30.1885
243.000000	105.093	-30.6675
250.000000	104.949	-31.1169
258.000000	104.788	-31.6277
265.000000	104.643	-32.0378
272.000000	104.501	-32.4056
280.000000	104.341	-32.7841
290.000000	104.145	-33.1984
300.000000	103.955	-33.5537
307.000000	103.825	-33.7794
315.000000	103.679	-34.0124
325.000000	103.501	-34.2714
335.000000	103.326	-34.5028
345.000000	103.154	-34.7062
355.000000	102.983	-34.8740
365.000000	102.815	-35.0050
375.000000	102.650	-35.1075
387.000000	102.456	-35.1937
400.000000	102.250	-35.2433
412.000000	102.064	-35.2534
425.000000	101.866	-35.2256
437.000000	101.688	-35.1667
450.000000	101.498	-35.0703
462.000000	101.326	-34.9452
475.000000	101.145	-34.7775
487.000000	100.982	-34.5994
500.000000	100.809	-34.3855
515.000000	100.614	-34.1135
530.000000	100.421	-33.8119
545.000000	100.230	-33.4732
560.000000	100.043	-33.0929
580.000000	99.800	-32.5164
600.000000	99.564	-31.8554
615.000000	99.393	-31.3066
630.000000	99.230	-30.7166
650.000000	99.024	-29.8885
670.000000	98.832	-29.0381
690.000000	98.645	-28.1764
710.000000	98.462	-27.2748
730.000000	98.284	-26.3106
750.000000	98.115	-25.2773
775.000000	97.918	-23.8978
800.000000	97.740	-22.4226
825.000000	97.585	-20.8636
850.000000	97.453	-19.2372
875.000000	97.349	-17.5568
900.000000	97.275	-15.8484
925.000000	97.232	-14.1410
950.000000	97.223	-12.4694
975.000000	97.249	-10.8862
1000.000000	97.309	-9.4449
1030.000000	97.416	-7.9843
1060.000000	97.548	-6.8969
1090.000000	97.680	-6.2066
1120.000000	97.794	-5.8658
1150.000000	97.875	-5.7725
1180.000000	97.919	-5.8137
1220.000000	97.925	-5.9208
1250.000000	97.897	-5.9650
1280.000000	97.849	-5.9431
1320.000000	97.764	-5.7852
1360.000000	97.664	-5.4730
1400.000000	97.557	-5.0112
1450.000000	97.423	-4.2357
1500.000000	97.298	-3.2669
1550.000000	97.187	-2.1493
1600.000000	97.097	-0.9128
1650.000000	97.030	0.4078
1700.000000	96.989	1.7794
1750.000000	96.973	3.1683
1800.000000	96.985	4.5416
1850.000000	97.022	5.8710
1900.000000	97.085	7.1287
1950.000000	97.172	8.2880
2000.000000	97.281	9.3206
2060.000000	97.437	10.3560
2120.000000	97.614	11.1293
2180.000000	97.803	11.6133
2240.000000	97.996	11.7888
2300.000000	98.181	11.6544
2360.000000	98.348	11.2311
2430.000000	98.505	10.4345
2500.000000	98.612	9.4169
2580.000000	98.669	8.1589
2650.000000	98.670	7.1304
2720.000000	98.640	6.2765
2800.000000	98.596	5.5605
2900.000000	98.575	4.9646
3000.000000	98.636	4.3821
3070.000000	98.734	3.7209
3150.000000	98.889	2.4313
3250.000000	99.085	-0.3350
3350.000000	99.172	-4.5220
3450.000000	99.026	-9.7180
3550.000000	98.586	-14.9922
3650.000000	97.880	-19.3445
3750.000000	97.003	-22.1858
3870.000000	95.876	-23.4978
4000.000000	94.707	-22.7614
4120.000000	93.750	-20.6006
4250.000000	92.880	-17.1105
4370.000000	92.246	-13.1254
4500.000000	91.753	-8.2333
4620.000000	91.485	-3.3801
4750.000000	91.412	2.0156
4870.000000	91.557	6.8870
5000.000000	91.953	11.7192
5150.000000	92.708	16.1431
5300.000000	93.716	18.5057
5450.000000	94.799	17.9606
5600.000000	95.689	14.2875
5800.000000	96.178	6.7028
6000.000000	95.861	1.0410
6150.000000	95.404	0.1261
6300.000000	95.050	2.0085
6500.000000	95.064	7.7056
6700.000000	95.992	15.4388
6900.000000	98.167	22.0417
7100.000000	100.941	21.3236
7300.000000	103.242	11.8052
7500.000000	104.912	-2.5330
7750.000000	106.195	-24.6415
8000.000000	106.441	-51.4449
8250.000000	104.970	-78.6702
8500.000000	101.784	-94.4055
8750.000000	98.095	-96.5356
9000.000000	95.112	-91.4770
9250.000000	93.226	-84.8684
9500.000000	92.161	-80.2278
9750.000000	91.340	-79.1070
10000.000000	90.208	-80.1173
10300.000000	88.162	-79.1674
10600.000000	85.728	-72.3137
10900.000000	83.559	-60.3886
11200.000000	82.109	-46.2858
11500.000000	81.479	-33.0695
11800.000000	81.396	-23.4421
12200.000000	81.180	-17.9309
12500.000000	80.298	-16.1346
12800.000000	78.727	-11.1376
13200.000000	76.276	3.8050
13600.000000	74.433	26.7240
14000.000000	74.456	55.3860
14500.000000	77.749	83.2308
15000.000000	80.944	89.5745
15500.000000	83.098	86.2793
16000.000000	85.481	77.2791
16500.000000	86.102	51.4615
17000.000000	83.446	33.9114
17500.000000	80.392	29.3878
18000.000000	77.622	26.3289
18500.000000	74.274	32.2952
19000.000000	71.645	43.6265
19500.000000	70.182	50.1297
20000.000000	68.450	52.9863
20600.000000	65.405	64.6151
21200.000000	63.185	82.3300
21800.000000	62.226	93.5872
