* Measurement data measured by REW V5.20
* Source: ASIO MOTU M Series, In 1
* Format: 256k Log Swept Sine, 1 sweep at -12.0 dBFS with no timing reference
* Dated: 2022/08/29 15:02:09
* REW Settings:
*  C-weighting compensation: Off
*  Target level: 75.0 dB
* Note: 
* Measurement: JH16v2 2 RC1
* Smoothing: 1/12 octave
* Frequency Step: 1/24 octave
* Start Frequency: 20.000 Hz
*
* Freq(Hz)	SPL(dB)	Phase(degrees)
20.000000	95.893	39.0229
20.600000	95.990	38.3836
21.200001	96.082	37.7625
21.799999	96.171	37.1780
22.400000	96.261	36.6321
23.000000	96.355	36.0855
23.600000	96.447	35.4972
24.299999	96.539	34.8018
25.000000	96.617	34.2054
25.799999	96.711	33.6499
26.500000	96.801	33.1657
27.200001	96.886	32.6571
28.000000	96.975	32.1011
29.000000	97.085	31.4391
30.000000	97.190	30.7657
30.700001	97.259	30.2996
31.500000	97.335	29.7797
32.500000	97.427	29.1424
33.500000	97.513	28.5248
34.500000	97.595	27.9540
35.500000	97.676	27.4174
36.500000	97.753	26.8763
37.500000	97.820	26.3391
38.700001	97.890	25.7121
40.000000	97.949	25.0399
41.200001	98.005	24.5715
42.500000	98.100	24.0308
43.700001	98.191	23.3688
45.000000	98.275	22.6680
46.200001	98.348	22.1407
47.500000	98.437	21.6862
48.700001	98.525	21.1936
50.000000	98.593	20.5240
51.500000	98.631	19.8489
53.000000	98.673	19.2319
54.500000	98.711	18.5454
56.000000	98.745	17.9081
58.000000	98.811	17.2099
60.000000	98.887	16.4459
61.500000	98.933	15.8848
63.000000	98.972	15.3496
65.000000	99.017	14.6564
67.000000	99.057	13.9979
69.000000	99.096	13.3546
71.000000	99.131	12.7058
73.000000	99.161	12.0724
75.000000	99.189	11.4824
77.500000	99.222	10.7760
80.000000	99.247	10.0774
82.500000	99.269	9.3821
85.000000	99.290	8.7584
87.500000	99.299	8.2483
90.000000	99.304	7.8472
92.500000	99.329	7.1893
95.000000	99.333	6.3948
97.500000	99.333	5.7593
100.000000	99.334	5.2306
103.000000	99.335	4.5919
106.000000	99.333	3.9662
109.000000	99.326	3.3907
112.000000	99.315	2.8398
115.000000	99.302	2.3053
118.000000	99.284	1.7928
122.000000	99.254	1.1251
125.000000	99.231	0.6782
128.000000	99.208	0.2712
132.000000	99.169	-0.2521
136.000000	99.126	-0.7174
140.000000	99.082	-1.1097
145.000000	99.018	-1.4724
150.000000	98.955	-1.6937
155.000000	98.913	-1.7557
160.000000	98.903	-1.6271
165.000000	98.949	-1.4202
170.000000	99.048	-1.4932
175.000000	99.166	-2.0443
180.000000	99.251	-3.0303
185.000000	99.280	-4.1381
190.000000	99.260	-5.1641
195.000000	99.214	-6.0831
200.000000	99.157	-6.8741
206.000000	99.077	-7.6718
212.000000	98.993	-8.3539
218.000000	98.908	-8.9407
224.000000	98.826	-9.4436
230.000000	98.746	-9.8826
236.000000	98.666	-10.2672
243.000000	98.577	-10.6525
250.000000	98.497	-11.0148
258.000000	98.410	-11.4451
265.000000	98.329	-11.7866
272.000000	98.247	-12.0885
280.000000	98.154	-12.3862
290.000000	98.041	-12.7092
300.000000	97.930	-12.9861
307.000000	97.854	-13.1622
315.000000	97.769	-13.3416
325.000000	97.664	-13.5371
335.000000	97.561	-13.7043
345.000000	97.458	-13.8339
355.000000	97.356	-13.9472
365.000000	97.256	-14.0470
375.000000	97.157	-14.1097
387.000000	97.040	-14.1481
400.000000	96.914	-14.1516
412.000000	96.801	-14.1128
425.000000	96.680	-14.0398
437.000000	96.571	-13.9447
450.000000	96.454	-13.8121
462.000000	96.350	-13.6523
475.000000	96.241	-13.4529
487.000000	96.142	-13.2485
500.000000	96.039	-13.0101
515.000000	95.921	-12.7182
530.000000	95.805	-12.3978
545.000000	95.690	-12.0372
560.000000	95.577	-11.6461
580.000000	95.430	-11.0660
600.000000	95.290	-10.4071
615.000000	95.191	-9.8687
630.000000	95.100	-9.2937
650.000000	94.990	-8.4946
670.000000	94.890	-7.6925
690.000000	94.795	-6.8929
710.000000	94.704	-6.0685
730.000000	94.616	-5.1958
750.000000	94.537	-4.2740
775.000000	94.451	-3.0706
800.000000	94.384	-1.8107
825.000000	94.336	-0.5066
850.000000	94.309	0.8146
875.000000	94.304	2.1200
900.000000	94.322	3.3905
925.000000	94.361	4.6040
950.000000	94.418	5.7271
975.000000	94.492	6.7346
1000.000000	94.576	7.6119
1030.000000	94.685	8.4814
1060.000000	94.793	9.1639
1090.000000	94.895	9.6887
1120.000000	94.988	10.0887
1150.000000	95.069	10.3997
1180.000000	95.138	10.6500
1220.000000	95.213	10.9142
1250.000000	95.257	11.0778
1280.000000	95.290	11.2288
1320.000000	95.321	11.4400
1360.000000	95.338	11.6884
1400.000000	95.346	11.9909
1450.000000	95.350	12.4601
1500.000000	95.353	13.0285
1550.000000	95.362	13.6843
1600.000000	95.382	14.4052
1650.000000	95.415	15.1708
1700.000000	95.463	15.9551
1750.000000	95.528	16.7352
1800.000000	95.611	17.4869
1850.000000	95.712	18.1880
1900.000000	95.830	18.8130
1950.000000	95.965	19.3387
2000.000000	96.114	19.7428
2060.000000	96.309	20.0326
2120.000000	96.515	20.0774
2180.000000	96.725	19.8566
2240.000000	96.931	19.3538
2300.000000	97.123	18.5712
2360.000000	97.290	17.5306
2430.000000	97.443	16.0547
2500.000000	97.541	14.4032
2580.000000	97.585	12.4668
2650.000000	97.574	10.8722
2720.000000	97.531	9.4586
2800.000000	97.471	8.0833
2900.000000	97.420	6.5831
3000.000000	97.417	5.0013
3070.000000	97.439	3.6378
3150.000000	97.466	1.6639
3250.000000	97.455	-1.5435
3350.000000	97.325	-5.4994
3450.000000	97.012	-9.8259
3550.000000	96.488	-13.8774
3650.000000	95.788	-16.9966
3750.000000	94.989	-18.8265
3870.000000	94.012	-19.3412
4000.000000	93.032	-18.2183
4120.000000	92.247	-16.0277
4250.000000	91.551	-12.7346
4370.000000	91.061	-9.0601
4500.000000	90.707	-4.5878
4620.000000	90.557	-0.1699
4750.000000	90.599	4.7251
4870.000000	90.840	9.1217
5000.000000	91.330	13.4359
5150.000000	92.182	17.2739
5300.000000	93.272	19.0706
5450.000000	94.424	17.9786
5600.000000	95.368	13.7858
5800.000000	95.913	5.5620
6000.000000	95.638	-0.6799
6150.000000	95.206	-2.0055
6300.000000	94.867	-0.5376
6500.000000	94.866	4.5526
6700.000000	95.680	11.6908
6900.000000	97.641	18.3151
7100.000000	100.349	19.0092
7300.000000	102.783	11.0323
7500.000000	104.587	-2.7859
7750.000000	105.966	-24.8343
8000.000000	106.274	-51.5904
8250.000000	104.860	-78.8949
8500.000000	101.713	-94.8395
8750.000000	98.036	-97.0762
9000.000000	95.050	-91.9896
9250.000000	93.163	-85.2812
9500.000000	92.106	-80.5212
9750.000000	91.301	-79.3019
10000.000000	90.188	-80.2660
10300.000000	88.162	-79.3378
10600.000000	85.742	-72.5391
10900.000000	83.578	-60.6530
11200.000000	82.130	-46.5566
11500.000000	81.501	-33.3198
11800.000000	81.416	-23.6608
12200.000000	81.196	-17.9896
12500.000000	80.325	-15.9537
12800.000000	78.791	-10.7413
13200.000000	76.441	4.1451
13600.000000	74.707	26.2277
14000.000000	74.611	53.3858
14500.000000	77.661	81.3723
15000.000000	80.841	88.8442
15500.000000	83.028	86.1990
16000.000000	85.440	77.6492
16500.000000	86.117	52.0783
17000.000000	83.494	34.2728
17500.000000	80.414	29.7232
18000.000000	77.619	26.7644
18500.000000	74.253	32.7765
19000.000000	71.596	44.1841
19500.000000	70.105	50.8122
20000.000000	68.363	53.7916
20600.000000	65.329	65.1339
21200.000000	63.125	82.5265
21800.000000	62.258	94.2907
