* Measurement data measured by REW V5.20
* Source: ASIO MOTU M Series, In 1
* Format: 256k Log Swept Sine, 1 sweep at -12.0 dBFS with no timing reference
* Dated: 2022/07/29 19:35:17
* REW Settings:
*  C-weighting compensation: Off
*  Target level: 75.0 dB
* Note: 
* Measurement: KZ ATR LC1
* Smoothing: 1/12 octave
* Frequency Step: 1/24 octave
* Start Frequency: 20.000 Hz
*
* Freq(Hz)	SPL(dB)	Phase(degrees)
20.000000	99.096	-117.8938
20.600000	99.283	-119.3245
21.200001	99.458	-120.7406
21.799999	99.620	-122.1136
22.400000	99.776	-123.4297
23.000000	99.930	-124.7127
23.600000	100.079	-125.9855
24.299999	100.244	-127.4548
25.000000	100.397	-128.8824
25.799999	100.561	-130.4081
26.500000	100.709	-131.6870
27.200001	100.851	-133.0481
28.000000	100.974	-134.6663
29.000000	101.080	-136.3486
30.000000	101.208	-137.8157
30.700001	101.291	-138.9333
31.500000	101.368	-140.1396
32.500000	101.478	-141.5322
33.500000	101.590	-143.0779
34.500000	101.676	-144.6253
35.500000	101.751	-146.0593
36.500000	101.820	-147.4012
37.500000	101.884	-148.6441
38.700001	101.953	-150.0594
40.000000	102.022	-151.4713
41.200001	102.084	-152.8089
42.500000	102.131	-154.2670
43.700001	102.170	-155.5446
45.000000	102.215	-156.9242
46.200001	102.255	-158.1907
47.500000	102.293	-159.5261
48.700001	102.323	-160.7210
50.000000	102.339	-161.9631
51.500000	102.349	-163.1890
53.000000	102.368	-164.3804
54.500000	102.377	-165.5881
56.000000	102.378	-166.7354
58.000000	102.383	-168.2069
60.000000	102.380	-169.6387
61.500000	102.373	-170.6584
63.000000	102.362	-171.6565
65.000000	102.339	-172.9430
67.000000	102.313	-174.1683
69.000000	102.283	-175.3264
71.000000	102.255	-176.4218
73.000000	102.222	-177.5134
75.000000	102.184	-178.5603
77.500000	102.135	-179.8001
80.000000	102.084	179.0410
82.500000	102.025	177.9261
85.000000	101.961	176.8430
87.500000	101.901	175.7806
90.000000	101.838	174.7627
92.500000	101.770	173.8824
95.000000	101.702	173.0426
97.500000	101.628	172.1978
100.000000	101.553	171.3819
103.000000	101.472	170.4154
106.000000	101.385	169.4963
109.000000	101.293	168.6844
112.000000	101.200	167.9193
115.000000	101.107	167.1704
118.000000	101.016	166.4613
122.000000	100.893	165.5634
125.000000	100.800	164.9093
128.000000	100.706	164.2834
132.000000	100.579	163.5396
136.000000	100.451	162.8528
140.000000	100.324	162.1844
145.000000	100.166	161.3972
150.000000	100.004	160.6767
155.000000	99.834	160.0472
160.000000	99.666	159.4490
165.000000	99.502	158.8773
170.000000	99.335	158.4006
175.000000	99.164	157.9016
180.000000	98.983	157.4598
185.000000	98.795	157.1353
190.000000	98.591	156.8310
195.000000	98.357	156.6354
200.000000	98.080	156.7003
206.000000	97.692	157.5307
212.000000	97.339	160.1558
218.000000	97.400	164.1701
224.000000	97.942	165.9987
230.000000	98.337	164.3158
236.000000	98.377	161.8448
243.000000	98.207	159.9434
250.000000	97.985	159.0575
258.000000	97.781	158.5070
265.000000	97.612	158.1779
272.000000	97.441	157.9261
280.000000	97.249	157.7626
290.000000	97.032	157.7072
300.000000	96.821	157.8284
307.000000	96.680	157.9986
315.000000	96.527	158.1928
325.000000	96.344	158.4744
335.000000	96.173	158.8052
345.000000	96.003	159.1582
355.000000	95.837	159.5555
365.000000	95.679	159.9811
375.000000	95.524	160.4516
387.000000	95.347	161.0891
400.000000	95.166	161.7870
412.000000	95.007	162.4523
425.000000	94.848	163.2256
437.000000	94.702	163.9560
450.000000	94.544	164.7710
462.000000	94.413	165.5437
475.000000	94.274	166.4163
487.000000	94.151	167.2726
500.000000	94.027	168.2117
515.000000	93.895	169.3048
530.000000	93.775	170.4332
545.000000	93.664	171.4990
560.000000	93.557	172.5676
580.000000	93.421	174.0364
600.000000	93.290	175.5410
615.000000	93.195	176.6876
630.000000	93.105	177.8726
650.000000	93.002	179.5170
670.000000	92.911	-178.8087
690.000000	92.833	-177.1195
710.000000	92.766	-175.4037
730.000000	92.709	-173.6762
750.000000	92.665	-171.9302
775.000000	92.632	-169.6954
800.000000	92.617	-167.4479
825.000000	92.624	-165.2017
850.000000	92.651	-162.9426
875.000000	92.693	-160.6815
900.000000	92.756	-158.3181
925.000000	92.878	-155.8875
950.000000	93.048	-153.7673
975.000000	93.221	-151.8654
1000.000000	93.403	-150.0424
1030.000000	93.644	-148.0417
1060.000000	93.898	-146.2794
1090.000000	94.157	-144.7269
1120.000000	94.414	-143.3540
1150.000000	94.668	-142.1366
1180.000000	94.915	-141.0617
1220.000000	95.233	-139.8034
1250.000000	95.461	-138.9661
1280.000000	95.681	-138.1965
1320.000000	95.963	-137.2370
1360.000000	96.234	-136.3326
1400.000000	96.497	-135.4666
1450.000000	96.822	-134.4193
1500.000000	97.143	-133.3975
1550.000000	97.466	-132.3978
1600.000000	97.796	-131.4182
1650.000000	98.135	-130.4714
1700.000000	98.486	-129.5734
1750.000000	98.851	-128.7393
1800.000000	99.233	-127.9838
1850.000000	99.631	-127.3260
1900.000000	100.047	-126.7875
1950.000000	100.480	-126.3925
2000.000000	100.931	-126.1667
2060.000000	101.494	-126.1556
2120.000000	102.076	-126.4762
2180.000000	102.674	-127.1826
2240.000000	103.279	-128.3288
2300.000000	103.880	-129.9646
2360.000000	104.462	-132.1277
2430.000000	105.094	-135.3358
2500.000000	105.645	-139.2390
2580.000000	106.135	-144.3703
2650.000000	106.424	-149.1799
2720.000000	106.583	-154.0350
2800.000000	106.614	-159.4279
2900.000000	106.439	-165.4987
3000.000000	106.097	-170.3235
3070.000000	105.810	-172.8938
3150.000000	105.471	-175.0910
3250.000000	105.069	-176.9001
3350.000000	104.723	-177.8960
3450.000000	104.451	-178.3033
3550.000000	104.263	-178.3241
3650.000000	104.163	-178.1452
3750.000000	104.150	-177.9282
3870.000000	104.243	-177.8209
4000.000000	104.467	-178.1772
4120.000000	104.764	-179.2364
4250.000000	105.138	178.5027
4370.000000	105.468	175.1576
4500.000000	105.713	170.1091
4620.000000	105.743	164.4267
4750.000000	105.503	157.8886
4870.000000	105.029	152.2479
5000.000000	104.288	147.2442
5150.000000	103.247	143.4154
5300.000000	102.137	141.7122
5450.000000	101.060	141.8462
5600.000000	100.080	143.4692
5800.000000	98.992	147.3321
6000.000000	98.186	152.4624
6150.000000	97.771	156.8372
6300.000000	97.525	161.4774
6500.000000	97.479	167.7835
6700.000000	97.780	173.7861
6900.000000	98.461	178.8134
7100.000000	99.521	-178.2294
7300.000000	100.801	-179.0362
7500.000000	101.856	174.9691
7750.000000	102.092	163.2230
8000.000000	101.279	155.9893
8250.000000	100.714	154.1447
8500.000000	100.663	150.2330
8750.000000	100.215	143.2378
9000.000000	99.109	138.3134
9250.000000	97.814	137.8663
9500.000000	96.819	140.5827
9750.000000	96.353	144.3055
10000.000000	96.440	147.1293
10300.000000	97.175	146.5181
10600.000000	97.856	136.8716
10900.000000	97.296	120.9683
11200.000000	95.287	108.8594
11500.000000	92.482	105.3336
11800.000000	89.620	108.6094
12200.000000	86.336	119.4792
12500.000000	84.437	130.5952
12800.000000	83.067	143.0898
13200.000000	82.072	160.4974
13600.000000	81.974	177.1922
14000.000000	82.632	-168.0290
14500.000000	84.623	-152.5469
15000.000000	88.378	-144.7932
15500.000000	91.781	-160.9457
16000.000000	91.199	165.6827
16500.000000	87.303	156.0600
17000.000000	83.958	165.0870
17500.000000	83.269	174.7458
18000.000000	84.092	173.1769
18500.000000	84.012	157.4788
19000.000000	81.796	142.2289
19500.000000	78.019	140.4558
20000.000000	73.911	150.6483
20600.000000	69.918	171.6844
21200.000000	67.886	-164.1717
21800.000000	67.813	-145.8735
