* Measurement data measured by REW V5.20
* Source: ASIO hdspfire, Analog 2 (1)
* Format: 256k Log Swept Sine, 1 sweep at -12.0 dBFS using a loopback as a timing reference
* Dated: 2022/01/07 13:46:43
* REW Settings:
*  C-weighting compensation: Off
*  Target level: 75.0 dB
* Note: Delay 0.0037 ms (1.3 mm, 0.05 in)  relative to Loopback from 1: Analog 1 (1) to 1: Analog 1 (1) with no timing offset
* Measurement: KZ ZEX R
* Smoothing: 1/12 octave
* Frequency Step: 1/24 octave
* Start Frequency: 20.000 Hz
*
* Freq(Hz)	SPL(dB)	Phase(degrees)
20.000000	95.8	-55.2396
20.600000	96.1	-57.6422
21.200001	96.4	-60.0045
21.799999	96.7	-62.3607
22.400000	97.0	-64.6682
23.000000	97.2	-66.9004
23.600000	97.5	-69.0551
24.299999	97.7	-71.4531
25.000000	98.0	-73.7018
25.799999	98.3	-76.1411
26.500000	98.5	-78.2375
27.200001	98.7	-80.2755
28.000000	98.9	-82.4668
29.000000	99.2	-85.1526
30.000000	99.4	-87.8180
30.700001	99.6	-89.5116
31.500000	99.7	-91.3645
32.500000	100.0	-93.7087
33.500000	100.2	-95.9379
34.500000	100.4	-98.1718
35.500000	100.5	-100.3230
36.500000	100.7	-102.2147
37.500000	100.8	-104.0406
38.700001	101.0	-106.2106
40.000000	101.2	-108.5317
41.200001	101.3	-110.5250
42.500000	101.4	-112.5384
43.700001	101.5	-114.3769
45.000000	101.7	-116.2811
46.200001	101.8	-117.9613
47.500000	101.9	-119.8238
48.700001	102.0	-121.4380
50.000000	102.1	-123.0129
51.500000	102.2	-124.7667
53.000000	102.3	-126.4851
54.500000	102.3	-128.1061
56.000000	102.4	-129.6529
58.000000	102.5	-131.6733
60.000000	102.6	-133.5841
61.500000	102.7	-134.9872
63.000000	102.7	-136.3389
65.000000	102.8	-138.0464
67.000000	102.8	-139.6794
69.000000	102.9	-141.2364
71.000000	102.9	-142.7270
73.000000	103.0	-144.1464
75.000000	103.0	-145.5055
77.500000	103.1	-147.1388
80.000000	103.1	-148.7154
82.500000	103.1	-150.2022
85.000000	103.1	-151.6192
87.500000	103.2	-152.9826
90.000000	103.2	-154.2855
92.500000	103.2	-155.5247
95.000000	103.2	-156.7472
97.500000	103.2	-157.9285
100.000000	103.2	-159.0627
103.000000	103.2	-160.3485
106.000000	103.2	-161.5656
109.000000	103.2	-162.7178
112.000000	103.2	-163.8268
115.000000	103.1	-164.8696
118.000000	103.1	-165.8330
122.000000	103.1	-166.9735
125.000000	103.1	-167.7152
128.000000	103.1	-168.4117
132.000000	103.1	-169.3533
136.000000	103.1	-170.3688
140.000000	103.1	-171.4994
145.000000	103.1	-172.9661
150.000000	103.0	-174.3377
155.000000	103.0	-175.6353
160.000000	103.0	-176.8610
165.000000	102.9	-178.0157
170.000000	102.8	-179.1109
175.000000	102.8	179.8665
180.000000	102.7	178.8795
185.000000	102.7	177.9406
190.000000	102.6	177.0508
195.000000	102.5	176.2041
200.000000	102.4	175.4008
206.000000	102.4	174.4883
212.000000	102.3	173.6176
218.000000	102.2	172.7928
224.000000	102.1	172.0127
230.000000	102.0	171.2754
236.000000	101.9	170.5798
243.000000	101.8	169.8222
250.000000	101.7	169.1171
258.000000	101.5	168.3737
265.000000	101.4	167.7780
272.000000	101.3	167.2317
280.000000	101.2	166.6622
290.000000	101.0	166.0063
300.000000	100.8	165.4196
307.000000	100.7	165.0439
315.000000	100.6	164.6550
325.000000	100.4	164.2354
335.000000	100.2	163.8864
345.000000	100.1	163.6020
355.000000	99.9	163.3830
365.000000	99.7	163.2156
375.000000	99.6	163.1069
387.000000	99.4	163.0487
400.000000	99.2	163.0634
412.000000	99.0	163.1381
425.000000	98.8	163.2916
437.000000	98.6	163.4993
450.000000	98.4	163.7901
462.000000	98.3	164.1177
475.000000	98.1	164.5312
487.000000	97.9	164.9698
500.000000	97.8	165.5074
515.000000	97.6	166.1935
530.000000	97.4	166.9405
545.000000	97.2	167.7363
560.000000	97.1	168.5663
580.000000	96.9	169.7326
600.000000	96.7	170.9840
615.000000	96.5	171.9906
630.000000	96.4	173.0448
650.000000	96.2	174.5199
670.000000	96.1	176.0775
690.000000	96.0	177.7115
710.000000	95.8	179.4147
730.000000	95.7	-178.8197
750.000000	95.7	-176.9986
775.000000	95.6	-174.6490
800.000000	95.5	-172.2331
825.000000	95.5	-169.7589
850.000000	95.5	-167.2521
875.000000	95.6	-164.7260
900.000000	95.7	-162.2238
925.000000	95.8	-159.8029
950.000000	96.0	-157.4614
975.000000	96.1	-155.2196
1000.000000	96.4	-153.0892
1030.000000	96.6	-150.6432
1060.000000	97.0	-148.2678
1090.000000	97.4	-146.2092
1120.000000	97.8	-144.6291
1150.000000	98.2	-143.3548
1180.000000	98.6	-142.3128
1220.000000	99.2	-141.3075
1250.000000	99.6	-140.8734
1280.000000	100.1	-140.7355
1320.000000	100.6	-141.0310
1360.000000	101.2	-141.8639
1400.000000	101.7	-143.1801
1450.000000	102.2	-145.3383
1500.000000	102.7	-147.8086
1550.000000	103.0	-150.3037
1600.000000	103.3	-152.5814
1650.000000	103.5	-154.5941
1700.000000	103.7	-156.5873
1750.000000	104.0	-158.8379
1800.000000	104.2	-161.3271
1850.000000	104.3	-163.8992
1900.000000	104.4	-166.4654
1950.000000	104.4	-169.0007
2000.000000	104.4	-171.4958
2060.000000	104.4	-174.4172
2120.000000	104.3	-177.2075
2180.000000	104.1	-179.7828
2240.000000	103.9	177.9063
2300.000000	103.7	175.8606
2360.000000	103.4	174.1123
2430.000000	103.1	172.5327
2500.000000	102.7	171.4608
2580.000000	102.3	170.7548
2650.000000	102.0	170.5064
2720.000000	101.7	170.5481
2800.000000	101.4	170.9093
2900.000000	101.0	171.8102
3000.000000	100.6	173.1659
3070.000000	100.4	174.3408
3150.000000	100.2	175.8674
3250.000000	100.1	177.9940
3350.000000	100.0	-179.7117
3450.000000	99.9	-177.3356
3550.000000	100.0	-174.9482
3650.000000	100.1	-172.6052
3750.000000	100.3	-170.3664
3870.000000	100.6	-167.9267
4000.000000	101.1	-165.7650
4120.000000	101.7	-164.4166
4250.000000	102.4	-163.9337
4370.000000	103.1	-164.6888
4500.000000	103.9	-167.1519
4620.000000	104.5	-171.1416
4750.000000	105.0	-177.1911
4870.000000	105.1	176.2278
5000.000000	104.9	169.1147
5150.000000	104.2	162.3793
5300.000000	103.3	158.1096
5450.000000	102.2	156.3820
5600.000000	101.1	157.2319
5800.000000	99.9	164.1933
6000.000000	100.0	171.2072
6150.000000	100.0	172.8336
6300.000000	99.8	175.5086
6500.000000	99.8	-179.2850
6700.000000	100.2	-173.5490
6900.000000	100.9	-167.9234
7100.000000	102.2	-163.0068
7300.000000	104.1	-160.2011
7500.000000	106.5	-162.2448
7750.000000	109.2	-177.7486
8000.000000	109.8	153.9662
8250.000000	107.9	132.6322
8500.000000	105.1	126.2626
8750.000000	103.0	128.3780
9000.000000	102.0	133.4575
9250.000000	102.0	138.3538
9500.000000	103.1	139.5650
9750.000000	104.8	130.9463
10000.000000	105.3	108.3988
10300.000000	103.0	82.2068
10600.000000	98.1	86.2966
10900.000000	95.6	107.2911
11200.000000	95.6	105.6255
11500.000000	93.7	101.4972
11800.000000	91.3	107.3639
12200.000000	89.1	121.4615
12500.000000	88.3	133.1691
12800.000000	88.1	144.9670
13200.000000	88.7	160.1629
13600.000000	90.8	173.0319
14000.000000	94.3	178.2688
14500.000000	97.9	158.1642
15000.000000	96.9	121.8935
15500.000000	92.9	112.8083
16000.000000	90.3	118.5759
16500.000000	90.3	118.9238
17000.000000	90.5	101.3055
17500.000000	87.9	80.5491
18000.000000	83.1	80.5670
18500.000000	78.0	99.8815
19000.000000	75.4	121.0133
19500.000000	74.8	132.3813
20000.000000	74.1	137.6432
20600.000000	72.9	133.5655
21200.000000	71.5	73.3625
21800.000000	71.9	-125.9484
