* Measurement data measured by REW V5.20
* Source: ASIO MOTU M Series, In 1
* Format: 256k Log Swept Sine, 1 sweep at -12.0 dBFS with no timing reference
* Dated: 2022/10/11 21:40:26
* REW Settings:
*  C-weighting compensation: Off
*  Target level: 75.0 dB
* Note: 
* Measurement: LM-1 LC1
* Smoothing: 1/12 octave
* Frequency Step: 1/24 octave
* Start Frequency: 20.000 Hz
*
* Freq(Hz)	SPL(dB)	Phase(degrees)
20.000000	102.257	-131.7936
20.600000	102.384	-133.2209
21.200001	102.501	-134.5914
21.799999	102.612	-135.9122
22.400000	102.716	-137.1945
23.000000	102.815	-138.4583
23.600000	102.904	-139.7238
24.299999	102.990	-141.1619
25.000000	103.061	-142.4780
25.799999	103.145	-143.8680
26.500000	103.218	-145.0850
27.200001	103.278	-146.2695
28.000000	103.342	-147.5040
29.000000	103.429	-149.0162
30.000000	103.497	-150.5350
30.700001	103.537	-151.4934
31.500000	103.591	-152.5532
32.500000	103.653	-153.9305
33.500000	103.700	-155.2508
34.500000	103.744	-156.5006
35.500000	103.784	-157.7127
36.500000	103.816	-158.8961
37.500000	103.835	-160.0296
38.700001	103.848	-161.2622
40.000000	103.863	-162.5337
41.200001	103.870	-163.6663
42.500000	103.888	-164.7900
43.700001	103.919	-165.8703
45.000000	103.942	-167.0747
46.200001	103.953	-168.1097
47.500000	103.957	-169.1347
48.700001	103.953	-169.9939
50.000000	103.957	-170.8812
51.500000	103.953	-172.0193
53.000000	103.933	-173.1227
54.500000	103.914	-174.1589
56.000000	103.898	-175.1246
58.000000	103.881	-176.3518
60.000000	103.858	-177.5529
61.500000	103.836	-178.4207
63.000000	103.812	-179.2625
65.000000	103.776	179.6559
67.000000	103.736	178.6325
69.000000	103.693	177.6528
71.000000	103.649	176.7066
73.000000	103.604	175.7820
75.000000	103.555	174.9020
77.500000	103.492	173.8710
80.000000	103.426	172.8736
82.500000	103.356	171.9067
85.000000	103.288	170.9902
87.500000	103.222	170.1120
90.000000	103.155	169.2764
92.500000	103.081	168.4724
95.000000	103.002	167.7054
97.500000	102.922	166.9752
100.000000	102.844	166.2829
103.000000	102.752	165.4669
106.000000	102.657	164.6924
109.000000	102.561	163.9706
112.000000	102.466	163.2675
115.000000	102.370	162.5872
118.000000	102.272	161.9552
122.000000	102.142	161.1605
125.000000	102.043	160.5956
128.000000	101.944	160.0585
132.000000	101.810	159.3862
136.000000	101.677	158.7520
140.000000	101.543	158.1528
145.000000	101.373	157.4951
150.000000	101.203	156.8927
155.000000	101.033	156.3137
160.000000	100.859	155.8213
165.000000	100.681	155.3992
170.000000	100.499	155.0491
175.000000	100.313	154.7993
180.000000	100.122	154.7165
185.000000	99.939	154.8698
190.000000	99.782	155.2445
195.000000	99.671	155.6793
200.000000	99.609	156.0101
206.000000	99.573	156.0322
212.000000	99.523	155.6586
218.000000	99.438	155.1366
224.000000	99.319	154.6194
230.000000	99.179	154.1720
236.000000	99.026	153.8243
243.000000	98.843	153.5565
250.000000	98.658	153.3979
258.000000	98.448	153.3238
265.000000	98.271	153.3331
272.000000	98.097	153.3885
280.000000	97.903	153.5037
290.000000	97.668	153.7358
300.000000	97.443	154.0326
307.000000	97.292	154.2691
315.000000	97.124	154.5737
325.000000	96.922	154.9706
335.000000	96.724	155.3585
345.000000	96.527	155.7542
355.000000	96.331	156.1909
365.000000	96.135	156.6788
375.000000	95.943	157.2194
387.000000	95.720	157.9153
400.000000	95.484	158.7191
412.000000	95.274	159.5260
425.000000	95.049	160.4756
437.000000	94.847	161.4180
450.000000	94.636	162.5490
462.000000	94.460	163.6709
475.000000	94.294	164.8386
487.000000	94.153	165.7711
500.000000	93.997	166.6892
515.000000	93.801	167.7748
530.000000	93.595	168.9559
545.000000	93.387	170.2242
560.000000	93.181	171.5803
580.000000	92.913	173.5191
600.000000	92.653	175.5925
615.000000	92.464	177.2454
630.000000	92.281	178.9876
650.000000	92.049	-178.5374
670.000000	91.835	-175.8633
690.000000	91.647	-172.9845
710.000000	91.496	-169.9123
730.000000	91.395	-166.6888
750.000000	91.352	-163.4120
775.000000	91.376	-159.4262
800.000000	91.469	-155.5973
825.000000	91.643	-152.0717
850.000000	91.867	-149.0674
875.000000	92.102	-146.5641
900.000000	92.330	-144.4616
925.000000	92.543	-142.6777
950.000000	92.738	-141.1504
975.000000	92.909	-139.8573
1000.000000	93.048	-138.7717
1030.000000	93.157	-137.6274
1060.000000	93.195	-136.4169
1090.000000	93.183	-134.8429
1120.000000	93.174	-132.8148
1150.000000	93.206	-130.5043
1180.000000	93.285	-128.1453
1220.000000	93.443	-125.1816
1250.000000	93.581	-123.1400
1280.000000	93.723	-121.2182
1320.000000	93.910	-118.7813
1360.000000	94.096	-116.4333
1400.000000	94.283	-114.1468
1450.000000	94.519	-111.3649
1500.000000	94.759	-108.6377
1550.000000	95.007	-105.9423
1600.000000	95.269	-103.2867
1650.000000	95.542	-100.6700
1700.000000	95.829	-98.1112
1750.000000	96.133	-95.6313
1800.000000	96.457	-93.2482
1850.000000	96.798	-90.9774
1900.000000	97.157	-88.8390
1950.000000	97.531	-86.8496
2000.000000	97.920	-85.0189
2060.000000	98.405	-83.0588
2120.000000	98.908	-81.3822
2180.000000	99.429	-80.0438
2240.000000	99.962	-79.1136
2300.000000	100.491	-78.6625
2360.000000	100.996	-78.7009
2430.000000	101.536	-79.2920
2500.000000	102.015	-80.4214
2580.000000	102.459	-82.3454
2650.000000	102.721	-84.4366
2720.000000	102.852	-86.6288
2800.000000	102.850	-88.9137
2900.000000	102.660	-90.9900
3000.000000	102.343	-91.8863
3070.000000	102.092	-91.8191
3150.000000	101.801	-91.1612
3250.000000	101.448	-89.6154
3350.000000	101.119	-87.3415
3450.000000	100.836	-84.4217
3550.000000	100.617	-80.9912
3650.000000	100.470	-77.1890
3750.000000	100.401	-73.1370
3870.000000	100.421	-68.0933
4000.000000	100.569	-62.5861
4120.000000	100.815	-57.6131
4250.000000	101.195	-52.5092
4370.000000	101.643	-48.2079
4500.000000	102.219	-44.1665
4620.000000	102.814	-41.1644
4750.000000	103.493	-38.8597
4870.000000	104.114	-37.7067
5000.000000	104.727	-37.5414
5150.000000	105.277	-38.5862
5300.000000	105.583	-40.4158
5450.000000	105.621	-42.1537
5600.000000	105.437	-42.9470
5800.000000	105.020	-41.7515
6000.000000	104.636	-37.9762
6150.000000	104.480	-33.7955
6300.000000	104.506	-28.7696
6500.000000	104.964	-21.1869
6700.000000	106.116	-14.3246
6900.000000	107.840	-11.0514
7100.000000	109.866	-13.8618
7300.000000	111.398	-26.4070
7500.000000	111.403	-45.6202
7750.000000	109.158	-61.8044
8000.000000	106.049	-62.7992
8250.000000	103.525	-55.3466
8500.000000	101.939	-44.7398
8750.000000	101.200	-33.5313
9000.000000	101.201	-23.4452
9250.000000	101.813	-16.4702
9500.000000	102.672	-15.0734
9750.000000	103.103	-20.3215
10000.000000	102.521	-28.4423
10300.000000	100.521	-32.8579
10600.000000	97.992	-27.9277
10900.000000	95.853	-16.6696
11200.000000	94.525	-2.5539
11500.000000	94.137	11.9918
11800.000000	94.742	24.6147
12200.000000	96.679	32.1744
12500.000000	97.836	25.6891
12800.000000	97.560	11.9874
13200.000000	94.601	4.2027
13600.000000	90.700	21.8877
14000.000000	90.702	47.2540
14500.000000	94.960	55.1001
15000.000000	96.418	22.5452
15500.000000	93.589	-10.0095
16000.000000	89.251	-32.6965
16500.000000	83.111	-35.4840
17000.000000	76.210	-18.5886
17500.000000	71.001	1.1812
18000.000000	68.582	10.3974
18500.000000	67.458	-8.5793
19000.000000	64.858	-59.0245
19500.000000	61.766	-113.5614
20000.000000	62.276	-152.0710
20600.000000	62.711	178.2896
21200.000000	60.007	175.4692
21800.000000	56.491	-166.8905
