* Measurement data measured by REW V5.20
* Source: ASIO MOTU M Series, In 1
* Format: 256k Log Swept Sine, 1 sweep at -12.0 dBFS with no timing reference
* Dated: 2022/10/11 21:43:13
* REW Settings:
*  C-weighting compensation: Off
*  Target level: 75.0 dB
* Note: 
* Measurement: LM-1 RC1
* Smoothing: 1/12 octave
* Frequency Step: 1/24 octave
* Start Frequency: 20.000 Hz
*
* Freq(Hz)	SPL(dB)	Phase(degrees)
20.000000	100.888	-124.6461
20.600000	101.040	-126.0940
21.200001	101.183	-127.5049
21.799999	101.313	-128.8740
22.400000	101.433	-130.1800
23.000000	101.547	-131.4311
23.600000	101.656	-132.6497
24.299999	101.773	-134.0206
25.000000	101.885	-135.3293
25.799999	102.010	-136.8119
26.500000	102.107	-138.1172
27.200001	102.190	-139.3730
28.000000	102.277	-140.7183
29.000000	102.383	-142.3369
30.000000	102.482	-143.9279
30.700001	102.545	-145.0226
31.500000	102.611	-146.2427
32.500000	102.685	-147.6962
33.500000	102.753	-149.0572
34.500000	102.820	-150.3306
35.500000	102.886	-151.5691
36.500000	102.942	-152.7889
37.500000	102.986	-153.9380
38.700001	103.034	-155.2553
40.000000	103.076	-156.6210
41.200001	103.117	-157.8529
42.500000	103.151	-159.2128
43.700001	103.174	-160.3965
45.000000	103.197	-161.6051
46.200001	103.218	-162.6571
47.500000	103.239	-163.7510
48.700001	103.257	-164.7159
50.000000	103.275	-165.7903
51.500000	103.271	-167.0093
53.000000	103.263	-168.1110
54.500000	103.257	-169.1915
56.000000	103.249	-170.2412
58.000000	103.240	-171.6043
60.000000	103.225	-172.8895
61.500000	103.211	-173.7896
63.000000	103.195	-174.6740
65.000000	103.166	-175.8276
67.000000	103.134	-176.9313
69.000000	103.102	-177.9821
71.000000	103.067	-178.9829
73.000000	103.025	-179.9456
75.000000	102.981	179.1200
77.500000	102.926	177.9939
80.000000	102.866	176.9448
82.500000	102.799	175.9309
85.000000	102.733	174.9048
87.500000	102.681	173.9447
90.000000	102.631	173.0079
92.500000	102.534	172.1432
95.000000	102.427	171.4252
97.500000	102.330	170.6916
100.000000	102.237	169.9931
103.000000	102.114	169.2406
106.000000	101.987	168.6480
109.000000	101.869	168.2615
112.000000	101.775	168.0404
115.000000	101.717	167.7780
118.000000	101.679	167.3521
122.000000	101.615	166.5154
125.000000	101.538	165.8366
128.000000	101.438	165.2829
132.000000	101.286	164.8225
136.000000	101.154	164.6539
140.000000	101.076	164.6121
145.000000	101.031	164.3686
150.000000	101.003	163.8444
155.000000	100.964	163.0320
160.000000	100.886	162.0783
165.000000	100.779	161.2042
170.000000	100.657	160.4281
175.000000	100.528	159.7202
180.000000	100.392	159.0693
185.000000	100.251	158.4919
190.000000	100.108	157.9881
195.000000	99.963	157.5687
200.000000	99.817	157.2105
206.000000	99.643	156.8475
212.000000	99.473	156.5537
218.000000	99.304	156.3287
224.000000	99.139	156.1654
230.000000	98.979	156.0497
236.000000	98.824	155.9717
243.000000	98.650	155.9121
250.000000	98.480	155.8775
258.000000	98.287	155.8780
265.000000	98.119	155.9061
272.000000	97.950	155.9802
280.000000	97.757	156.1475
290.000000	97.522	156.4920
300.000000	97.307	156.9851
307.000000	97.178	157.3673
315.000000	97.048	157.7447
325.000000	96.894	158.0564
335.000000	96.726	158.2741
345.000000	96.542	158.5215
355.000000	96.352	158.8480
365.000000	96.163	159.2558
375.000000	95.977	159.7308
387.000000	95.758	160.3680
400.000000	95.530	161.1288
412.000000	95.326	161.8845
425.000000	95.111	162.7503
437.000000	94.919	163.5909
450.000000	94.717	164.5469
462.000000	94.536	165.4674
475.000000	94.346	166.5020
487.000000	94.177	167.4908
500.000000	93.998	168.5956
515.000000	93.799	169.9145
530.000000	93.607	171.2832
545.000000	93.423	172.6977
560.000000	93.246	174.1562
580.000000	93.023	176.1736
600.000000	92.814	178.2689
615.000000	92.669	179.8884
630.000000	92.532	-178.4514
650.000000	92.365	-176.1805
670.000000	92.216	-173.8479
690.000000	92.086	-171.4675
710.000000	91.974	-169.0528
730.000000	91.879	-166.6035
750.000000	91.800	-164.0809
775.000000	91.751	-160.7908
800.000000	91.769	-157.6772
825.000000	91.809	-154.8524
850.000000	91.853	-152.1915
875.000000	91.896	-149.6201
900.000000	91.940	-147.0222
925.000000	92.006	-144.3617
950.000000	92.105	-141.7391
975.000000	92.232	-139.2533
1000.000000	92.376	-136.9335
1030.000000	92.563	-134.3641
1060.000000	92.755	-132.0117
1090.000000	92.947	-129.8514
1120.000000	93.136	-127.8578
1150.000000	93.317	-126.0018
1180.000000	93.489	-124.2552
1220.000000	93.704	-122.0471
1250.000000	93.854	-120.4518
1280.000000	93.996	-118.8895
1320.000000	94.176	-116.8292
1360.000000	94.348	-114.7722
1400.000000	94.516	-112.7065
1450.000000	94.726	-110.1101
1500.000000	94.941	-107.4930
1550.000000	95.164	-104.8677
1600.000000	95.400	-102.2486
1650.000000	95.650	-99.6474
1700.000000	95.915	-97.0837
1750.000000	96.197	-94.5717
1800.000000	96.496	-92.1246
1850.000000	96.812	-89.7593
1900.000000	97.146	-87.4915
1950.000000	97.496	-85.3378
2000.000000	97.863	-83.3148
2060.000000	98.323	-81.0821
2120.000000	98.803	-79.0872
2180.000000	99.300	-77.3629
2240.000000	99.810	-75.9386
2300.000000	100.329	-74.8440
2360.000000	100.854	-74.1221
2430.000000	101.458	-73.8267
2500.000000	102.027	-74.1584
2580.000000	102.603	-75.2417
2650.000000	103.019	-76.6894
2720.000000	103.337	-78.4583
2800.000000	103.570	-80.6587
2900.000000	103.665	-83.2758
3000.000000	103.574	-85.2830
3070.000000	103.428	-86.1411
3150.000000	103.211	-86.4987
3250.000000	102.907	-86.0287
3350.000000	102.610	-84.6530
3450.000000	102.350	-82.5325
3550.000000	102.146	-79.8264
3650.000000	102.009	-76.6828
3750.000000	101.945	-73.2283
3870.000000	101.970	-68.8209
4000.000000	102.128	-63.9213
4120.000000	102.396	-59.4822
4250.000000	102.814	-54.9796
4370.000000	103.312	-51.3071
4500.000000	103.956	-48.1061
4620.000000	104.619	-46.1210
4750.000000	105.357	-45.2880
4870.000000	105.986	-45.8864
5000.000000	106.514	-47.9362
5150.000000	106.811	-51.4551
5300.000000	106.728	-54.9344
5450.000000	106.329	-57.0818
5600.000000	105.757	-57.2192
5800.000000	104.976	-54.2956
6000.000000	104.397	-48.6282
6150.000000	104.183	-43.2032
6300.000000	104.196	-37.1898
6500.000000	104.639	-28.8278
6700.000000	105.691	-21.2047
6900.000000	107.394	-16.3320
7100.000000	109.545	-17.4129
7300.000000	111.310	-28.7348
7500.000000	111.561	-48.3137
7750.000000	109.427	-66.3163
8000.000000	106.190	-68.1028
8250.000000	103.457	-60.3840
8500.000000	101.666	-48.9232
8750.000000	100.719	-36.3313
9000.000000	100.493	-24.0063
9250.000000	100.924	-13.2012
9500.000000	101.898	-5.6516
9750.000000	103.053	-3.5829
10000.000000	103.762	-7.8040
10300.000000	103.369	-15.9894
10600.000000	101.806	-18.8958
10900.000000	99.906	-13.7014
11200.000000	98.476	-2.7996
11500.000000	97.991	10.4102
11800.000000	98.623	22.6663
12200.000000	100.669	30.3545
12500.000000	101.813	25.2169
12800.000000	101.670	15.8174
13200.000000	100.004	10.7484
13600.000000	98.192	16.4141
14000.000000	97.741	27.3101
14500.000000	99.588	32.5229
15000.000000	100.796	14.4709
15500.000000	99.071	-10.6470
16000.000000	95.127	-23.6494
16500.000000	90.071	-19.4614
17000.000000	85.615	-9.3939
17500.000000	81.612	4.7409
18000.000000	78.209	21.4008
18500.000000	75.703	31.1671
19000.000000	72.353	45.6306
19500.000000	67.434	108.0869
20000.000000	68.215	172.9960
20600.000000	72.033	-165.1396
21200.000000	72.189	-170.9147
21800.000000	69.254	-164.1905
