* Measurement data measured by REW V5.20
* Source: ASIO MOTU M Series, In 1
* Format: 256k Log Swept Sine, 1 sweep at -12.0 dBFS with no timing reference
* Dated: 2022/07/16 17:39:50
* REW Settings:
*  C-weighting compensation: Off
*  Target level: 75.0 dB
* Note: 
* Measurement: Lypertek Levi RC1
* Smoothing: 1/12 octave
* Frequency Step: 1/24 octave
* Start Frequency: 20.000 Hz
*
* Freq(Hz)	SPL(dB)	Phase(degrees)
20.000000	95.933	67.5605
20.600000	96.090	65.5651
21.200001	96.196	63.8557
21.799999	96.305	62.5850
22.400000	96.461	61.5385
23.000000	96.664	60.3549
23.600000	96.864	58.7826
24.299999	97.015	56.6574
25.000000	97.074	54.8906
25.799999	97.155	53.6195
26.500000	97.295	52.4980
27.200001	97.423	50.9973
28.000000	97.502	49.2664
29.000000	97.582	47.4512
30.000000	97.665	45.6731
30.700001	97.716	44.4888
31.500000	97.781	43.1991
32.500000	97.864	41.6087
33.500000	97.944	40.0876
34.500000	98.018	38.6214
35.500000	98.081	37.2297
36.500000	98.135	35.9243
37.500000	98.180	34.6691
38.700001	98.225	33.2091
40.000000	98.266	31.6832
41.200001	98.300	30.3611
42.500000	98.349	28.9875
43.700001	98.387	27.6879
45.000000	98.408	26.3740
46.200001	98.419	25.2423
47.500000	98.421	24.0590
48.700001	98.409	23.0312
50.000000	98.408	22.0735
51.500000	98.437	20.8566
53.000000	98.447	19.5732
54.500000	98.451	18.4218
56.000000	98.450	17.3439
58.000000	98.435	16.0373
60.000000	98.418	14.8099
61.500000	98.402	13.9225
63.000000	98.386	13.0754
65.000000	98.364	11.9798
67.000000	98.334	10.9330
69.000000	98.297	9.9697
71.000000	98.261	9.0458
73.000000	98.223	8.1442
75.000000	98.183	7.2944
77.500000	98.129	6.2814
80.000000	98.071	5.3043
82.500000	98.017	4.3922
85.000000	97.958	3.5444
87.500000	97.876	2.8256
90.000000	97.796	2.2011
92.500000	97.745	1.4011
95.000000	97.685	0.5480
97.500000	97.618	-0.1332
100.000000	97.549	-0.7256
103.000000	97.467	-1.4778
106.000000	97.385	-2.1951
109.000000	97.300	-2.8381
112.000000	97.211	-3.4393
115.000000	97.124	-4.0122
118.000000	97.035	-4.5582
122.000000	96.916	-5.2483
125.000000	96.828	-5.7318
128.000000	96.739	-6.1625
132.000000	96.621	-6.7032
136.000000	96.501	-7.2122
140.000000	96.383	-7.6670
145.000000	96.236	-8.1768
150.000000	96.093	-8.6237
155.000000	95.942	-9.0165
160.000000	95.794	-9.3754
165.000000	95.648	-9.7242
170.000000	95.501	-9.9934
175.000000	95.349	-10.2439
180.000000	95.195	-10.4689
185.000000	95.040	-10.6073
190.000000	94.882	-10.6602
195.000000	94.718	-10.6444
200.000000	94.549	-10.4376
206.000000	94.366	-9.8378
212.000000	94.263	-8.8267
218.000000	94.322	-7.9477
224.000000	94.425	-8.1902
230.000000	94.418	-9.2673
236.000000	94.307	-10.3108
243.000000	94.121	-11.0225
250.000000	93.933	-11.4155
258.000000	93.724	-11.6395
265.000000	93.555	-11.7297
272.000000	93.396	-11.7332
280.000000	93.222	-11.6904
290.000000	93.018	-11.6782
300.000000	92.827	-11.6475
307.000000	92.695	-11.5986
315.000000	92.547	-11.5557
325.000000	92.370	-11.4886
335.000000	92.201	-11.4148
345.000000	92.031	-11.3516
355.000000	91.860	-11.1697
365.000000	91.703	-10.7985
375.000000	91.562	-10.2493
387.000000	91.402	-9.3682
400.000000	91.223	-8.3113
412.000000	91.065	-7.2946
425.000000	90.901	-6.1537
437.000000	90.760	-5.0812
450.000000	90.617	-3.9088
462.000000	90.489	-2.8151
475.000000	90.356	-1.6313
487.000000	90.235	-0.5310
500.000000	90.107	0.6812
515.000000	89.966	2.1241
530.000000	89.831	3.5881
545.000000	89.702	5.0415
560.000000	89.579	6.4678
580.000000	89.428	8.3521
600.000000	89.289	10.2728
615.000000	89.191	11.7307
630.000000	89.100	13.2085
650.000000	88.990	15.1943
670.000000	88.888	17.1207
690.000000	88.795	19.0073
710.000000	88.715	20.8940
730.000000	88.647	22.7936
750.000000	88.591	24.7017
775.000000	88.541	27.1028
800.000000	88.512	29.4821
825.000000	88.502	31.7607
850.000000	88.511	33.9433
875.000000	88.547	36.0602
900.000000	88.603	38.1158
925.000000	88.680	40.0948
950.000000	88.777	41.9810
975.000000	88.894	43.7241
1000.000000	89.024	45.2661
1030.000000	89.192	46.8368
1060.000000	89.373	48.1563
1090.000000	89.559	49.2702
1120.000000	89.745	50.1879
1150.000000	89.926	50.9314
1180.000000	90.100	51.5155
1220.000000	90.317	51.9918
1250.000000	90.466	52.1347
1280.000000	90.605	52.1666
1320.000000	90.780	52.1275
1360.000000	90.944	52.0296
1400.000000	91.101	51.8905
1450.000000	91.296	51.6250
1500.000000	91.486	51.1412
1550.000000	91.678	50.4285
1600.000000	91.883	49.6151
1650.000000	92.101	48.7116
1700.000000	92.330	47.6776
1750.000000	92.568	46.4918
1800.000000	92.813	45.0573
1850.000000	93.051	43.3080
1900.000000	93.287	41.3841
1950.000000	93.530	39.4567
2000.000000	93.800	37.5634
2060.000000	94.181	35.1687
2120.000000	94.609	32.4602
2180.000000	95.052	29.8386
2240.000000	95.533	28.2812
2300.000000	96.031	27.5864
2360.000000	96.524	26.8849
2430.000000	97.097	25.6848
2500.000000	97.664	23.9958
2580.000000	98.289	21.4398
2650.000000	98.801	18.6848
2720.000000	99.265	15.5581
2800.000000	99.693	11.5745
2900.000000	100.013	6.0826
3000.000000	100.081	0.5102
3070.000000	99.987	-3.1285
3150.000000	99.759	-6.7889
3250.000000	99.340	-10.3982
3350.000000	98.830	-12.8363
3450.000000	98.287	-14.1385
3550.000000	97.755	-14.4532
3650.000000	97.260	-13.9824
3750.000000	96.807	-12.9020
3870.000000	96.320	-10.8959
4000.000000	95.872	-7.7944
4120.000000	95.547	-3.9203
4250.000000	95.289	0.9722
4370.000000	95.131	5.8014
4500.000000	95.041	11.2671
4620.000000	95.030	16.5226
4750.000000	95.111	22.3851
4870.000000	95.287	27.5389
5000.000000	95.572	32.1734
5150.000000	96.030	36.6145
5300.000000	96.656	40.6630
5450.000000	97.478	44.1880
5600.000000	98.503	46.8050
5800.000000	100.172	48.0587
6000.000000	102.068	44.8904
6150.000000	103.406	38.1471
6300.000000	104.413	27.8030
6500.000000	104.971	10.8488
6700.000000	104.577	-5.7303
6900.000000	103.464	-18.2783
7100.000000	102.099	-25.8114
7300.000000	100.897	-30.0525
7500.000000	100.039	-33.2781
7750.000000	99.492	-37.4722
8000.000000	99.455	-43.4609
8250.000000	99.672	-53.4436
8500.000000	99.635	-68.6864
8750.000000	98.797	-86.7311
9000.000000	97.004	-101.2576
9250.000000	94.602	-108.5353
9500.000000	92.055	-110.0354
9750.000000	89.680	-107.9370
10000.000000	87.587	-103.6815
10300.000000	85.453	-96.9058
10600.000000	83.689	-89.0894
10900.000000	82.247	-80.6926
11200.000000	81.078	-71.9750
11500.000000	80.158	-63.0807
11800.000000	79.478	-54.1490
12200.000000	78.942	-42.3490
12500.000000	78.844	-33.6859
12800.000000	79.055	-25.4009
13200.000000	79.937	-15.9158
13600.000000	81.791	-10.5201
14000.000000	84.817	-12.6693
14500.000000	88.470	-39.0609
15000.000000	88.041	-88.9686
15500.000000	83.485	-116.1794
16000.000000	78.469	-121.5333
16500.000000	74.973	-119.3639
17000.000000	72.917	-114.8331
17500.000000	71.995	-111.4133
18000.000000	72.202	-111.5719
18500.000000	73.644	-119.0118
19000.000000	75.653	-142.1676
19500.000000	76.192	173.0936
20000.000000	73.872	124.4808
20600.000000	68.453	81.5784
21200.000000	62.579	39.8257
21800.000000	57.694	-9.2394
