* Measurement data measured by REW V5.20
* Source: ASIO MOTU M Series, In 1
* Format: 256k Log Swept Sine, 1 sweep at -12.0 dBFS with no timing reference
* Dated: 2022/05/01 11:51:32
* REW Settings:
*  C-weighting compensation: Off
*  Target level: 75.0 dB
* Note: 
* Measurement: MD CHU RC1
* Smoothing: 1/12 octave
* Frequency Step: 1/24 octave
* Start Frequency: 20.000 Hz
*
* Freq(Hz)	SPL(dB)	Phase(degrees)
20.000000	100.029	-151.8325
20.600000	100.063	-153.1558
21.200001	100.100	-154.4145
21.799999	100.133	-155.6911
22.400000	100.149	-156.9542
23.000000	100.149	-158.0956
23.600000	100.152	-159.1317
24.299999	100.156	-160.3576
25.000000	100.137	-161.5657
25.799999	100.100	-162.7162
26.500000	100.078	-163.6099
27.200001	100.052	-164.4545
28.000000	100.026	-165.1492
29.000000	100.078	-165.8603
30.000000	100.172	-167.0965
30.700001	100.209	-168.1373
31.500000	100.228	-169.2990
32.500000	100.228	-170.7093
33.500000	100.199	-172.0015
34.500000	100.156	-173.1366
35.500000	100.104	-174.1861
36.500000	100.041	-175.0718
37.500000	100.003	-175.8145
38.700001	99.984	-176.9834
40.000000	99.912	-178.4016
41.200001	99.824	-179.4239
42.500000	99.755	179.7172
43.700001	99.715	178.9539
45.000000	99.673	178.1511
46.200001	99.628	177.4532
47.500000	99.570	176.7569
48.700001	99.509	176.1779
50.000000	99.447	175.5002
51.500000	99.355	174.6475
53.000000	99.261	173.8892
54.500000	99.176	173.1733
56.000000	99.093	172.5646
58.000000	98.999	171.8358
60.000000	98.898	171.1234
61.500000	98.818	170.6442
63.000000	98.738	170.2335
65.000000	98.635	169.7870
67.000000	98.543	169.3213
69.000000	98.435	168.7608
71.000000	98.322	168.2349
73.000000	98.202	167.8353
75.000000	98.092	167.4680
77.500000	97.962	166.8732
80.000000	97.840	166.3960
82.500000	97.697	166.2365
85.000000	97.540	165.9632
87.500000	97.426	164.4408
90.000000	97.243	162.5076
92.500000	97.088	163.3257
95.000000	97.084	164.5386
97.500000	96.968	164.9697
100.000000	96.801	164.9422
103.000000	96.618	164.9412
106.000000	96.398	165.2392
109.000000	96.121	165.7508
112.000000	95.840	167.0833
115.000000	95.672	169.7061
118.000000	95.779	173.0869
122.000000	96.394	175.4268
125.000000	96.789	174.2407
128.000000	96.937	172.1715
132.000000	96.892	170.0006
136.000000	96.755	168.7780
140.000000	96.605	168.1321
145.000000	96.425	167.7644
150.000000	96.272	167.6090
155.000000	96.151	167.5282
160.000000	96.020	167.5550
165.000000	95.894	167.6860
170.000000	95.789	167.8560
175.000000	95.688	168.0262
180.000000	95.592	168.2277
185.000000	95.504	168.4660
190.000000	95.421	168.7218
195.000000	95.341	169.0016
200.000000	95.265	169.2888
206.000000	95.179	169.6682
212.000000	95.098	170.0544
218.000000	95.021	170.4647
224.000000	94.947	170.9061
230.000000	94.883	171.3853
236.000000	94.835	171.8607
243.000000	94.793	172.3229
250.000000	94.748	172.6848
258.000000	94.687	173.0786
265.000000	94.631	173.4625
272.000000	94.577	173.8706
280.000000	94.519	174.3494
290.000000	94.453	174.9570
300.000000	94.392	175.5684
307.000000	94.353	175.9908
315.000000	94.312	176.4738
325.000000	94.263	177.0809
335.000000	94.219	177.6761
345.000000	94.179	178.2699
355.000000	94.140	178.8624
365.000000	94.104	179.4500
375.000000	94.071	-179.9685
387.000000	94.036	-179.2763
400.000000	94.002	-178.5298
412.000000	93.973	-177.8516
425.000000	93.945	-177.1219
437.000000	93.922	-176.4475
450.000000	93.900	-175.7211
462.000000	93.881	-175.0637
475.000000	93.864	-174.3524
487.000000	93.850	-173.6986
500.000000	93.837	-172.9899
515.000000	93.825	-172.1765
530.000000	93.816	-171.3633
545.000000	93.809	-170.5540
560.000000	93.805	-169.7393
580.000000	93.804	-168.6469
600.000000	93.807	-167.5522
615.000000	93.813	-166.7295
630.000000	93.822	-165.9021
650.000000	93.838	-164.7878
670.000000	93.859	-163.6700
690.000000	93.887	-162.5431
710.000000	93.922	-161.4023
730.000000	93.963	-160.2515
750.000000	94.012	-159.0952
775.000000	94.087	-157.6422
800.000000	94.178	-156.1900
825.000000	94.286	-154.7619
850.000000	94.414	-153.3794
875.000000	94.565	-152.0967
900.000000	94.737	-151.0526
925.000000	94.883	-150.4807
950.000000	94.888	-149.8534
975.000000	94.897	-147.7317
1000.000000	95.151	-145.4908
1030.000000	95.519	-144.1120
1060.000000	95.836	-143.3147
1090.000000	96.125	-142.7208
1120.000000	96.398	-142.2781
1150.000000	96.657	-141.9703
1180.000000	96.901	-141.7749
1220.000000	97.203	-141.6469
1250.000000	97.413	-141.6213
1280.000000	97.610	-141.6331
1320.000000	97.855	-141.6831
1360.000000	98.084	-141.7484
1400.000000	98.299	-141.8155
1450.000000	98.556	-141.8890
1500.000000	98.804	-141.9520
1550.000000	99.048	-142.0118
1600.000000	99.290	-142.0754
1650.000000	99.531	-142.1552
1700.000000	99.775	-142.2609
1750.000000	100.021	-142.4003
1800.000000	100.272	-142.5883
1850.000000	100.528	-142.8468
1900.000000	100.786	-143.1987
1950.000000	101.044	-143.6468
2000.000000	101.301	-144.1858
2060.000000	101.608	-144.9566
2120.000000	101.911	-145.8735
2180.000000	102.210	-146.9504
2240.000000	102.502	-148.2169
2300.000000	102.778	-149.6933
2360.000000	103.028	-151.3528
2430.000000	103.284	-153.4527
2500.000000	103.500	-155.6704
2580.000000	103.703	-158.3173
2650.000000	103.840	-160.7294
2720.000000	103.931	-163.1964
2800.000000	103.977	-165.9926
2900.000000	103.957	-169.3184
3000.000000	103.865	-172.3492
3070.000000	103.766	-174.2637
3150.000000	103.628	-176.2316
3250.000000	103.424	-178.3457
3350.000000	103.199	179.9424
3450.000000	102.967	178.6219
3550.000000	102.740	177.6590
3650.000000	102.528	177.0174
3750.000000	102.341	176.6489
3870.000000	102.162	176.4324
4000.000000	102.018	176.2833
4120.000000	101.913	176.1648
4250.000000	101.824	176.0850
4370.000000	101.768	176.0400
4500.000000	101.734	175.9716
4620.000000	101.724	175.8644
4750.000000	101.734	175.6856
4870.000000	101.764	175.4337
5000.000000	101.817	175.0118
5150.000000	101.894	174.2543
5300.000000	101.966	173.1653
5450.000000	102.011	171.7908
5600.000000	102.016	170.2438
5800.000000	101.953	168.1403
6000.000000	101.825	166.2656
6150.000000	101.708	165.1345
6300.000000	101.600	164.2548
6500.000000	101.499	163.2826
6700.000000	101.446	162.4423
6900.000000	101.483	161.6740
7100.000000	101.650	160.5752
7300.000000	101.946	158.5414
7500.000000	102.318	154.9324
7750.000000	102.717	147.2802
8000.000000	102.691	135.9218
8250.000000	101.893	123.1328
8500.000000	100.301	112.7657
8750.000000	98.214	107.0283
9000.000000	95.993	105.7136
9250.000000	93.868	107.6996
9500.000000	91.927	112.0173
9750.000000	90.176	118.1241
10000.000000	88.594	125.9203
10300.000000	86.932	137.9885
10600.000000	85.786	153.6876
10900.000000	85.822	171.1498
11200.000000	87.064	-175.7532
11500.000000	88.337	-170.7294
11800.000000	88.954	-169.8819
12200.000000	89.123	-167.1679
12500.000000	89.277	-162.8021
12800.000000	89.716	-157.4429
13200.000000	90.922	-150.5151
13600.000000	92.949	-146.2078
14000.000000	95.578	-148.4586
14500.000000	98.236	-167.9023
15000.000000	98.192	160.4427
15500.000000	95.796	138.2020
16000.000000	92.832	125.9426
16500.000000	89.749	118.0055
17000.000000	86.279	115.9116
17500.000000	82.681	120.9488
18000.000000	79.486	130.7006
18500.000000	76.905	142.2611
19000.000000	74.782	154.4746
19500.000000	72.943	167.5296
20000.000000	71.379	-178.2808
20600.000000	70.015	-160.1956
21200.000000	69.350	-143.3445
21800.000000	69.157	-131.8921
