* Measurement data measured by REW V5.20
* Source: ASIO hdspfire, Analog 2 (1)
* Format: 256k Log Swept Sine, 1 sweep at -12.0 dBFS using a loopback as a timing reference
* Dated: 2022/01/25 15:06:03
* REW Settings:
*  C-weighting compensation: Off
*  Target level: 75.0 dB
* Note: Delay 0.0055 ms (1.9 mm, 0.07 in)  relative to Loopback from 1: Analog 1 (1) to 1: Analog 1 (1) with no timing offset
* Measurement: RAI PENTA L
* Smoothing: 1/12 octave
* Frequency Step: 1/24 octave
* Start Frequency: 20.000 Hz
*
* Freq(Hz)	SPL(dB)	Phase(degrees)
20.000000	96.7	-65.1071
20.600000	97.0	-67.6100
21.200001	97.2	-69.9791
21.799999	97.5	-72.2545
22.400000	97.7	-74.4962
23.000000	97.9	-76.6655
23.600000	98.1	-78.6972
24.299999	98.4	-80.9368
25.000000	98.6	-83.1526
25.799999	98.8	-85.6361
26.500000	99.0	-87.7034
27.200001	99.2	-89.7067
28.000000	99.4	-91.9297
29.000000	99.6	-94.5439
30.000000	99.8	-97.0375
30.700001	100.0	-98.7335
31.500000	100.1	-100.6183
32.500000	100.3	-102.8928
33.500000	100.5	-105.0297
34.500000	100.6	-107.0801
35.500000	100.8	-109.1055
36.500000	100.9	-111.0407
37.500000	101.0	-112.8727
38.700001	101.2	-114.9766
40.000000	101.3	-117.1290
41.200001	101.4	-119.1136
42.500000	101.5	-121.1398
43.700001	101.6	-122.9030
45.000000	101.7	-124.7449
46.200001	101.8	-126.3333
47.500000	101.9	-127.9972
48.700001	102.0	-129.5543
50.000000	102.0	-131.1732
51.500000	102.1	-132.9664
53.000000	102.2	-134.6841
54.500000	102.3	-136.2993
56.000000	102.3	-137.8160
58.000000	102.4	-139.7793
60.000000	102.4	-141.6725
61.500000	102.5	-143.0503
63.000000	102.5	-144.3949
65.000000	102.6	-146.0369
67.000000	102.6	-147.5837
69.000000	102.6	-149.0889
71.000000	102.7	-150.5602
73.000000	102.7	-151.9866
75.000000	102.7	-153.3457
77.500000	102.7	-154.9595
80.000000	102.8	-156.4933
82.500000	102.8	-157.9495
85.000000	102.8	-159.3848
87.500000	102.8	-160.8506
90.000000	102.8	-162.3032
92.500000	102.8	-163.4809
95.000000	102.8	-164.5342
97.500000	102.8	-165.6505
100.000000	102.7	-166.7781
103.000000	102.7	-168.0669
106.000000	102.7	-169.2927
109.000000	102.7	-170.4676
112.000000	102.7	-171.5851
115.000000	102.6	-172.6786
118.000000	102.6	-173.7436
122.000000	102.6	-175.0660
125.000000	102.5	-176.0067
128.000000	102.5	-176.9525
132.000000	102.4	-178.1644
136.000000	102.4	-179.2910
140.000000	102.3	179.6295
145.000000	102.2	178.3613
150.000000	102.1	177.1577
155.000000	102.1	176.0236
160.000000	102.0	174.9912
165.000000	101.9	173.9832
170.000000	101.8	173.0744
175.000000	101.6	172.2990
180.000000	101.5	171.6918
185.000000	101.4	171.2776
190.000000	101.3	171.0399
195.000000	101.3	170.8380
200.000000	101.3	170.5145
206.000000	101.3	169.8821
212.000000	101.3	169.0590
218.000000	101.2	168.1688
224.000000	101.2	167.2489
230.000000	101.1	166.3648
236.000000	101.0	165.5795
243.000000	100.9	164.7526
250.000000	100.8	164.0062
258.000000	100.7	163.2475
265.000000	100.6	162.6378
272.000000	100.5	162.0756
280.000000	100.4	161.4918
290.000000	100.3	160.8268
300.000000	100.1	160.2237
307.000000	100.0	159.8301
315.000000	99.9	159.4004
325.000000	99.8	158.8933
335.000000	99.7	158.4080
345.000000	99.6	157.8856
355.000000	99.5	157.2103
365.000000	99.5	156.3054
375.000000	99.3	155.1678
387.000000	99.1	153.6897
400.000000	98.7	152.7090
412.000000	98.3	152.9751
425.000000	97.9	154.1719
437.000000	97.7	155.4007
450.000000	97.6	156.5002
462.000000	97.5	157.2953
475.000000	97.4	157.9869
487.000000	97.4	158.5361
500.000000	97.3	159.0863
515.000000	97.2	159.6924
530.000000	97.1	160.3069
545.000000	97.0	160.9508
560.000000	97.0	161.6268
580.000000	96.9	162.5881
600.000000	96.8	163.6069
615.000000	96.8	164.3757
630.000000	96.7	165.1242
650.000000	96.7	166.0945
670.000000	96.7	167.0720
690.000000	96.7	168.0863
710.000000	96.6	169.1597
730.000000	96.6	170.2960
750.000000	96.7	171.4810
775.000000	96.7	173.0142
800.000000	96.8	174.6005
825.000000	96.9	176.2168
850.000000	97.0	177.8466
875.000000	97.2	179.4672
900.000000	97.4	-178.9496
925.000000	97.6	-177.4255
950.000000	97.8	-175.9896
975.000000	98.1	-174.6639
1000.000000	98.4	-173.4696
1030.000000	98.8	-172.2308
1060.000000	99.2	-171.2136
1090.000000	99.6	-170.4200
1120.000000	100.1	-169.8408
1150.000000	100.5	-169.4594
1180.000000	101.0	-169.2640
1220.000000	101.6	-169.2709
1250.000000	102.1	-169.4752
1280.000000	102.6	-169.8588
1320.000000	103.2	-170.6717
1360.000000	103.9	-171.8768
1400.000000	104.6	-173.5378
1450.000000	105.4	-176.3090
1500.000000	106.1	-179.8250
1550.000000	106.8	176.0221
1600.000000	107.3	171.4017
1650.000000	107.8	166.5091
1700.000000	108.1	161.5364
1750.000000	108.3	156.6528
1800.000000	108.4	152.0099
1850.000000	108.4	147.7392
1900.000000	108.3	143.9431
1950.000000	108.2	140.6829
2000.000000	108.0	137.9774
2060.000000	107.8	135.4392
2120.000000	107.5	133.6128
2180.000000	107.3	132.4061
2240.000000	107.1	131.7182
2300.000000	107.0	131.4449
2360.000000	106.9	131.4890
2430.000000	106.9	131.7993
2500.000000	107.0	132.1927
2580.000000	107.2	132.4019
2650.000000	107.5	131.9982
2720.000000	107.9	130.6989
2800.000000	108.3	127.9420
2900.000000	108.5	123.1460
3000.000000	108.5	118.1706
3070.000000	108.3	115.1277
3150.000000	108.1	112.2148
3250.000000	107.7	109.3179
3350.000000	107.3	107.1205
3450.000000	106.8	105.5876
3550.000000	106.3	104.7436
3650.000000	105.9	104.6102
3750.000000	105.4	105.1537
3870.000000	104.9	106.5726
4000.000000	104.5	108.7914
4120.000000	104.2	111.1314
4250.000000	104.0	113.5036
4370.000000	104.0	115.0463
4500.000000	104.0	115.5745
4620.000000	103.8	115.0721
4750.000000	103.3	114.3627
4870.000000	102.7	114.8026
5000.000000	101.8	117.4120
5150.000000	100.9	123.1938
5300.000000	100.3	131.0377
5450.000000	100.0	139.8802
5600.000000	100.1	148.9500
5800.000000	100.6	160.5728
6000.000000	101.7	170.9048
6150.000000	102.9	177.2537
6300.000000	104.4	-178.2705
6500.000000	106.7	-176.9059
6700.000000	108.7	176.9221
6900.000000	109.7	164.1373
7100.000000	109.6	151.3991
7300.000000	108.8	143.7968
7500.000000	108.3	140.1707
7750.000000	108.2	135.0766
8000.000000	108.3	122.6427
8250.000000	107.1	104.2484
8500.000000	104.2	91.4244
8750.000000	100.5	89.7905
9000.000000	96.7	96.1182
9250.000000	93.5	106.7207
9500.000000	90.8	119.7164
9750.000000	88.5	134.1744
10000.000000	86.6	149.5140
10300.000000	84.9	168.6245
10600.000000	83.5	-171.7634
10900.000000	82.5	-151.8574
11200.000000	81.9	-131.8622
11500.000000	81.6	-111.9435
11800.000000	81.7	-92.2109
12200.000000	82.7	-67.0793
12500.000000	84.0	-50.3156
12800.000000	85.8	-36.1004
13200.000000	88.9	-23.4131
13600.000000	92.1	-25.0433
14000.000000	93.1	-45.7620
14500.000000	89.3	-50.7263
15000.000000	87.5	-14.4932
15500.000000	90.8	-7.1432
16000.000000	91.9	-31.5294
16500.000000	89.0	-54.1244
17000.000000	83.3	-48.2408
17500.000000	77.6	-25.2072
18000.000000	73.7	2.8654
18500.000000	71.6	29.6730
19000.000000	70.4	51.3947
19500.000000	69.1	71.2933
20000.000000	67.9	95.7861
20600.000000	68.9	124.4991
21200.000000	73.2	139.6519
21800.000000	78.2	137.7945
