* Measurement data measured by REW V5.20
* Source: ASIO hdspfire, Analog 2 (1)
* Format: 256k Log Swept Sine, 1 sweep at -12.0 dBFS using a loopback as a timing reference
* Dated: 2021/12/10 10:44:54
* REW Settings:
*  C-weighting compensation: Off
*  Target level: 75.0 dB
* Note: Delay 0.0000 ms (0 mm, 0 in)  relative to Loopback from 1: Analog 1 (1) to 2: Analog 2 (1) with no timing offset
* Measurement: MD KATO S R
* Smoothing: None
* Frequency Step: 1/24 octave
* Start Frequency: 20.000 Hz
*
* Freq(Hz)	SPL(dB)	Phase(degrees)
20.000000	94.7	-93.2480
20.600000	94.8	-95.2922
21.200001	95.0	-96.9507
21.799999	95.1	-98.6398
22.400000	95.3	-100.4875
23.000000	95.5	-102.3431
23.600000	95.6	-104.1114
24.299999	95.7	-105.9774
25.000000	95.9	-107.5659
25.799999	96.0	-109.4899
26.500000	96.2	-111.4650
27.200001	96.2	-113.1443
28.000000	96.4	-114.7745
29.000000	96.5	-117.4467
30.000000	96.5	-119.0840
30.700001	96.6	-119.8468
31.500000	96.8	-121.6654
32.500000	96.8	-123.6936
33.500000	96.9	-125.0930
34.500000	97.0	-127.1057
35.500000	97.1	-128.1761
36.500000	97.3	-129.7121
37.500000	97.4	-132.0278
38.700001	97.4	-133.0555
40.000000	97.5	-135.2241
41.200001	97.5	-136.4203
42.500000	97.6	-138.4827
43.700001	97.6	-139.7245
45.000000	97.7	-141.7078
46.200001	97.7	-142.4944
47.500000	97.8	-143.9373
48.700001	97.8	-145.0527
50.000000	97.9	-146.3781
51.500000	97.9	-147.4296
53.000000	97.9	-148.8862
54.500000	98.0	-149.8547
56.000000	98.0	-151.5022
58.000000	98.0	-152.8843
60.000000	98.0	-154.2900
61.500000	98.0	-155.3831
63.000000	98.0	-156.6120
65.000000	98.0	-157.7134
67.000000	98.0	-158.7641
69.000000	98.0	-160.0040
71.000000	98.0	-161.0914
73.000000	98.0	-162.2565
75.000000	98.0	-163.2528
77.500000	98.0	-164.2203
80.000000	97.9	-165.0317
82.500000	97.8	-166.6555
85.000000	97.8	-167.7380
87.500000	97.8	-167.3588
90.000000	97.2	-163.7347
92.500000	97.6	-169.7015
95.000000	97.5	-171.1024
97.500000	97.6	-172.1008
100.000000	97.6	-172.2259
103.000000	97.5	-173.2226
106.000000	97.4	-174.1785
109.000000	97.3	-174.5731
112.000000	97.2	-175.2230
115.000000	97.2	-175.9935
118.000000	97.1	-176.1884
122.000000	96.9	-177.0302
125.000000	96.8	-176.9638
128.000000	96.8	-176.7220
132.000000	96.7	-176.9891
136.000000	96.8	-176.8063
140.000000	96.8	-177.3288
145.000000	96.9	-177.8131
150.000000	96.8	-178.8311
155.000000	96.8	-179.3097
160.000000	96.7	179.7691
165.000000	96.6	179.1556
170.000000	96.5	178.8278
175.000000	96.4	178.3285
180.000000	96.4	178.0837
185.000000	96.3	177.7266
190.000000	96.2	177.4915
195.000000	96.1	177.3319
200.000000	96.0	177.1468
206.000000	95.9	176.9937
212.000000	95.9	176.9476
218.000000	95.7	176.7691
224.000000	95.7	176.8354
230.000000	95.6	176.8359
236.000000	95.5	176.8126
243.000000	95.4	176.8622
250.000000	95.3	176.9557
258.000000	95.3	177.1041
265.000000	95.2	177.2749
272.000000	95.1	177.3855
280.000000	95.0	177.6038
290.000000	94.9	177.8712
300.000000	94.9	178.3402
307.000000	94.8	178.4338
315.000000	94.7	178.7277
325.000000	94.6	179.0696
335.000000	94.6	179.5737
345.000000	94.5	179.9976
355.000000	94.4	-179.5433
365.000000	94.4	-179.1453
375.000000	94.3	-178.7252
387.000000	94.3	-178.2127
400.000000	94.2	-177.4213
412.000000	94.2	-177.1462
425.000000	94.1	-176.5920
437.000000	94.0	-176.0402
450.000000	94.0	-175.4459
462.000000	93.9	-174.9004
475.000000	93.9	-174.2851
487.000000	93.8	-173.7179
500.000000	93.7	-173.2836
515.000000	93.7	-172.3016
530.000000	93.6	-171.3887
545.000000	93.6	-170.3903
560.000000	93.5	-169.3025
580.000000	93.5	-167.8525
600.000000	93.6	-166.5270
615.000000	93.5	-165.4971
630.000000	93.5	-164.5530
650.000000	93.5	-163.1432
670.000000	93.5	-162.0963
690.000000	93.6	-160.8647
710.000000	93.6	-159.6073
730.000000	93.6	-158.3511
750.000000	93.7	-157.0740
775.000000	93.7	-155.4490
800.000000	93.7	-153.5239
825.000000	93.9	-152.1317
850.000000	94.0	-150.5948
875.000000	94.1	-148.8281
900.000000	94.3	-147.3402
925.000000	94.4	-145.6849
950.000000	94.6	-144.3177
975.000000	94.8	-142.8846
1000.000000	95.1	-141.4402
1030.000000	95.4	-140.4389
1060.000000	95.7	-139.3933
1090.000000	95.9	-138.5679
1120.000000	96.2	-137.9438
1150.000000	96.5	-137.4017
1180.000000	96.8	-137.1783
1220.000000	97.1	-136.9309
1250.000000	97.4	-136.8978
1280.000000	97.6	-136.8299
1320.000000	97.9	-136.8699
1360.000000	98.1	-136.9734
1400.000000	98.4	-137.0573
1450.000000	98.7	-137.2297
1500.000000	98.9	-137.4613
1550.000000	99.2	-137.6005
1600.000000	99.5	-137.6652
1650.000000	99.7	-137.8641
1700.000000	100.0	-138.1055
1750.000000	100.2	-138.2676
1800.000000	100.5	-138.5492
1850.000000	100.8	-138.7935
1900.000000	101.0	-139.2853
1950.000000	101.3	-139.7480
2000.000000	101.6	-140.3027
2060.000000	101.9	-141.2537
2120.000000	102.2	-142.2961
2180.000000	102.5	-143.5207
2240.000000	102.8	-144.8961
2300.000000	103.1	-146.5040
2360.000000	103.3	-148.1560
2430.000000	103.6	-150.3190
2500.000000	103.8	-152.6346
2580.000000	103.9	-155.3848
2650.000000	104.1	-157.8354
2720.000000	104.1	-160.2901
2800.000000	104.2	-163.0026
2900.000000	104.1	-166.1802
3000.000000	104.0	-169.0635
3070.000000	103.9	-170.8746
3150.000000	103.8	-172.7042
3250.000000	103.6	-174.6385
3350.000000	103.3	-176.2068
3450.000000	103.1	-177.4227
3550.000000	102.9	-178.3966
3650.000000	102.7	-179.1310
3750.000000	102.6	-179.6907
3870.000000	102.4	179.8490
4000.000000	102.2	179.5030
4120.000000	102.0	179.2457
4250.000000	101.9	179.0054
4370.000000	101.8	178.8392
4500.000000	101.7	178.9064
4620.000000	101.6	178.8704
4750.000000	101.6	178.4341
4870.000000	101.5	178.0244
5000.000000	101.4	177.6481
5150.000000	101.3	177.3492
5300.000000	101.2	177.1406
5450.000000	101.0	177.1288
5600.000000	100.9	177.3174
5800.000000	100.8	177.9675
6000.000000	100.7	178.9529
6150.000000	100.7	179.8906
6300.000000	100.8	-179.0985
6500.000000	101.0	-177.7379
6700.000000	101.4	-176.7468
6900.000000	101.9	-176.3532
7100.000000	102.7	-177.1389
7300.000000	103.6	-179.9902
7500.000000	104.6	174.2090
7750.000000	105.9	160.8179
8000.000000	106.1	137.0057
8250.000000	103.4	114.5888
8500.000000	99.9	107.9539
8750.000000	97.1	109.3714
9000.000000	94.9	113.7251
9250.000000	93.1	119.4862
9500.000000	91.6	126.1115
9750.000000	90.4	133.2167
10000.000000	89.3	140.8245
10300.000000	88.3	150.2828
10600.000000	87.6	159.9578
10900.000000	87.1	169.6199
11200.000000	86.8	179.2646
11500.000000	86.8	-171.2537
11800.000000	86.9	-162.0753
12200.000000	87.5	-150.5426
12500.000000	88.2	-142.8323
12800.000000	89.2	-135.9335
13200.000000	90.9	-129.1675
13600.000000	93.1	-126.5293
14000.000000	95.7	-130.9708
14500.000000	98.7	-152.4722
15000.000000	98.3	173.2941
15500.000000	95.2	151.1904
16000.000000	91.7	139.6998
16500.000000	87.9	133.5430
17000.000000	83.8	131.3839
17500.000000	77.7	-178.0414
18000.000000	78.7	177.1896
18500.000000	77.4	-172.8802
19000.000000	76.4	-161.5264
19500.000000	75.2	-149.5847
20000.000000	74.3	-137.9919
20600.000000	72.7	-129.0755
21200.000000	73.8	-106.6672
21800.000000	74.0	-117.3474
