* Measurement data measured by REW V5.20
* Source: ASIO MOTU M Series, In 1
* Format: 256k Log Swept Sine, 1 sweep at -12.0 dBFS with no timing reference
* Dated: 2022/11/27 17:31:56
* REW Settings:
*  C-weighting compensation: Off
*  Target level: 75.0 dB
* Note: 
* Measurement: PR1 HiFi LC1
* Smoothing: 1/12 octave
* Frequency Step: 1/24 octave
* Start Frequency: 20.000 Hz
*
* Freq(Hz)	SPL(dB)	Phase(degrees)
20.000000	102.393	-150.2553
20.600000	102.459	-151.6563
21.200001	102.509	-153.0561
21.799999	102.547	-154.3583
22.400000	102.585	-155.5726
23.000000	102.624	-156.7545
23.600000	102.657	-157.9134
24.299999	102.688	-159.2072
25.000000	102.715	-160.4438
25.799999	102.739	-161.8271
26.500000	102.748	-163.0015
27.200001	102.748	-164.0992
28.000000	102.749	-165.2579
29.000000	102.755	-166.6960
30.000000	102.746	-168.1350
30.700001	102.735	-169.0711
31.500000	102.725	-170.1062
32.500000	102.707	-171.3629
33.500000	102.689	-172.5018
34.500000	102.680	-173.6361
35.500000	102.661	-174.7739
36.500000	102.632	-175.8187
37.500000	102.598	-176.7879
38.700001	102.553	-177.8191
40.000000	102.513	-178.8398
41.200001	102.483	-179.8203
42.500000	102.433	179.0246
43.700001	102.362	178.0648
45.000000	102.297	177.2114
46.200001	102.255	176.3828
47.500000	102.199	175.4661
48.700001	102.143	174.6956
50.000000	102.083	173.8956
51.500000	102.007	172.9979
53.000000	101.928	172.1680
54.500000	101.855	171.3658
56.000000	101.786	170.5867
58.000000	101.692	169.5788
60.000000	101.595	168.6736
61.500000	101.522	168.0521
63.000000	101.449	167.4645
65.000000	101.349	166.7224
67.000000	101.246	166.0435
69.000000	101.144	165.3872
71.000000	101.044	164.7424
73.000000	100.946	164.1499
75.000000	100.846	163.6267
77.500000	100.708	163.0178
80.000000	100.568	162.3980
82.500000	100.440	161.8869
85.000000	100.303	161.5121
87.500000	100.095	161.1166
90.000000	99.858	160.9920
92.500000	99.780	160.7820
95.000000	99.720	160.2659
97.500000	99.609	160.2411
100.000000	99.486	160.5444
103.000000	99.400	160.8658
106.000000	99.366	160.8989
109.000000	99.309	160.6149
112.000000	99.240	160.1378
115.000000	99.161	159.6049
118.000000	99.053	159.2586
122.000000	98.888	158.9552
125.000000	98.775	158.7753
128.000000	98.669	158.5903
132.000000	98.522	158.4140
136.000000	98.379	158.3590
140.000000	98.243	158.3678
145.000000	98.078	158.3983
150.000000	97.919	158.4791
155.000000	97.765	158.5822
160.000000	97.619	158.7129
165.000000	97.474	158.9379
170.000000	97.327	159.1792
175.000000	97.185	159.4786
180.000000	97.049	159.8475
185.000000	96.917	160.2673
190.000000	96.802	160.7222
195.000000	96.702	161.1813
200.000000	96.618	161.6244
206.000000	96.529	162.1142
212.000000	96.455	162.5278
218.000000	96.379	162.8259
224.000000	96.286	163.0295
230.000000	96.186	163.2786
236.000000	96.088	163.6200
243.000000	95.980	164.1215
250.000000	95.881	164.6242
258.000000	95.780	165.1902
265.000000	95.696	165.7078
272.000000	95.614	166.2444
280.000000	95.523	166.8399
290.000000	95.410	167.6000
300.000000	95.312	168.3469
307.000000	95.251	168.8247
315.000000	95.185	169.3549
325.000000	95.105	170.0754
335.000000	95.024	170.8542
345.000000	94.935	171.6174
355.000000	94.852	172.4090
365.000000	94.782	173.1819
375.000000	94.718	173.8864
387.000000	94.643	174.7625
400.000000	94.563	175.8016
412.000000	94.491	176.7148
425.000000	94.427	177.6668
437.000000	94.375	178.5649
450.000000	94.324	179.5273
462.000000	94.283	-179.5818
475.000000	94.243	-178.6348
487.000000	94.209	-177.7569
500.000000	94.176	-176.8022
515.000000	94.141	-175.7059
530.000000	94.113	-174.6225
545.000000	94.088	-173.5313
560.000000	94.070	-172.4411
580.000000	94.055	-171.0265
600.000000	94.040	-169.5871
615.000000	94.025	-168.4793
630.000000	94.019	-167.3735
650.000000	94.034	-165.9337
670.000000	94.065	-164.5244
690.000000	94.093	-163.0672
710.000000	94.116	-161.5644
730.000000	94.151	-160.0907
750.000000	94.188	-158.6652
775.000000	94.234	-156.7516
800.000000	94.299	-154.8913
825.000000	94.402	-153.0855
850.000000	94.522	-151.2636
875.000000	94.664	-149.4803
900.000000	94.827	-147.7779
925.000000	95.006	-146.1310
950.000000	95.203	-144.5687
975.000000	95.426	-143.1362
1000.000000	95.668	-141.8405
1030.000000	95.981	-140.4321
1060.000000	96.305	-139.2908
1090.000000	96.610	-138.2727
1120.000000	96.887	-137.4000
1150.000000	97.160	-136.6907
1180.000000	97.431	-136.1462
1220.000000	97.771	-135.5239
1250.000000	98.009	-135.1207
1280.000000	98.238	-134.8045
1320.000000	98.518	-134.3829
1360.000000	98.790	-134.0080
1400.000000	99.081	-133.7418
1450.000000	99.419	-133.4643
1500.000000	99.704	-133.1199
1550.000000	99.979	-132.6273
1600.000000	100.283	-131.9461
1650.000000	100.627	-131.2396
1700.000000	101.001	-130.6318
1750.000000	101.391	-130.1355
1800.000000	101.798	-129.6986
1850.000000	102.261	-129.2748
1900.000000	102.832	-128.9500
1950.000000	103.490	-128.7313
2000.000000	104.218	-128.9330
2060.000000	105.169	-130.9179
2120.000000	106.007	-135.4649
2180.000000	106.483	-142.0205
2240.000000	106.435	-148.5106
2300.000000	106.057	-151.9781
2360.000000	105.917	-152.6065
2430.000000	106.171	-152.8672
2500.000000	106.514	-154.3835
2580.000000	106.846	-157.6058
2650.000000	106.983	-160.9537
2720.000000	106.984	-164.3581
2800.000000	106.900	-168.0718
2900.000000	106.710	-172.1656
3000.000000	106.426	-175.7839
3070.000000	106.158	-177.9731
3150.000000	105.791	-179.8943
3250.000000	105.289	178.8618
3350.000000	104.841	178.9667
3450.000000	104.547	179.8151
3550.000000	104.391	-179.0672
3650.000000	104.397	-178.0105
3750.000000	104.505	-177.7326
3870.000000	104.633	-178.2146
4000.000000	104.769	-179.4475
4120.000000	104.799	178.5470
4250.000000	104.640	176.8173
4370.000000	104.576	175.9165
4500.000000	104.515	173.4111
4620.000000	104.061	171.6376
4750.000000	103.628	173.9001
4870.000000	103.817	175.6509
5000.000000	104.060	174.3631
5150.000000	104.078	171.9326
5300.000000	103.986	169.0402
5450.000000	103.634	165.8414
5600.000000	103.029	163.9097
5800.000000	102.117	164.2431
6000.000000	101.435	167.6381
6150.000000	101.330	169.9677
6300.000000	101.186	170.2072
6500.000000	100.562	171.3550
6700.000000	99.852	176.3704
6900.000000	99.627	-175.5688
7100.000000	100.113	-167.1718
7300.000000	101.272	-160.4488
7500.000000	102.891	-157.6185
7750.000000	104.887	-162.2180
8000.000000	105.859	-175.4653
8250.000000	105.260	171.2928
8500.000000	103.791	166.8255
8750.000000	102.680	168.7488
9000.000000	102.095	171.8973
9250.000000	101.774	176.8476
9500.000000	102.255	-176.6683
9750.000000	103.422	-174.1099
10000.000000	104.575	-176.2123
10300.000000	105.810	176.5576
10600.000000	106.428	163.5793
10900.000000	106.026	148.4133
11200.000000	104.599	136.1999
11500.000000	102.496	130.8822
11800.000000	100.430	131.3736
12200.000000	98.192	134.9645
12500.000000	96.608	139.6670
12800.000000	95.046	147.4154
13200.000000	93.387	164.0122
13600.000000	93.461	-173.5085
14000.000000	96.249	-152.4852
14500.000000	100.695	-146.3109
15000.000000	102.528	-162.4953
15500.000000	102.484	-173.3026
16000.000000	102.800	-177.0480
16500.000000	103.905	178.5894
17000.000000	105.433	167.0165
17500.000000	106.121	143.5132
18000.000000	104.682	116.2838
18500.000000	101.019	104.9506
19000.000000	96.960	111.1969
19500.000000	94.753	118.4587
20000.000000	93.601	119.5412
20600.000000	91.672	118.3643
21200.000000	88.786	122.8788
21800.000000	85.547	135.0867
