* Measurement data measured by REW V5.20
* Source: ASIO hdspfire, Analog 2 (1)
* Format: 256k Log Swept Sine, 1 sweep at -12.0 dBFS using a loopback as a timing reference
* Dated: 2022/01/21 14:11:57
* REW Settings:
*  C-weighting compensation: Off
*  Target level: 75.0 dB
* Note: Delay 0.0275 ms (9.4 mm, 0.37 in)  relative to Loopback from 1: Analog 1 (1) to 1: Analog 1 (1) with no timing offset
* Measurement: QCY T17 L
* Smoothing: 1/12 octave
* Frequency Step: 1/24 octave
* Start Frequency: 20.000 Hz
*
* Freq(Hz)	SPL(dB)	Phase(degrees)
20.000000	98.6	121.4608
20.600000	98.9	118.3763
21.200001	99.2	115.3997
21.799999	99.5	112.4927
22.400000	99.8	109.6087
23.000000	100.1	106.7586
23.600000	100.3	104.0120
24.299999	100.6	100.9927
25.000000	100.8	98.0980
25.799999	101.1	94.8151
26.500000	101.4	91.9771
27.200001	101.6	89.2267
28.000000	101.8	86.1999
29.000000	102.1	82.5606
30.000000	102.4	79.0405
30.700001	102.6	76.6287
31.500000	102.7	73.9307
32.500000	103.0	70.6627
33.500000	103.2	67.5094
34.500000	103.4	64.4438
35.500000	103.5	61.4442
36.500000	103.7	58.5142
37.500000	103.8	55.6742
38.700001	104.0	52.3768
40.000000	104.2	48.9221
41.200001	104.3	45.8411
42.500000	104.5	42.5369
43.700001	104.6	39.5458
45.000000	104.7	36.4191
46.200001	104.8	33.6385
47.500000	104.8	30.6830
48.700001	104.9	28.0084
50.000000	105.0	25.1821
51.500000	105.0	21.9993
53.000000	105.1	18.9230
54.500000	105.1	15.9395
56.000000	105.1	13.0111
58.000000	105.2	9.2111
60.000000	105.2	5.5628
61.500000	105.1	2.9198
63.000000	105.1	0.3387
65.000000	105.1	-3.0132
67.000000	105.0	-6.2672
69.000000	104.9	-9.4120
71.000000	104.9	-12.4316
73.000000	104.8	-15.3366
75.000000	104.7	-18.1877
77.500000	104.5	-21.6270
80.000000	104.4	-24.8809
82.500000	104.2	-27.9855
85.000000	104.0	-30.9513
87.500000	103.8	-33.8682
90.000000	103.6	-36.6875
92.500000	103.3	-39.0939
95.000000	103.1	-41.2927
97.500000	102.9	-43.4564
100.000000	102.6	-45.5349
103.000000	102.3	-47.8146
106.000000	102.0	-49.8455
109.000000	101.7	-51.6703
112.000000	101.3	-53.2898
115.000000	101.0	-54.6749
118.000000	100.7	-55.8589
122.000000	100.3	-57.1061
125.000000	100.0	-57.7688
128.000000	99.7	-58.2386
132.000000	99.4	-58.6135
136.000000	99.0	-58.7618
140.000000	98.8	-58.6830
145.000000	98.5	-58.3258
150.000000	98.2	-57.7280
155.000000	98.0	-57.0010
160.000000	97.9	-56.0308
165.000000	97.8	-54.8640
170.000000	97.8	-53.0881
175.000000	98.1	-51.2225
180.000000	98.6	-51.0109
185.000000	99.1	-52.8612
190.000000	99.3	-55.4485
195.000000	99.4	-57.8268
200.000000	99.4	-59.8043
206.000000	99.4	-61.8879
212.000000	99.5	-63.8004
218.000000	99.5	-65.6060
224.000000	99.5	-67.4621
230.000000	99.6	-69.3811
236.000000	99.6	-71.2964
243.000000	99.6	-73.4603
250.000000	99.6	-75.5858
258.000000	99.6	-78.0712
265.000000	99.6	-80.2405
272.000000	99.5	-82.3424
280.000000	99.5	-84.6495
290.000000	99.4	-87.4847
300.000000	99.4	-90.2849
307.000000	99.3	-92.1724
315.000000	99.2	-94.2576
325.000000	99.2	-96.7786
335.000000	99.1	-99.2503
345.000000	99.0	-101.6372
355.000000	98.9	-103.8947
365.000000	98.8	-106.0423
375.000000	98.7	-108.1384
387.000000	98.6	-110.5836
400.000000	98.4	-113.0812
412.000000	98.3	-115.2363
425.000000	98.2	-117.4625
437.000000	98.2	-119.4910
450.000000	98.1	-121.7179
462.000000	98.0	-123.7645
475.000000	97.9	-125.9287
487.000000	97.8	-127.8807
500.000000	97.7	-129.9147
515.000000	97.7	-132.1587
530.000000	97.6	-134.3152
545.000000	97.5	-136.4417
560.000000	97.4	-138.5280
580.000000	97.3	-141.2200
600.000000	97.3	-143.7983
615.000000	97.2	-145.7240
630.000000	97.2	-147.6248
650.000000	97.1	-150.0754
670.000000	97.1	-152.4166
690.000000	97.1	-154.7256
710.000000	97.0	-157.0054
730.000000	97.0	-159.2037
750.000000	97.0	-161.3007
775.000000	97.0	-163.8601
800.000000	97.0	-166.3940
825.000000	97.0	-168.8446
850.000000	97.1	-171.1898
875.000000	97.2	-173.5276
900.000000	97.3	-175.9142
925.000000	97.4	-178.3069
950.000000	97.5	179.3228
975.000000	97.7	176.9224
1000.000000	97.9	174.4160
1030.000000	98.1	171.2719
1060.000000	98.3	168.0223
1090.000000	98.5	164.6282
1120.000000	98.7	161.0518
1150.000000	98.9	157.3557
1180.000000	99.1	153.6238
1220.000000	99.3	148.5908
1250.000000	99.4	144.7477
1280.000000	99.5	140.8870
1320.000000	99.7	135.8126
1360.000000	99.7	130.8595
1400.000000	99.8	126.0780
1450.000000	99.8	120.6095
1500.000000	99.8	115.8188
1550.000000	99.8	111.3502
1600.000000	99.9	106.9432
1650.000000	100.0	102.6122
1700.000000	100.2	98.3488
1750.000000	100.3	94.1394
1800.000000	100.4	89.9983
1850.000000	100.6	85.9553
1900.000000	100.7	81.9966
1950.000000	100.8	78.1082
2000.000000	101.0	74.2736
2060.000000	101.2	69.7460
2120.000000	101.4	65.2969
2180.000000	101.6	60.9326
2240.000000	101.8	56.6191
2300.000000	102.1	52.3252
2360.000000	102.3	48.0618
2430.000000	102.6	43.1500
2500.000000	102.9	38.2554
2580.000000	103.3	32.5791
2650.000000	103.6	27.5417
2720.000000	104.0	22.4492
2800.000000	104.4	16.4628
2900.000000	104.8	8.5568
3000.000000	105.3	0.2084
3070.000000	105.6	-5.8496
3150.000000	105.8	-12.9929
3250.000000	106.0	-22.1505
3350.000000	106.1	-31.2385
3450.000000	106.0	-39.9110
3550.000000	105.8	-47.9862
3650.000000	105.5	-55.3298
3750.000000	105.2	-61.8722
3870.000000	104.7	-68.6816
4000.000000	104.2	-74.8645
4120.000000	103.8	-79.5844
4250.000000	103.3	-83.7985
4370.000000	102.9	-86.9497
4500.000000	102.5	-89.6309
4620.000000	102.2	-91.5497
4750.000000	101.9	-93.1802
4870.000000	101.7	-94.3534
5000.000000	101.5	-95.3710
5150.000000	101.3	-96.2679
5300.000000	101.2	-96.6414
5450.000000	101.1	-96.4734
5600.000000	101.1	-95.8807
5800.000000	101.3	-94.6316
6000.000000	101.7	-92.8524
6150.000000	102.0	-91.2153
6300.000000	102.6	-89.4642
6500.000000	103.5	-87.2676
6700.000000	104.8	-85.8677
6900.000000	106.4	-86.5577
7100.000000	108.2	-91.1870
7300.000000	109.9	-101.6246
7500.000000	110.9	-117.9408
7750.000000	110.5	-139.5118
8000.000000	108.7	-153.1527
8250.000000	106.7	-157.9789
8500.000000	104.9	-157.3630
8750.000000	103.6	-153.8298
9000.000000	102.6	-148.6001
9250.000000	101.9	-142.2885
9500.000000	101.5	-135.5105
9750.000000	101.4	-129.0139
10000.000000	101.5	-123.4734
10300.000000	101.9	-118.4111
10600.000000	102.5	-115.6387
10900.000000	103.0	-115.9961
11200.000000	103.2	-119.6742
11500.000000	102.7	-124.8065
11800.000000	101.5	-127.9402
12200.000000	99.2	-125.4673
12500.000000	97.4	-118.8267
12800.000000	95.7	-109.2234
13200.000000	93.7	-93.1550
13600.000000	92.1	-73.9595
14000.000000	90.9	-52.5114
14500.000000	89.8	-23.9626
15000.000000	89.2	5.7496
15500.000000	89.3	35.8400
16000.000000	90.1	65.1161
16500.000000	91.8	90.6616
17000.000000	94.0	105.5975
17500.000000	94.9	104.5671
18000.000000	93.0	102.3330
18500.000000	89.1	116.0867
19000.000000	84.8	142.5930
19500.000000	81.0	174.9916
20000.000000	77.7	-149.6541
20600.000000	74.2	-107.3588
21200.000000	70.8	-100.3591
21800.000000	67.4	111.5857
