* Measurement data measured by REW V5.20
* Source: ASIO MOTU M Series, In 1
* Format: 256k Log Swept Sine, 1 sweep at -12.0 dBFS with no timing reference
* Dated: 2022/09/20 19:56:01
* REW Settings:
*  C-weighting compensation: Off
*  Target level: 75.0 dB
* Note: 
* Measurement: Buds Q RC1
* Smoothing: 1/12 octave
* Frequency Step: 1/24 octave
* Start Frequency: 20.000 Hz
*
* Freq(Hz)	SPL(dB)	Phase(degrees)
20.000000	95.160	42.7070
20.600000	95.808	39.2326
21.200001	96.442	35.7219
21.799999	97.041	32.2288
22.400000	97.614	28.8695
23.000000	98.173	25.6357
23.600000	98.718	22.4478
24.299999	99.326	18.7605
25.000000	99.901	15.1346
25.799999	100.518	11.0539
26.500000	101.016	7.5414
27.200001	101.479	4.1488
28.000000	101.980	0.4454
29.000000	102.578	-4.0546
30.000000	103.136	-8.4827
30.700001	103.503	-11.5283
31.500000	103.896	-14.9537
32.500000	104.351	-19.0886
33.500000	104.780	-23.0646
34.500000	105.179	-26.9823
35.500000	105.539	-30.8052
36.500000	105.865	-34.4624
37.500000	106.171	-37.9626
38.700001	106.515	-42.0366
40.000000	106.855	-46.3090
41.200001	107.136	-50.1319
42.500000	107.401	-54.0661
43.700001	107.622	-57.5049
45.000000	107.836	-61.0751
46.200001	108.013	-64.2503
47.500000	108.181	-67.5620
48.700001	108.315	-70.4763
50.000000	108.456	-73.4249
51.500000	108.625	-76.7608
53.000000	108.766	-80.0067
54.500000	108.889	-83.0546
56.000000	108.991	-85.9379
58.000000	109.101	-89.5253
60.000000	109.196	-92.9079
61.500000	109.260	-95.3424
63.000000	109.318	-97.6812
65.000000	109.387	-100.6440
67.000000	109.443	-103.4519
69.000000	109.486	-106.1435
71.000000	109.521	-108.7379
73.000000	109.549	-111.2406
75.000000	109.565	-113.6335
77.500000	109.570	-116.5155
80.000000	109.562	-119.3377
82.500000	109.541	-122.0837
85.000000	109.496	-124.7050
87.500000	109.420	-127.2588
90.000000	109.318	-129.7233
92.500000	109.231	-132.0631
95.000000	109.136	-134.3577
97.500000	109.008	-136.4885
100.000000	108.853	-138.5111
103.000000	108.639	-140.8069
106.000000	108.407	-142.9012
109.000000	108.155	-144.8119
112.000000	107.887	-146.5264
115.000000	107.610	-148.0235
118.000000	107.321	-149.3312
122.000000	106.919	-150.7838
125.000000	106.610	-151.6756
128.000000	106.294	-152.4230
132.000000	105.863	-153.1781
136.000000	105.421	-153.6577
140.000000	104.960	-153.8403
145.000000	104.344	-153.4728
150.000000	103.673	-151.8870
155.000000	103.079	-148.1691
160.000000	103.003	-143.2872
165.000000	103.361	-142.1205
170.000000	103.390	-144.0587
175.000000	103.062	-145.3845
180.000000	102.626	-145.4620
185.000000	102.188	-144.7774
190.000000	101.770	-143.6565
195.000000	101.381	-142.3198
200.000000	101.012	-140.8002
206.000000	100.580	-138.8230
212.000000	100.173	-136.6379
218.000000	99.785	-134.2920
224.000000	99.416	-131.7550
230.000000	99.071	-129.1143
236.000000	98.748	-126.4855
243.000000	98.382	-123.4626
250.000000	98.023	-120.4857
258.000000	97.638	-117.1753
265.000000	97.332	-114.2930
272.000000	97.052	-111.3383
280.000000	96.756	-107.9047
290.000000	96.422	-103.5844
300.000000	96.125	-99.2503
307.000000	95.935	-96.2235
315.000000	95.736	-92.7822
325.000000	95.511	-88.5054
335.000000	95.308	-84.2083
345.000000	95.140	-79.8499
355.000000	95.022	-75.5827
365.000000	94.935	-71.5557
375.000000	94.869	-67.7130
387.000000	94.803	-63.4556
400.000000	94.706	-59.1102
412.000000	94.602	-55.1017
425.000000	94.496	-50.7678
437.000000	94.404	-46.8209
450.000000	94.311	-42.6170
462.000000	94.232	-38.8008
475.000000	94.149	-34.7328
487.000000	94.074	-31.0295
500.000000	93.997	-27.0696
515.000000	93.911	-22.5725
530.000000	93.828	-18.1332
545.000000	93.747	-13.7415
560.000000	93.669	-9.3935
580.000000	93.571	-3.6540
600.000000	93.478	2.0249
615.000000	93.414	6.2403
630.000000	93.355	10.4316
650.000000	93.284	15.9775
670.000000	93.220	21.4647
690.000000	93.166	26.9051
710.000000	93.122	32.2947
730.000000	93.088	37.6258
750.000000	93.064	42.8946
775.000000	93.048	49.3800
800.000000	93.045	55.7571
825.000000	93.054	62.0455
850.000000	93.076	68.2722
875.000000	93.116	74.4169
900.000000	93.175	80.4610
925.000000	93.253	86.4022
950.000000	93.353	92.2422
975.000000	93.478	97.9370
1000.000000	93.630	103.4100
1030.000000	93.831	109.6042
1060.000000	94.031	115.3997
1090.000000	94.217	120.8668
1120.000000	94.388	126.0765
1150.000000	94.543	131.0876
1180.000000	94.682	135.9342
1220.000000	94.845	142.1778
1250.000000	94.951	146.7280
1280.000000	95.044	151.1884
1320.000000	95.153	157.0254
1360.000000	95.246	162.7646
1400.000000	95.328	168.4134
1450.000000	95.420	175.3661
1500.000000	95.507	-177.7855
1550.000000	95.592	-171.0542
1600.000000	95.680	-164.4395
1650.000000	95.772	-157.9445
1700.000000	95.869	-151.5746
1750.000000	95.971	-145.3390
1800.000000	96.080	-139.2411
1850.000000	96.196	-133.2742
1900.000000	96.320	-127.4306
1950.000000	96.454	-121.7009
2000.000000	96.606	-116.1213
2060.000000	96.808	-109.7214
2120.000000	97.012	-103.6561
2180.000000	97.212	-97.8376
2240.000000	97.413	-92.2137
2300.000000	97.621	-86.7739
2360.000000	97.842	-81.5110
2430.000000	98.128	-75.6512
2500.000000	98.443	-70.2601
2580.000000	98.798	-64.7312
2650.000000	99.091	-60.2988
2720.000000	99.374	-56.1752
2800.000000	99.689	-51.8474
2900.000000	100.062	-47.0155
3000.000000	100.399	-42.7864
3070.000000	100.607	-40.1235
3150.000000	100.820	-37.2953
3250.000000	101.073	-33.9966
3350.000000	101.342	-31.1729
3450.000000	101.581	-29.1876
3550.000000	101.718	-27.7402
3650.000000	101.770	-26.3350
3750.000000	101.780	-24.8240
3870.000000	101.778	-22.9407
4000.000000	101.769	-20.9673
4120.000000	101.756	-19.1668
4250.000000	101.769	-17.1455
4370.000000	101.844	-15.3572
4500.000000	101.998	-13.7362
4620.000000	102.204	-12.6460
4750.000000	102.491	-12.0159
4870.000000	102.814	-12.0264
5000.000000	103.226	-12.8125
5150.000000	103.765	-15.0385
5300.000000	104.304	-19.0393
5450.000000	104.736	-24.8619
5600.000000	104.964	-32.0591
5800.000000	104.893	-42.4309
6000.000000	104.467	-52.0889
6150.000000	104.031	-58.2813
6300.000000	103.603	-63.5557
6500.000000	103.187	-69.6432
6700.000000	103.039	-75.4910
6900.000000	103.200	-81.8286
7100.000000	103.733	-89.4826
7300.000000	104.664	-100.0177
7500.000000	105.800	-115.7485
7750.000000	106.705	-145.4658
8000.000000	105.970	178.2749
8250.000000	103.515	147.6398
8500.000000	100.306	126.6502
8750.000000	97.214	111.8811
9000.000000	94.564	100.0981
9250.000000	92.356	89.6020
9500.000000	90.528	79.5143
9750.000000	89.011	69.3117
10000.000000	87.732	58.7200
10300.000000	86.440	45.4290
10600.000000	85.386	31.4971
10900.000000	84.557	16.8998
11200.000000	83.926	1.5525
11500.000000	83.484	-14.5314
11800.000000	83.264	-31.3774
12200.000000	83.313	-55.3563
12500.000000	83.595	-74.4386
12800.000000	84.134	-94.4606
13200.000000	85.387	-122.8293
13600.000000	87.567	-153.8241
14000.000000	91.124	170.2916
14500.000000	96.474	106.3625
15000.000000	98.374	5.5764
15500.000000	94.907	-85.2201
16000.000000	90.100	-146.8614
16500.000000	87.223	159.2852
17000.000000	86.445	103.9053
17500.000000	87.204	42.1206
18000.000000	88.614	-32.4210
18500.000000	88.968	-122.9959
19000.000000	87.069	143.7188
19500.000000	83.491	61.8153
20000.000000	79.584	-11.0542
20600.000000	75.657	-94.7025
21200.000000	72.850	-177.3781
21800.000000	71.149	113.1555
