* Measurement data measured by REW V5.20
* Source: ASIO MOTU M Series, In 1
* Format: 256k Log Swept Sine, 1 sweep at -12.0 dBFS with no timing reference
* Dated: 2022/10/03 5:38:19
* REW Settings:
*  C-weighting compensation: Off
*  Target level: 75.0 dB
* Note: 
* Measurement: Rhombus RC1
* Smoothing: 1/12 octave
* Frequency Step: 1/24 octave
* Start Frequency: 20.000 Hz
*
* Freq(Hz)	SPL(dB)	Phase(degrees)
20.000000	104.916	-165.9392
20.600000	104.934	-166.9739
21.200001	104.947	-167.9829
21.799999	104.956	-168.9647
22.400000	104.961	-169.9319
23.000000	104.960	-170.8695
23.600000	104.957	-171.7677
24.299999	104.952	-172.8288
25.000000	104.929	-173.9084
25.799999	104.880	-174.9214
26.500000	104.859	-175.5673
27.200001	104.874	-176.2750
28.000000	104.888	-177.3117
29.000000	104.870	-178.5726
30.000000	104.845	-179.7039
30.700001	104.821	179.5586
31.500000	104.795	178.8277
32.500000	104.778	177.8874
33.500000	104.737	176.8716
34.500000	104.679	175.9907
35.500000	104.625	175.1418
36.500000	104.563	174.2946
37.500000	104.500	173.4889
38.700001	104.435	172.5682
40.000000	104.379	171.4751
41.200001	104.303	170.6045
42.500000	104.269	169.9670
43.700001	104.256	169.1562
45.000000	104.204	168.3032
46.200001	104.147	167.6272
47.500000	104.079	166.8788
48.700001	104.002	166.1848
50.000000	103.917	165.5349
51.500000	103.847	164.8001
53.000000	103.779	163.9863
54.500000	103.705	163.2484
56.000000	103.624	162.5605
58.000000	103.506	161.7442
60.000000	103.391	160.9689
61.500000	103.308	160.4010
63.000000	103.227	159.8567
65.000000	103.118	159.1669
67.000000	103.007	158.5165
69.000000	102.895	157.9008
71.000000	102.786	157.3204
73.000000	102.677	156.7747
75.000000	102.568	156.2560
77.500000	102.431	155.6520
80.000000	102.297	155.0900
82.500000	102.161	154.5580
85.000000	102.029	154.0800
87.500000	101.903	153.6667
90.000000	101.780	153.2924
92.500000	101.649	152.8783
95.000000	101.516	152.4954
97.500000	101.391	152.1621
100.000000	101.271	151.8693
103.000000	101.121	151.5496
106.000000	100.974	151.2609
109.000000	100.832	151.0071
112.000000	100.692	150.7860
115.000000	100.554	150.5787
118.000000	100.417	150.3987
122.000000	100.237	150.2081
125.000000	100.105	150.1005
128.000000	99.975	150.0127
132.000000	99.805	149.9150
136.000000	99.636	149.8552
140.000000	99.468	149.8601
145.000000	99.261	149.9191
150.000000	99.057	150.0717
155.000000	98.854	150.3245
160.000000	98.657	150.7742
165.000000	98.493	151.4741
170.000000	98.396	152.2108
175.000000	98.348	152.5364
180.000000	98.277	152.4631
185.000000	98.164	152.3284
190.000000	98.031	152.2960
195.000000	97.888	152.4136
200.000000	97.745	152.6132
206.000000	97.584	152.8685
212.000000	97.430	153.1885
218.000000	97.283	153.5422
224.000000	97.140	153.9190
230.000000	97.001	154.3307
236.000000	96.866	154.7727
243.000000	96.715	155.3286
250.000000	96.570	155.9370
258.000000	96.422	156.6664
265.000000	96.309	157.2890
272.000000	96.201	157.8431
280.000000	96.075	158.4469
290.000000	95.915	159.2557
300.000000	95.761	160.1543
307.000000	95.662	160.8487
315.000000	95.567	161.6735
325.000000	95.477	162.5927
335.000000	95.387	163.3278
345.000000	95.283	164.0493
355.000000	95.178	164.8258
365.000000	95.077	165.6349
375.000000	94.983	166.4543
387.000000	94.880	167.4400
400.000000	94.778	168.4915
412.000000	94.692	169.4379
425.000000	94.605	170.4306
437.000000	94.528	171.3060
450.000000	94.444	172.2086
462.000000	94.361	173.0143
475.000000	94.261	173.8933
487.000000	94.160	174.7615
500.000000	94.047	175.8185
515.000000	93.927	177.1971
530.000000	93.828	178.6810
545.000000	93.752	-179.8057
560.000000	93.694	-178.3055
580.000000	93.637	-176.3441
600.000000	93.598	-174.4278
615.000000	93.579	-173.0203
630.000000	93.567	-171.6355
650.000000	93.560	-169.8184
670.000000	93.563	-168.0224
690.000000	93.575	-166.2472
710.000000	93.597	-164.4819
730.000000	93.627	-162.7253
750.000000	93.668	-160.9778
775.000000	93.733	-158.7984
800.000000	93.815	-156.6310
825.000000	93.916	-154.4869
850.000000	94.036	-152.3704
875.000000	94.177	-150.2982
900.000000	94.338	-148.2829
925.000000	94.519	-146.3415
950.000000	94.718	-144.4931
975.000000	94.934	-142.7569
1000.000000	95.165	-141.1450
1030.000000	95.457	-139.3884
1060.000000	95.758	-137.8313
1090.000000	96.065	-136.4684
1120.000000	96.371	-135.2879
1150.000000	96.673	-134.2679
1180.000000	96.968	-133.3831
1220.000000	97.350	-132.3680
1250.000000	97.627	-131.7019
1280.000000	97.898	-131.0986
1320.000000	98.253	-130.3668
1360.000000	98.604	-129.7071
1400.000000	98.953	-129.1202
1450.000000	99.392	-128.5043
1500.000000	99.833	-128.0429
1550.000000	100.274	-127.7432
1600.000000	100.712	-127.5968
1650.000000	101.148	-127.5946
1700.000000	101.583	-127.7340
1750.000000	102.018	-128.0174
1800.000000	102.453	-128.4557
1850.000000	102.890	-129.0615
1900.000000	103.327	-129.8503
1950.000000	103.767	-130.8613
2000.000000	104.202	-132.1559
2060.000000	104.699	-134.1091
2120.000000	105.155	-136.4430
2180.000000	105.560	-139.0963
2240.000000	105.907	-142.0097
2300.000000	106.188	-145.1087
2360.000000	106.399	-148.3067
2430.000000	106.557	-152.0373
2500.000000	106.625	-155.6157
2580.000000	106.609	-159.3478
2650.000000	106.536	-162.2080
2720.000000	106.426	-164.6542
2800.000000	106.280	-166.9509
2900.000000	106.096	-169.1497
3000.000000	105.941	-170.7467
3070.000000	105.860	-171.5993
3150.000000	105.803	-172.3858
3250.000000	105.790	-173.1901
3350.000000	105.853	-173.9585
3450.000000	105.993	-174.9056
3550.000000	106.205	-176.2795
3650.000000	106.457	-178.3562
3750.000000	106.699	178.7266
3870.000000	106.905	174.1487
4000.000000	106.938	168.1277
4120.000000	106.728	162.1492
4250.000000	106.228	156.0971
4370.000000	105.568	151.6079
4500.000000	104.757	148.1869
4620.000000	104.011	145.9554
4750.000000	103.185	143.9157
4870.000000	102.309	142.6993
5000.000000	101.257	143.1009
5150.000000	100.124	145.8730
5300.000000	99.225	150.0950
5450.000000	98.558	154.9935
5600.000000	98.089	160.2559
5800.000000	97.747	167.5654
6000.000000	97.714	174.9322
6150.000000	97.888	-179.6445
6300.000000	98.247	-174.4020
6500.000000	99.052	-167.9734
6700.000000	100.289	-162.8492
6900.000000	101.983	-160.2396
7100.000000	103.994	-162.2065
7300.000000	105.817	-171.2591
7500.000000	106.740	172.8882
7750.000000	106.173	152.5071
8000.000000	104.424	140.8103
8250.000000	102.631	137.1074
8500.000000	101.361	137.0493
8750.000000	100.647	137.4525
9000.000000	100.280	136.5357
9250.000000	100.005	133.6896
9500.000000	99.618	129.2214
9750.000000	99.004	123.9790
10000.000000	98.146	118.9255
10300.000000	96.874	114.0451
10600.000000	95.489	110.6479
10900.000000	94.120	108.0579
11200.000000	92.788	105.1586
11500.000000	91.344	101.1776
11800.000000	89.536	97.0075
12200.000000	86.353	95.2134
12500.000000	83.512	99.2659
12800.000000	80.537	108.7674
13200.000000	76.849	129.7186
13600.000000	74.313	158.3605
14000.000000	74.048	-170.4652
14500.000000	76.812	-138.0943
15000.000000	81.340	-118.9692
15500.000000	86.230	-117.1810
16000.000000	89.271	-138.4251
16500.000000	89.918	-167.9954
17000.000000	89.168	163.4977
17500.000000	86.846	139.6107
18000.000000	83.339	128.3363
18500.000000	80.213	124.9812
19000.000000	78.505	119.8185
19500.000000	77.859	107.8391
20000.000000	76.887	80.4294
20600.000000	73.073	44.8416
21200.000000	66.718	31.9985
21800.000000	59.384	36.9577
