* Measurement data measured by REW V5.20
* Source: ASIO MOTU M Series, In 1
* Format: 256k Log Swept Sine, 1 sweep at -12.0 dBFS with no timing reference
* Dated: 2022/10/03 5:37:34
* REW Settings:
*  C-weighting compensation: Off
*  Target level: 75.0 dB
* Note: 
* Measurement: Rhombus LC1
* Smoothing: 1/12 octave
* Frequency Step: 1/24 octave
* Start Frequency: 20.000 Hz
*
* Freq(Hz)	SPL(dB)	Phase(degrees)
20.000000	105.088	-162.0805
20.600000	105.112	-163.1934
21.200001	105.130	-164.2892
21.799999	105.143	-165.3580
22.400000	105.151	-166.3951
23.000000	105.154	-167.3979
23.600000	105.155	-168.3592
24.299999	105.156	-169.4309
25.000000	105.159	-170.4699
25.799999	105.160	-171.6330
26.500000	105.157	-172.6254
27.200001	105.148	-173.5774
28.000000	105.133	-174.5821
29.000000	105.116	-175.7393
30.000000	105.100	-176.8822
30.700001	105.083	-177.6624
31.500000	105.063	-178.5318
32.500000	105.031	-179.6015
33.500000	104.993	179.3992
34.500000	104.957	178.4703
35.500000	104.928	177.5807
36.500000	104.900	176.6620
37.500000	104.859	175.7527
38.700001	104.803	174.7864
40.000000	104.746	173.7844
41.200001	104.692	172.8823
42.500000	104.628	171.9056
43.700001	104.565	171.0855
45.000000	104.503	170.2512
46.200001	104.449	169.5446
47.500000	104.396	168.8459
48.700001	104.356	168.2217
50.000000	104.313	167.4660
51.500000	104.240	166.5532
53.000000	104.156	165.7420
54.500000	104.076	164.9729
56.000000	104.001	164.2039
58.000000	103.897	163.2019
60.000000	103.790	162.3036
61.500000	103.711	161.6693
63.000000	103.631	161.0586
65.000000	103.522	160.2920
67.000000	103.416	159.5660
69.000000	103.310	158.8757
71.000000	103.202	158.2268
73.000000	103.094	157.6165
75.000000	102.987	157.0420
77.500000	102.855	156.3616
80.000000	102.723	155.7216
82.500000	102.590	155.1229
85.000000	102.462	154.5443
87.500000	102.340	154.0067
90.000000	102.220	153.5072
92.500000	102.088	153.0548
95.000000	101.956	152.6614
97.500000	101.831	152.2791
100.000000	101.710	151.9156
103.000000	101.562	151.5108
106.000000	101.415	151.1367
109.000000	101.274	150.7986
112.000000	101.135	150.5032
115.000000	100.996	150.2380
118.000000	100.860	149.9965
122.000000	100.684	149.7117
125.000000	100.552	149.5277
128.000000	100.422	149.3694
132.000000	100.253	149.1866
136.000000	100.086	149.0409
140.000000	99.923	148.9365
145.000000	99.723	148.8413
150.000000	99.526	148.7917
155.000000	99.333	148.7903
160.000000	99.143	148.8354
165.000000	98.954	148.9388
170.000000	98.760	149.0960
175.000000	98.561	149.3707
180.000000	98.368	149.8704
185.000000	98.212	150.6266
190.000000	98.130	151.4394
195.000000	98.088	151.9149
200.000000	98.028	151.9564
206.000000	97.922	151.7990
212.000000	97.781	151.7534
218.000000	97.625	151.8617
224.000000	97.468	152.0775
230.000000	97.318	152.3515
236.000000	97.175	152.6656
243.000000	97.015	153.0821
250.000000	96.862	153.5322
258.000000	96.694	154.0876
265.000000	96.554	154.5960
272.000000	96.419	155.1174
280.000000	96.272	155.7281
290.000000	96.097	156.5123
300.000000	95.932	157.3125
307.000000	95.822	157.8886
315.000000	95.701	158.5574
325.000000	95.558	159.4002
335.000000	95.423	160.2510
345.000000	95.293	161.1082
355.000000	95.172	161.9681
365.000000	95.058	162.8384
375.000000	94.949	163.7221
387.000000	94.828	164.7906
400.000000	94.711	165.9433
412.000000	94.613	166.9851
425.000000	94.514	168.0767
437.000000	94.427	169.0678
450.000000	94.340	170.1327
462.000000	94.264	171.0979
475.000000	94.188	172.1092
487.000000	94.122	172.9952
500.000000	94.052	173.8836
515.000000	93.957	174.7989
530.000000	93.828	175.6839
545.000000	93.656	176.7911
560.000000	93.477	178.3604
580.000000	93.315	-179.0075
600.000000	93.260	-176.3457
615.000000	93.262	-174.5153
630.000000	93.285	-172.8460
650.000000	93.330	-170.8391
670.000000	93.377	-169.0208
690.000000	93.421	-167.3211
710.000000	93.461	-165.6740
730.000000	93.499	-164.0389
750.000000	93.540	-162.3948
775.000000	93.601	-160.3224
800.000000	93.674	-158.2354
825.000000	93.765	-156.1401
850.000000	93.874	-154.0568
875.000000	94.004	-152.0034
900.000000	94.154	-149.9972
925.000000	94.324	-148.0575
950.000000	94.513	-146.2035
975.000000	94.719	-144.4547
1000.000000	94.940	-142.8243
1030.000000	95.220	-141.0403
1060.000000	95.511	-139.4524
1090.000000	95.808	-138.0543
1120.000000	96.104	-136.8320
1150.000000	96.397	-135.7639
1180.000000	96.684	-134.8236
1220.000000	97.056	-133.7256
1250.000000	97.327	-132.9879
1280.000000	97.593	-132.3049
1320.000000	97.945	-131.4602
1360.000000	98.297	-130.6823
1400.000000	98.653	-129.9855
1450.000000	99.108	-129.2688
1500.000000	99.568	-128.7607
1550.000000	100.026	-128.4811
1600.000000	100.476	-128.4052
1650.000000	100.918	-128.4919
1700.000000	101.353	-128.7162
1750.000000	101.783	-129.0759
1800.000000	102.212	-129.5821
1850.000000	102.637	-130.2479
1900.000000	103.058	-131.0715
1950.000000	103.478	-132.0413
2000.000000	103.906	-133.1966
2060.000000	104.426	-135.0214
2120.000000	104.910	-137.4421
2180.000000	105.323	-140.3091
2240.000000	105.659	-143.4452
2300.000000	105.917	-146.7340
2360.000000	106.096	-150.0699
2430.000000	106.210	-153.8727
2500.000000	106.233	-157.4308
2580.000000	106.170	-161.0628
2650.000000	106.057	-163.7829
2720.000000	105.910	-166.0151
2800.000000	105.733	-167.9461
2900.000000	105.555	-169.6674
3000.000000	105.432	-171.0439
3070.000000	105.364	-171.8518
3150.000000	105.312	-172.6000
3250.000000	105.300	-173.3713
3350.000000	105.351	-174.1373
3450.000000	105.460	-175.0403
3550.000000	105.624	-176.2152
3650.000000	105.833	-177.8246
3750.000000	106.067	179.9376
3870.000000	106.327	176.2135
4000.000000	106.486	170.8603
4120.000000	106.417	165.0492
4250.000000	106.054	158.7822
4370.000000	105.504	153.8498
4500.000000	104.788	149.6323
4620.000000	104.066	146.4062
4750.000000	103.160	143.6070
4870.000000	102.186	142.4061
5000.000000	101.102	143.0756
5150.000000	99.993	145.8342
5300.000000	99.106	149.8270
5450.000000	98.428	154.5087
5600.000000	97.938	159.6314
5800.000000	97.567	166.8782
6000.000000	97.520	174.2697
6150.000000	97.698	179.6944
6300.000000	98.065	-175.1456
6500.000000	98.859	-168.9594
6700.000000	100.040	-164.0158
6900.000000	101.664	-161.1948
7100.000000	103.679	-162.3466
7300.000000	105.666	-170.3173
7500.000000	106.858	173.8593
7750.000000	106.499	151.3846
8000.000000	104.712	137.8411
8250.000000	102.838	133.2823
8500.000000	101.568	132.4276
8750.000000	100.902	131.5000
9000.000000	100.551	128.4162
9250.000000	100.140	122.6635
9500.000000	99.375	115.5654
9750.000000	98.203	109.3919
10000.000000	96.818	105.3285
10300.000000	95.200	102.2724
10600.000000	93.706	99.0803
10900.000000	92.090	95.3462
11200.000000	90.277	91.7841
11500.000000	88.163	88.1609
11800.000000	85.490	87.5501
12200.000000	81.333	95.4312
12500.000000	78.204	108.0171
12800.000000	75.447	125.3028
13200.000000	72.913	153.0351
13600.000000	72.134	-177.8618
14000.000000	73.017	-151.1957
14500.000000	75.905	-124.2243
15000.000000	80.544	-106.4772
15500.000000	85.721	-105.6530
16000.000000	89.152	-129.3925
16500.000000	90.011	-166.1046
17000.000000	88.767	156.8228
17500.000000	85.371	129.0365
18000.000000	80.807	103.1181
18500.000000	77.174	11.5090
19000.000000	76.346	-154.8300
19500.000000	75.562	110.2365
20000.000000	73.393	64.6549
20600.000000	68.691	30.3135
21200.000000	62.127	20.0337
21800.000000	55.183	26.3537
