* Measurement data measured by REW V5.20
* Source: ASIO hdspfire, Analog 2 (1)
* Format: 256k Log Swept Sine, 1 sweep at -12.0 dBFS using a loopback as a timing reference
* Dated: 2022/01/20 16:26:54
* REW Settings:
*  C-weighting compensation: Off
*  Target level: 75.0 dB
* Note: Delay -2.0041 ms (-687 mm, -(2 ft 3.06 in))  relative to Loopback from 1: Analog 1 (1) to 1: Analog 1 (1) with no timing offset
* Measurement: SP Air 3 Pro NC L
* Smoothing: 1/12 octave
* Frequency Step: 1/24 octave
* Start Frequency: 20.000 Hz
*
* Freq(Hz)	SPL(dB)	Phase(degrees)
20.000000	98.4	-118.9375
20.600000	99.0	-126.7247
21.200001	99.4	-134.2526
21.799999	99.8	-141.3967
22.400000	100.2	-148.0709
23.000000	100.5	-154.3413
23.600000	100.8	-160.3479
24.299999	101.1	-167.0963
25.000000	101.3	-173.4816
25.799999	101.6	179.7265
26.500000	101.7	174.1470
27.200001	101.9	168.8511
28.000000	102.0	163.1393
29.000000	102.2	156.4594
30.000000	102.3	150.2247
30.700001	102.3	146.1059
31.500000	102.4	141.6244
32.500000	102.4	136.3456
33.500000	102.4	131.4112
34.500000	102.4	126.8015
35.500000	102.3	122.5021
36.500000	102.3	118.5009
37.500000	102.2	114.7668
38.700001	102.1	110.5986
40.000000	102.0	106.4782
41.200001	101.8	102.9933
42.500000	101.7	99.5098
43.700001	101.5	96.5556
45.000000	101.4	93.6341
46.200001	101.2	91.1647
47.500000	101.0	88.7211
48.700001	100.9	86.6739
50.000000	100.7	84.6704
51.500000	100.4	82.5818
53.000000	100.2	80.7321
54.500000	100.0	79.1207
56.000000	99.8	77.7438
58.000000	99.5	76.2005
60.000000	99.2	75.0061
61.500000	99.0	74.3448
63.000000	98.7	73.8563
65.000000	98.5	73.4521
67.000000	98.2	73.3011
69.000000	97.9	73.3745
71.000000	97.7	73.6431
73.000000	97.5	74.0997
75.000000	97.3	74.7108
77.500000	97.1	75.6240
80.000000	96.9	76.6750
82.500000	96.7	77.8492
85.000000	96.6	79.0613
87.500000	96.5	80.2102
90.000000	96.3	81.3113
92.500000	96.2	82.5209
95.000000	96.2	83.7408
97.500000	96.1	84.9152
100.000000	96.0	86.0597
103.000000	95.9	87.4454
106.000000	95.7	88.8130
109.000000	95.6	90.1323
112.000000	95.4	91.5351
115.000000	95.2	93.1716
118.000000	95.1	95.1364
122.000000	94.9	98.0248
125.000000	94.8	99.8455
128.000000	94.7	101.4357
132.000000	94.4	103.7335
136.000000	94.2	106.4131
140.000000	93.9	109.4304
145.000000	93.6	113.6340
150.000000	93.3	118.2975
155.000000	93.0	123.3575
160.000000	92.7	128.7783
165.000000	92.5	134.5099
170.000000	92.4	140.5012
175.000000	92.4	146.6178
180.000000	92.4	152.7361
185.000000	92.5	158.7637
190.000000	92.6	164.6296
195.000000	92.8	170.2684
200.000000	93.0	175.6218
206.000000	93.4	-178.3565
212.000000	93.7	-172.7642
218.000000	94.0	-167.6041
224.000000	94.4	-162.8461
230.000000	94.7	-158.4028
236.000000	95.0	-154.2147
243.000000	95.3	-149.6210
250.000000	95.5	-145.2820
258.000000	95.8	-140.4473
265.000000	96.0	-136.2972
272.000000	96.1	-132.1857
280.000000	96.2	-127.4495
290.000000	96.2	-121.3174
300.000000	96.2	-114.8004
307.000000	96.2	-109.8805
315.000000	96.1	-103.9075
325.000000	96.1	-95.8840
335.000000	96.1	-87.3500
345.000000	96.2	-78.5161
355.000000	96.4	-69.6458
365.000000	96.7	-60.9874
375.000000	97.1	-52.7511
387.000000	97.6	-43.5548
400.000000	98.1	-34.2950
412.000000	98.6	-26.3826
425.000000	99.1	-18.2485
437.000000	99.4	-10.9503
450.000000	99.8	-3.1736
462.000000	100.1	3.9155
475.000000	100.4	11.5255
487.000000	100.7	18.4423
500.000000	101.0	25.7481
515.000000	101.4	33.8091
530.000000	101.7	41.3225
545.000000	102.0	48.2227
560.000000	102.2	54.5167
580.000000	102.2	62.2462
600.000000	102.0	69.9121
615.000000	101.6	76.1857
630.000000	101.1	83.2700
650.000000	100.3	94.2357
670.000000	99.5	106.8511
690.000000	98.7	120.7458
710.000000	98.1	135.4911
730.000000	97.5	150.7671
750.000000	97.0	166.3398
775.000000	96.5	-173.9744
800.000000	96.0	-154.1223
825.000000	95.6	-134.1237
850.000000	95.2	-114.0162
875.000000	94.9	-93.7905
900.000000	94.7	-73.4547
925.000000	94.4	-53.0365
950.000000	94.2	-32.5641
975.000000	94.1	-12.0479
1000.000000	94.0	8.4865
1030.000000	93.8	33.1323
1060.000000	93.8	57.7625
1090.000000	93.8	82.3622
1120.000000	93.8	106.9198
1150.000000	93.8	131.4494
1180.000000	93.9	155.9558
1220.000000	94.1	-171.4567
1250.000000	94.2	-147.0793
1280.000000	94.4	-122.7586
1320.000000	94.7	-90.4564
1360.000000	95.1	-58.3600
1400.000000	95.5	-26.5262
1450.000000	96.2	12.8224
1500.000000	96.8	51.5837
1550.000000	97.6	89.6835
1600.000000	98.4	127.0947
1650.000000	99.2	163.7809
1700.000000	99.9	-160.2881
1750.000000	100.7	-124.9774
1800.000000	101.4	-89.6365
1850.000000	102.2	-55.1987
1900.000000	103.0	-22.1441
1950.000000	103.6	10.2452
2000.000000	104.0	42.3530
2060.000000	104.5	80.7695
2120.000000	104.8	119.2686
2180.000000	104.9	158.0063
2240.000000	105.1	-162.9382
2300.000000	105.1	-123.5575
2360.000000	105.1	-83.8684
2430.000000	105.1	-37.1852
2500.000000	105.1	9.8085
2580.000000	105.1	63.8214
2650.000000	105.1	110.3296
2720.000000	105.0	156.7073
2800.000000	104.7	-149.8356
2900.000000	104.2	-82.1559
3000.000000	103.6	-13.2307
3070.000000	103.1	35.9631
3150.000000	102.6	93.2195
3250.000000	102.1	166.0330
3350.000000	101.9	-120.6331
3450.000000	101.7	-47.5192
3550.000000	101.7	25.0248
3650.000000	101.8	96.6907
3750.000000	101.8	167.5479
3870.000000	101.6	-107.6296
4000.000000	101.3	-14.8430
4120.000000	100.9	72.0154
4250.000000	100.6	167.4194
4370.000000	100.5	-103.6318
4500.000000	100.5	-6.8369
4620.000000	100.8	82.3889
4750.000000	101.3	178.2476
4870.000000	101.9	-94.5977
5000.000000	102.6	-2.2007
5150.000000	103.3	101.6279
5300.000000	103.7	-156.7437
5450.000000	103.6	-55.9192
5600.000000	103.0	45.8337
5800.000000	101.8	-174.1011
6000.000000	100.7	-29.8044
6150.000000	100.2	79.1206
6300.000000	99.8	-172.7080
6500.000000	99.2	-28.9854
6700.000000	98.3	116.5571
6900.000000	97.5	-94.5249
7100.000000	97.3	56.4717
7300.000000	97.9	-153.0474
7500.000000	99.2	-5.6816
7750.000000	101.5	168.5894
8000.000000	102.7	-34.8896
8250.000000	100.9	119.2388
8500.000000	97.1	-69.3564
8750.000000	93.2	114.5215
9000.000000	90.2	-55.9155
9250.000000	88.0	136.0918
9500.000000	86.7	-32.0884
9750.000000	85.9	157.9111
10000.000000	85.2	-13.7129
10300.000000	84.5	-148.6963
10600.000000	83.7	76.4634
10900.000000	83.1	-58.1533
11200.000000	82.6	167.2319
11500.000000	82.1	33.1670
11800.000000	81.9	-100.0601
12200.000000	82.2	-157.3740
12500.000000	82.9	68.9355
12800.000000	84.3	-65.8994
13200.000000	87.2	-129.8457
13600.000000	90.8	154.9434
14000.000000	93.1	59.7998
14500.000000	91.9	23.0322
15000.000000	88.1	11.4561
15500.000000	85.7	7.9297
16000.000000	84.2	-3.9336
16500.000000	81.5	-18.0762
17000.000000	77.2	-20.6855
17500.000000	72.8	-11.5713
18000.000000	69.4	1.9365
18500.000000	67.4	14.2676
19000.000000	66.5	21.2803
19500.000000	66.0	20.8623
20000.000000	65.2	13.6182
20600.000000	63.1	66.4893
21200.000000	59.4	84.4629
21800.000000	55.5	-59.0400
