* Measurement data measured by REW V5.20
* Source: ASIO hdspfire, Analog 2 (1)
* Format: 256k Log Swept Sine, 1 sweep at -12.0 dBFS using a loopback as a timing reference
* Dated: 2022/01/20 16:27:25
* REW Settings:
*  C-weighting compensation: Off
*  Target level: 75.0 dB
* Note: Delay -2.0032 ms (-687 mm, -(2 ft 3.05 in))  relative to Loopback from 1: Analog 1 (1) to 1: Analog 1 (1) with no timing offset
* Measurement: SP Air 3 Pro PT L
* Smoothing: 1/12 octave
* Frequency Step: 1/24 octave
* Start Frequency: 20.000 Hz
*
* Freq(Hz)	SPL(dB)	Phase(degrees)
20.000000	90.8	-117.6828
20.600000	91.5	-122.5346
21.200001	92.1	-127.1580
21.799999	92.7	-131.8179
22.400000	93.3	-136.6051
23.000000	93.9	-141.2962
23.600000	94.3	-145.6514
24.299999	94.8	-150.3501
25.000000	95.3	-154.9454
25.799999	95.9	-160.2361
26.500000	96.3	-164.8125
27.200001	96.7	-169.3102
28.000000	97.1	-174.3897
29.000000	97.5	179.3893
30.000000	97.9	173.4510
30.700001	98.2	169.5016
31.500000	98.4	165.1275
32.500000	98.7	159.8368
33.500000	98.9	154.9227
34.500000	99.1	150.3256
35.500000	99.3	145.8722
36.500000	99.4	141.6497
37.500000	99.5	137.7068
38.700001	99.6	133.2344
40.000000	99.6	128.5914
41.200001	99.7	124.6895
42.500000	99.7	120.8188
43.700001	99.6	117.5099
45.000000	99.6	114.2192
46.200001	99.6	111.2614
47.500000	99.5	108.2944
48.700001	99.4	105.8275
50.000000	99.3	103.3812
51.500000	99.2	100.8198
53.000000	99.1	98.4807
54.500000	98.9	96.3911
56.000000	98.8	94.5458
58.000000	98.6	92.3926
60.000000	98.4	90.5951
61.500000	98.2	89.5142
63.000000	98.0	88.6404
65.000000	97.8	87.7448
67.000000	97.6	87.0438
69.000000	97.4	86.5958
71.000000	97.2	86.3791
73.000000	97.1	86.3597
75.000000	96.9	86.5247
77.500000	96.7	86.8441
80.000000	96.6	87.3281
82.500000	96.4	87.9683
85.000000	96.3	88.6165
87.500000	96.2	89.0440
90.000000	96.1	89.3518
92.500000	96.0	90.3049
95.000000	96.0	91.3494
97.500000	95.9	92.1578
100.000000	95.8	92.8030
103.000000	95.7	93.5427
106.000000	95.5	94.2932
109.000000	95.3	95.0425
112.000000	95.0	96.0398
115.000000	94.7	97.8685
118.000000	94.3	101.3862
122.000000	94.4	107.1318
125.000000	94.6	109.0931
128.000000	94.7	109.5446
132.000000	94.6	110.2905
136.000000	94.4	111.8195
140.000000	94.1	114.0298
145.000000	93.8	117.4311
150.000000	93.5	121.3949
155.000000	93.2	125.8428
160.000000	93.0	130.7490
165.000000	92.8	135.9545
170.000000	92.6	141.3411
175.000000	92.6	146.9440
180.000000	92.6	152.6552
185.000000	92.6	158.2479
190.000000	92.8	163.6685
195.000000	92.9	168.9098
200.000000	93.2	173.8681
206.000000	93.5	179.4584
212.000000	93.8	-175.3808
218.000000	94.1	-170.6799
224.000000	94.4	-166.3555
230.000000	94.7	-162.3539
236.000000	95.0	-158.6241
243.000000	95.3	-154.5615
250.000000	95.5	-150.6990
258.000000	95.7	-146.4061
265.000000	95.8	-142.7469
272.000000	95.9	-139.0931
280.000000	95.9	-134.8702
290.000000	95.9	-129.3553
300.000000	95.8	-123.4466
307.000000	95.7	-118.9176
315.000000	95.6	-113.3618
325.000000	95.4	-105.8500
335.000000	95.3	-97.8328
345.000000	95.3	-89.4822
355.000000	95.4	-81.0758
365.000000	95.6	-72.8599
375.000000	95.8	-65.0048
387.000000	96.1	-56.1050
400.000000	96.4	-47.2405
412.000000	96.7	-39.5214
425.000000	96.9	-31.5126
437.000000	97.0	-24.1953
450.000000	97.1	-16.2476
462.000000	97.2	-8.8257
475.000000	97.2	-0.6347
487.000000	97.2	7.0862
500.000000	97.2	15.5743
515.000000	97.3	25.4352
530.000000	97.3	35.3212
545.000000	97.3	45.2094
560.000000	97.3	55.0340
580.000000	97.3	68.0371
600.000000	97.2	81.0357
615.000000	97.1	90.8210
630.000000	97.1	100.6467
650.000000	96.9	113.8666
670.000000	96.7	127.2806
690.000000	96.5	140.9116
710.000000	96.3	154.7778
730.000000	96.0	168.8779
750.000000	95.8	-176.7953
775.000000	95.5	-158.5565
800.000000	95.2	-139.9515
825.000000	94.9	-121.0609
850.000000	94.6	-101.8821
875.000000	94.4	-82.4237
900.000000	94.1	-62.7355
925.000000	93.9	-42.8631
950.000000	93.8	-22.8230
975.000000	93.7	-2.6577
1000.000000	93.6	17.5936
1030.000000	93.5	41.9553
1060.000000	93.5	66.3704
1090.000000	93.5	90.7958
1120.000000	93.6	115.2079
1150.000000	93.7	139.5958
1180.000000	93.8	163.9415
1220.000000	94.0	-163.6668
1250.000000	94.2	-139.4473
1280.000000	94.5	-115.3342
1320.000000	94.9	-83.3940
1360.000000	95.3	-51.7081
1400.000000	95.8	-20.3340
1450.000000	96.5	18.3938
1500.000000	97.2	56.4993
1550.000000	98.0	93.9152
1600.000000	98.8	130.6210
1650.000000	99.6	166.6122
1700.000000	100.3	-158.1035
1750.000000	101.0	-123.3776
1800.000000	101.7	-88.5800
1850.000000	102.5	-54.6343
1900.000000	103.1	-21.8580
1950.000000	103.6	10.4534
2000.000000	104.0	42.6394
2060.000000	104.4	81.3205
2120.000000	104.6	120.2116
2180.000000	104.8	159.3552
2240.000000	104.9	-161.2566
2300.000000	105.0	-121.6582
2360.000000	105.0	-81.8309
2430.000000	105.0	-35.0619
2500.000000	105.1	11.6144
2580.000000	105.1	64.8826
2650.000000	105.0	110.8430
2720.000000	104.8	156.8535
2800.000000	104.4	-149.9347
2900.000000	103.8	-82.3199
3000.000000	103.0	-13.1604
3070.000000	102.5	36.3240
3150.000000	101.9	93.9994
3250.000000	101.3	167.4386
3350.000000	101.0	-118.5707
3450.000000	100.9	-44.8989
3550.000000	100.9	27.9745
3650.000000	101.0	99.7275
3750.000000	101.0	170.5688
3870.000000	100.9	-104.6294
4000.000000	100.5	-11.8831
4120.000000	100.2	74.8579
4250.000000	99.9	169.9055
4370.000000	99.7	-101.7078
4500.000000	99.8	-5.7678
4620.000000	100.0	82.4810
4750.000000	100.4	177.2488
4870.000000	100.9	-96.4407
5000.000000	101.5	-4.6514
5150.000000	102.0	98.5488
5300.000000	102.2	-160.6799
5450.000000	101.9	-60.4048
5600.000000	101.1	41.3601
5800.000000	99.6	-178.1250
6000.000000	98.2	-32.4746
6150.000000	97.3	78.8701
6300.000000	96.7	-168.9092
6500.000000	96.2	-18.4414
6700.000000	96.0	132.3145
6900.000000	96.3	-77.1479
7100.000000	96.9	72.6675
7300.000000	98.1	-139.1040
7500.000000	99.7	5.9399
7750.000000	102.1	177.9751
8000.000000	103.4	-25.0654
8250.000000	102.1	128.5850
8500.000000	98.9	-64.4648
8750.000000	95.4	114.5493
9000.000000	92.5	-60.5391
9250.000000	90.2	126.9072
9500.000000	88.4	-44.7119
9750.000000	87.1	143.7979
10000.000000	86.0	-28.1621
10300.000000	85.0	-163.1528
10600.000000	84.2	61.8496
10900.000000	83.5	-73.1982
11200.000000	83.0	151.5479
11500.000000	82.6	16.5806
11800.000000	82.3	-117.7080
12200.000000	82.5	-176.3457
12500.000000	83.2	49.3135
12800.000000	84.5	-85.9160
13200.000000	87.3	-150.1191
13600.000000	90.8	134.6592
14000.000000	93.2	39.9688
14500.000000	92.0	3.6240
15000.000000	88.6	-10.3311
15500.000000	86.2	-16.2480
16000.000000	84.6	-28.8242
16500.000000	81.8	-43.8145
17000.000000	77.6	-47.5332
17500.000000	73.0	-38.9980
18000.000000	69.5	-25.7578
18500.000000	67.6	-13.7393
19000.000000	66.7	-7.1592
19500.000000	66.2	-8.2559
20000.000000	65.3	-16.6738
20600.000000	63.2	35.8154
21200.000000	59.5	57.7480
21800.000000	55.9	-66.4434
