* Measurement data measured by REW V5.20
* Source: ASIO MOTU M Series, In 1
* Format: 256k Log Swept Sine, 1 sweep at -12.0 dBFS with no timing reference
* Dated: 2022/04/22 6:23:36
* REW Settings:
*  C-weighting compensation: Off
*  Target level: 75.0 dB
* Note: 
* Measurement: MINI PRO RC1
* Smoothing: 1/12 octave
* Frequency Step: 1/24 octave
* Start Frequency: 20.000 Hz
*
* Freq(Hz)	SPL(dB)	Phase(degrees)
20.000000	94.984	-82.0668
20.600000	95.273	-83.3775
21.200001	95.551	-84.7657
21.799999	95.814	-86.0586
22.400000	96.083	-87.2102
23.000000	96.371	-88.3370
23.600000	96.668	-89.5841
24.299999	97.004	-91.2315
25.000000	97.315	-93.0132
25.799999	97.641	-95.1283
26.500000	97.904	-96.9874
27.200001	98.157	-98.7875
28.000000	98.454	-100.8140
29.000000	98.826	-103.5369
30.000000	99.154	-106.3985
30.700001	99.359	-108.3334
31.500000	99.580	-110.4830
32.500000	99.830	-113.1354
33.500000	100.049	-115.7198
34.500000	100.244	-118.2593
35.500000	100.411	-120.7622
36.500000	100.561	-123.1596
37.500000	100.708	-125.5352
38.700001	100.861	-128.4053
40.000000	101.000	-131.3570
41.200001	101.117	-134.0008
42.500000	101.221	-136.7778
43.700001	101.304	-139.2473
45.000000	101.379	-141.8689
46.200001	101.434	-144.1861
47.500000	101.484	-146.5960
48.700001	101.522	-148.7390
50.000000	101.547	-151.0309
51.500000	101.548	-153.5429
53.000000	101.545	-155.9293
54.500000	101.534	-158.2870
56.000000	101.513	-160.5399
58.000000	101.478	-163.3214
60.000000	101.437	-165.9993
61.500000	101.386	-168.0095
63.000000	101.316	-169.9639
65.000000	101.215	-172.4531
67.000000	101.113	-174.8270
69.000000	101.010	-177.0728
71.000000	100.898	-179.1974
73.000000	100.773	178.7759
75.000000	100.636	176.8362
77.500000	100.453	174.5284
80.000000	100.261	172.3725
82.500000	100.061	170.3603
85.000000	99.852	168.3900
87.500000	99.635	166.4908
90.000000	99.410	164.7904
92.500000	99.190	163.3358
95.000000	98.959	161.8635
97.500000	98.714	160.4528
100.000000	98.467	159.1409
103.000000	98.164	157.7917
106.000000	97.851	156.5970
109.000000	97.534	155.5200
112.000000	97.216	154.5859
115.000000	96.895	153.7839
118.000000	96.568	153.1370
122.000000	96.132	152.5111
125.000000	95.806	152.2075
128.000000	95.485	152.0643
132.000000	95.054	152.1103
136.000000	94.631	152.3920
140.000000	94.218	152.8806
145.000000	93.723	153.8880
150.000000	93.268	155.2338
155.000000	92.838	156.8096
160.000000	92.453	158.6936
165.000000	92.110	160.8321
170.000000	91.809	163.1819
175.000000	91.551	165.6529
180.000000	91.338	168.2991
185.000000	91.172	171.1476
190.000000	91.087	174.1888
195.000000	91.114	177.1786
200.000000	91.234	179.8232
206.000000	91.423	-177.6723
212.000000	91.607	-175.8332
218.000000	91.777	-174.3663
224.000000	91.934	-173.1049
230.000000	92.085	-172.0020
236.000000	92.230	-171.0464
243.000000	92.389	-170.0964
250.000000	92.543	-169.3067
258.000000	92.711	-168.5916
265.000000	92.847	-168.0493
272.000000	92.975	-167.5883
280.000000	93.111	-167.1712
290.000000	93.265	-166.8093
300.000000	93.398	-166.5316
307.000000	93.480	-166.3848
315.000000	93.566	-166.2442
325.000000	93.660	-166.0909
335.000000	93.740	-165.9857
345.000000	93.812	-165.9103
355.000000	93.871	-165.8450
365.000000	93.917	-165.8011
375.000000	93.956	-165.7485
387.000000	93.994	-165.6146
400.000000	94.027	-165.4714
412.000000	94.049	-165.3322
425.000000	94.065	-165.1451
437.000000	94.073	-164.9529
450.000000	94.077	-164.7045
462.000000	94.079	-164.4514
475.000000	94.077	-164.1388
487.000000	94.070	-163.8412
500.000000	94.062	-163.4900
515.000000	94.049	-163.0317
530.000000	94.033	-162.5159
545.000000	94.018	-161.9474
560.000000	94.004	-161.3277
580.000000	93.988	-160.3992
600.000000	93.982	-159.3778
615.000000	93.996	-158.5661
630.000000	94.025	-157.7628
650.000000	94.081	-156.8226
670.000000	94.133	-156.0948
690.000000	94.155	-155.4338
710.000000	94.152	-154.6581
730.000000	94.143	-153.7086
750.000000	94.141	-152.6065
775.000000	94.160	-151.0652
800.000000	94.204	-149.4130
825.000000	94.272	-147.6803
850.000000	94.365	-145.9191
875.000000	94.484	-144.1518
900.000000	94.630	-142.4073
925.000000	94.801	-140.7107
950.000000	94.997	-139.0972
975.000000	95.215	-137.5895
1000.000000	95.452	-136.2023
1030.000000	95.758	-134.7157
1060.000000	96.077	-133.4451
1090.000000	96.405	-132.4022
1120.000000	96.735	-131.5951
1150.000000	97.059	-131.0046
1180.000000	97.374	-130.5954
1220.000000	97.776	-130.2812
1250.000000	98.062	-130.1805
1280.000000	98.334	-130.1670
1320.000000	98.675	-130.2437
1360.000000	98.995	-130.3895
1400.000000	99.299	-130.5762
1450.000000	99.657	-130.8290
1500.000000	100.001	-131.0927
1550.000000	100.337	-131.3616
1600.000000	100.672	-131.6404
1650.000000	101.009	-131.9452
1700.000000	101.353	-132.2848
1750.000000	101.709	-132.6889
1800.000000	102.082	-133.2091
1850.000000	102.472	-133.9198
1900.000000	102.876	-134.9234
1950.000000	103.274	-136.2813
2000.000000	103.653	-137.9627
2060.000000	104.075	-140.4065
2120.000000	104.435	-143.3619
2180.000000	104.696	-146.6909
2240.000000	104.843	-150.0686
2300.000000	104.895	-153.2189
2360.000000	104.874	-156.0677
2430.000000	104.753	-158.9549
2500.000000	104.563	-160.6959
2580.000000	104.487	-161.9930
2650.000000	104.443	-163.4540
2720.000000	104.374	-164.8610
2800.000000	104.265	-166.0980
2900.000000	104.211	-166.8608
3000.000000	104.265	-168.1081
3070.000000	104.282	-169.2110
3150.000000	104.283	-170.4933
3250.000000	104.265	-172.0985
3350.000000	104.223	-173.6892
3450.000000	104.156	-175.2157
3550.000000	104.068	-176.6307
3650.000000	103.962	-177.9085
3750.000000	103.841	-179.0289
3870.000000	103.682	179.8673
4000.000000	103.506	179.0045
4120.000000	103.352	178.5225
4250.000000	103.208	178.3330
4370.000000	103.114	178.4579
4500.000000	103.079	178.8342
4620.000000	103.113	179.2007
4750.000000	103.193	179.4865
4870.000000	103.306	179.6836
5000.000000	103.486	179.7924
5150.000000	103.785	179.5790
5300.000000	104.184	178.6747
5450.000000	104.666	176.6253
5600.000000	105.153	172.7852
5800.000000	105.519	164.4097
6000.000000	105.174	154.1970
6150.000000	104.401	147.9440
6300.000000	103.362	144.3077
6500.000000	101.892	143.5730
6700.000000	100.650	146.7341
6900.000000	99.887	151.6404
7100.000000	99.547	157.0417
7300.000000	99.643	162.5215
7500.000000	100.183	167.1335
7750.000000	101.490	170.5203
8000.000000	103.535	169.0107
8250.000000	105.730	157.0987
8500.000000	106.652	131.5421
8750.000000	105.247	103.9479
9000.000000	102.117	88.8801
9250.000000	98.584	85.3092
9500.000000	95.452	87.5942
9750.000000	92.885	92.5121
10000.000000	90.780	98.7432
10300.000000	88.719	107.1263
10600.000000	87.055	116.1308
10900.000000	85.696	125.5076
11200.000000	84.607	135.1544
11500.000000	83.762	145.0232
11800.000000	83.159	155.0143
12200.000000	82.722	168.3402
12500.000000	82.661	178.1829
12800.000000	82.865	-172.2535
13200.000000	83.618	-160.5916
13600.000000	85.007	-150.9238
14000.000000	87.259	-144.4621
14500.000000	91.293	-146.7237
15000.000000	93.970	-177.1539
15500.000000	91.910	144.8617
16000.000000	86.895	136.6641
16500.000000	82.480	143.7305
17000.000000	79.812	154.3205
17500.000000	78.489	165.1559
18000.000000	78.479	173.5727
18500.000000	79.919	175.2382
19000.000000	81.826	159.6621
19500.000000	81.784	124.6946
