* Measurement data measured by REW V5.20
* Source: ASIO MOTU M Series, In 1
* Format: 256k Log Swept Sine, 1 sweep at -12.0 dBFS with no timing reference
* Dated: 2022/04/22 6:21:24
* REW Settings:
*  C-weighting compensation: Off
*  Target level: 75.0 dB
* Note: 
* Measurement: MINI PRO ANC LC1
* Smoothing: 1/12 octave
* Frequency Step: 1/24 octave
* Start Frequency: 20.000 Hz
*
* Freq(Hz)	SPL(dB)	Phase(degrees)
20.000000	97.532	-88.2650
20.600000	97.616	-90.8445
21.200001	97.680	-92.9631
21.799999	97.767	-94.7886
22.400000	97.873	-96.5688
23.000000	97.972	-98.3680
23.600000	98.049	-100.0578
24.299999	98.131	-101.7283
25.000000	98.236	-103.1167
25.799999	98.391	-104.6321
26.500000	98.530	-105.9804
27.200001	98.662	-107.2293
28.000000	98.826	-108.4694
29.000000	99.071	-109.9998
30.000000	99.321	-111.7271
30.700001	99.483	-112.9593
31.500000	99.665	-114.3099
32.500000	99.904	-115.9984
33.500000	100.143	-117.8181
34.500000	100.362	-119.7298
35.500000	100.565	-121.6072
36.500000	100.766	-123.4748
37.500000	100.958	-125.3932
38.700001	101.168	-127.7060
40.000000	101.374	-130.2045
41.200001	101.544	-132.4681
42.500000	101.712	-134.8938
43.700001	101.849	-137.1210
45.000000	101.984	-139.5062
46.200001	102.095	-141.6893
47.500000	102.205	-143.9977
48.700001	102.301	-146.1001
50.000000	102.386	-148.3982
51.500000	102.451	-150.9318
53.000000	102.505	-153.3538
54.500000	102.545	-155.7549
56.000000	102.572	-158.1008
58.000000	102.594	-161.1443
60.000000	102.594	-164.0673
61.500000	102.582	-166.1691
63.000000	102.560	-168.2156
65.000000	102.518	-170.8739
67.000000	102.461	-173.4615
69.000000	102.388	-175.9529
71.000000	102.301	-178.3419
73.000000	102.200	179.3544
75.000000	102.088	177.1399
77.500000	101.935	174.4910
80.000000	101.769	171.9803
82.500000	101.587	169.6147
85.000000	101.392	167.3655
87.500000	101.184	165.2112
90.000000	100.965	163.1909
92.500000	100.740	161.3174
95.000000	100.506	159.5613
97.500000	100.263	157.9276
100.000000	100.014	156.3826
103.000000	99.699	154.6827
106.000000	99.379	153.1517
109.000000	99.054	151.7733
112.000000	98.721	150.5583
115.000000	98.383	149.5048
118.000000	98.042	148.6186
122.000000	97.583	147.6688
125.000000	97.237	147.1186
128.000000	96.893	146.7451
132.000000	96.440	146.5071
136.000000	95.992	146.5339
140.000000	95.554	146.8387
145.000000	95.028	147.5671
150.000000	94.534	148.6688
155.000000	94.084	150.0961
160.000000	93.679	151.8156
165.000000	93.323	153.7841
170.000000	93.020	155.9229
175.000000	92.773	158.1673
180.000000	92.581	160.4643
185.000000	92.443	162.7321
190.000000	92.349	164.9230
195.000000	92.297	167.0044
200.000000	92.283	168.9412
206.000000	92.302	171.0857
212.000000	92.354	172.9933
218.000000	92.430	174.6758
224.000000	92.519	176.1451
230.000000	92.614	177.3872
236.000000	92.712	178.4333
243.000000	92.817	179.4264
250.000000	92.910	-179.7386
258.000000	93.018	-178.7299
265.000000	93.119	-177.9139
272.000000	93.228	-177.2410
280.000000	93.356	-176.6616
290.000000	93.506	-176.1809
300.000000	93.637	-175.8825
307.000000	93.714	-175.7314
315.000000	93.793	-175.6236
325.000000	93.883	-175.5481
335.000000	93.960	-175.5158
345.000000	94.022	-175.5450
355.000000	94.077	-175.6144
365.000000	94.128	-175.7046
375.000000	94.169	-175.8257
387.000000	94.204	-176.0342
400.000000	94.225	-176.3082
412.000000	94.232	-176.5903
425.000000	94.224	-176.9115
437.000000	94.202	-177.2160
450.000000	94.163	-177.5365
462.000000	94.104	-177.8078
475.000000	94.021	-178.0662
487.000000	93.932	-178.2526
500.000000	93.820	-178.3694
515.000000	93.674	-178.3853
530.000000	93.512	-178.2395
545.000000	93.339	-177.9277
560.000000	93.166	-177.4531
580.000000	92.939	-176.5580
600.000000	92.719	-175.3835
615.000000	92.567	-174.3604
630.000000	92.429	-173.2274
650.000000	92.267	-171.5755
670.000000	92.132	-169.8551
690.000000	92.019	-168.0976
710.000000	91.919	-166.3066
730.000000	91.829	-164.4843
750.000000	91.745	-162.6206
775.000000	91.650	-160.1415
800.000000	91.571	-157.4186
825.000000	91.537	-154.4264
850.000000	91.565	-151.2805
875.000000	91.658	-148.1266
900.000000	91.806	-145.0819
925.000000	92.001	-142.1909
950.000000	92.236	-139.4830
975.000000	92.505	-136.9667
1000.000000	92.802	-134.6655
1030.000000	93.189	-132.2140
1060.000000	93.597	-130.1226
1090.000000	94.016	-128.3991
1120.000000	94.439	-127.0167
1150.000000	94.857	-125.9447
1180.000000	95.261	-125.1491
1220.000000	95.771	-124.4450
1250.000000	96.130	-124.1167
1280.000000	96.466	-123.9063
1320.000000	96.881	-123.7554
1360.000000	97.261	-123.6997
1400.000000	97.612	-123.6885
1450.000000	98.019	-123.6740
1500.000000	98.402	-123.6224
1550.000000	98.773	-123.5092
1600.000000	99.142	-123.3624
1650.000000	99.519	-123.2137
1700.000000	99.905	-123.0941
1750.000000	100.306	-123.0464
1800.000000	100.728	-123.1501
1850.000000	101.167	-123.4938
1900.000000	101.614	-124.1282
1950.000000	102.057	-125.0313
2000.000000	102.490	-126.1861
2060.000000	102.990	-127.9678
2120.000000	103.447	-130.3054
2180.000000	103.814	-133.1532
2240.000000	104.069	-136.2030
2300.000000	104.218	-139.1888
2360.000000	104.247	-141.7998
2430.000000	104.250	-143.5385
2500.000000	104.371	-145.0568
2580.000000	104.503	-147.1097
2650.000000	104.594	-148.8183
2720.000000	104.681	-150.3963
2800.000000	104.784	-152.1037
2900.000000	104.922	-154.2145
3000.000000	105.069	-156.4922
3070.000000	105.162	-158.3219
3150.000000	105.227	-160.6591
3250.000000	105.209	-163.4141
3350.000000	105.205	-165.6312
3450.000000	105.199	-168.2811
3550.000000	105.099	-170.9223
3650.000000	104.940	-173.1730
3750.000000	104.753	-175.0065
3870.000000	104.519	-176.7078
4000.000000	104.277	-178.0080
4120.000000	104.079	-178.7718
4250.000000	103.908	-179.1934
4370.000000	103.805	-179.2598
4500.000000	103.761	-179.1323
4620.000000	103.775	-179.0072
4750.000000	103.832	-178.9194
4870.000000	103.918	-178.7810
5000.000000	104.084	-178.4236
5150.000000	104.447	-177.9962
5300.000000	105.034	-178.1796
5450.000000	105.835	179.9915
5600.000000	106.729	175.1826
5800.000000	107.515	162.5922
6000.000000	107.049	146.4722
6150.000000	105.828	137.5699
6300.000000	104.249	133.7953
6500.000000	102.368	134.4799
6700.000000	100.913	138.0222
6900.000000	99.906	144.0294
7100.000000	99.464	150.8739
7300.000000	99.551	157.4266
7500.000000	100.133	162.9327
7750.000000	101.581	167.2075
8000.000000	103.879	165.8872
8250.000000	106.311	152.2725
8500.000000	107.076	123.1317
8750.000000	105.154	95.2239
9000.000000	101.565	82.7965
9250.000000	97.862	81.3773
9500.000000	94.740	84.8088
9750.000000	92.213	90.5716
10000.000000	90.157	97.5039
10300.000000	88.144	106.7683
10600.000000	86.512	116.7248
10900.000000	85.196	126.9939
11200.000000	84.157	137.5002
11500.000000	83.384	147.9627
11800.000000	82.830	158.3204
12200.000000	82.451	172.1576
12500.000000	82.473	-177.7125
12800.000000	82.771	-168.1087
13200.000000	83.625	-156.3075
13600.000000	85.238	-146.1051
14000.000000	87.968	-139.7383
14500.000000	92.343	-146.9563
15000.000000	93.954	174.9646
15500.000000	90.667	144.0034
16000.000000	85.696	140.7322
16500.000000	81.779	148.2534
17000.000000	79.365	159.1378
17500.000000	78.354	170.1216
18000.000000	78.772	177.6461
18500.000000	80.530	175.2552
19000.000000	81.879	151.8595
19500.000000	80.468	117.3102
