* Measurement data measured by REW V5.20
* Source: ASIO MOTU M Series, In 1
* Format: 256k Log Swept Sine, 1 sweep at -12.0 dBFS using a loopback as a timing reference
* Dated: 2022/02/07 16:47:07
* REW Settings:
*  C-weighting compensation: Off
*  Target level: 75.0 dB
* Note: Delay 608.7285 ms (208.794 m, 685 ft)  relative to Loopback from 1: Out 1 to 2: In 2 with no timing offset
* Measurement: Moondrop Starfield L
* Smoothing: 1/12 octave
* Frequency Step: 1/24 octave
* Start Frequency: 20.000 Hz
*
* Freq(Hz)	SPL(dB)	Phase(degrees)
20.000000	99.3	168.4946
20.600000	99.4	35.5298
21.200001	99.4	-97.2534
21.799999	99.5	129.9917
22.400000	99.7	-2.9297
23.000000	99.8	-136.0029
23.600000	99.8	90.9854
24.299999	99.9	-63.9155
25.000000	99.9	141.4150
25.799999	100.0	-35.3237
26.500000	100.0	169.9756
27.200001	100.0	15.3027
28.000000	100.1	-161.3418
29.000000	100.1	-22.0342
30.000000	100.2	117.2466
30.700001	100.2	-37.2017
31.500000	100.2	146.4028
32.500000	100.3	-74.0850
33.500000	100.3	65.3379
34.500000	100.3	-155.2056
35.500000	100.3	-15.7134
36.500000	100.4	123.7959
37.500000	100.4	-96.9131
38.700001	100.3	-1.4131
40.000000	100.2	72.9824
41.200001	100.3	168.9570
42.500000	100.4	-117.2471
43.700001	100.4	-21.3369
45.000000	100.4	52.6582
46.200001	100.4	148.6318
47.500000	100.3	-137.3701
48.700001	100.3	-41.3447
50.000000	100.3	32.7471
51.500000	100.3	62.9014
53.000000	100.2	93.0762
54.500000	100.2	123.3008
56.000000	100.2	153.5420
58.000000	100.2	73.9277
60.000000	100.1	-5.4922
61.500000	100.1	24.9863
63.000000	100.0	55.4551
65.000000	100.0	-23.8975
67.000000	99.9	-103.2354
69.000000	99.9	177.4678
71.000000	99.8	98.3047
73.000000	99.7	19.2227
75.000000	99.7	-59.9219
77.500000	99.6	111.1133
80.000000	99.5	-77.7031
82.500000	99.4	93.6523
85.000000	99.4	-95.1504
87.500000	99.3	75.5449
90.000000	99.3	-113.9727
92.500000	99.2	57.7344
95.000000	99.1	-129.9551
97.500000	99.0	41.8672
100.000000	98.9	-146.6797
103.000000	98.8	-84.8750
106.000000	98.7	-22.9219
109.000000	98.6	38.9922
112.000000	98.5	100.9590
115.000000	98.4	162.9922
118.000000	98.3	-134.9863
122.000000	98.1	67.7793
125.000000	98.1	129.8984
128.000000	98.0	-167.9531
132.000000	97.8	35.0430
136.000000	97.7	-121.8633
140.000000	97.5	81.3672
145.000000	97.4	65.5488
150.000000	97.3	49.9844
155.000000	97.2	34.5000
160.000000	97.2	18.7578
165.000000	97.3	2.6250
170.000000	97.2	-13.6914
175.000000	97.1	-30.0781
180.000000	96.9	-46.5000
185.000000	96.8	-62.8281
190.000000	96.8	-79.0312
195.000000	96.7	-95.1562
200.000000	96.6	-111.2148
206.000000	96.5	13.5742
212.000000	96.4	138.3984
218.000000	96.3	-96.7148
224.000000	96.2	28.2031
230.000000	96.1	153.1289
236.000000	96.0	-81.9219
243.000000	95.9	-176.1133
250.000000	95.8	89.6992
258.000000	95.7	136.4023
265.000000	95.6	42.2734
272.000000	95.5	-51.8281
280.000000	95.4	-5.0703
290.000000	95.3	-36.5859
300.000000	95.2	-68.0781
307.000000	95.1	-162.1328
315.000000	95.1	-115.3359
325.000000	95.0	-146.8047
335.000000	94.9	-178.2812
345.000000	94.8	150.2812
355.000000	94.7	118.8281
365.000000	94.7	87.3594
375.000000	94.6	55.9219
387.000000	94.5	-53.7969
400.000000	94.4	-22.6719
412.000000	94.4	-132.3750
425.000000	94.3	-101.2188
437.000000	94.3	149.0938
450.000000	94.2	-179.7422
462.000000	94.2	70.5625
475.000000	94.1	101.7109
487.000000	94.1	-7.9844
500.000000	94.0	23.1719
515.000000	94.0	-23.9219
530.000000	94.0	-71.0391
545.000000	94.0	-118.1562
560.000000	93.9	-165.2734
580.000000	93.9	131.9375
600.000000	93.9	69.1562
615.000000	93.9	22.0469
630.000000	93.9	-25.0312
650.000000	93.8	-87.7812
670.000000	93.9	-150.5312
690.000000	93.9	146.7500
710.000000	93.9	84.0312
730.000000	93.9	21.3281
750.000000	94.0	-41.3594
775.000000	94.0	-119.7031
800.000000	94.1	161.9844
825.000000	94.2	83.6562
850.000000	94.3	5.3125
875.000000	94.5	-73.0625
900.000000	94.6	-151.5000
925.000000	94.8	129.9844
950.000000	94.9	51.3594
975.000000	95.1	-27.4688
1000.000000	95.3	-106.3906
1030.000000	95.5	158.7656
1060.000000	95.8	63.8594
1090.000000	96.0	-31.2344
1120.000000	96.3	-126.5938
1150.000000	96.5	137.8438
1180.000000	96.7	42.1406
1220.000000	97.0	-85.6250
1250.000000	97.2	178.4375
1280.000000	97.5	82.4375
1320.000000	97.7	-45.7500
1360.000000	98.0	-173.9688
1400.000000	98.2	57.7812
1450.000000	98.5	-102.5625
1500.000000	98.8	97.1562
1550.000000	99.1	-63.0625
1600.000000	99.4	136.7188
1650.000000	99.6	-23.5000
1700.000000	99.7	176.2812
1750.000000	99.8	15.9688
1800.000000	100.1	-144.3750
1850.000000	100.4	55.1875
1900.000000	100.7	-105.3438
1950.000000	101.0	94.0938
2000.000000	101.3	-66.6250
2060.000000	101.6	100.3750
2120.000000	101.9	-92.7500
2180.000000	102.2	73.9375
2240.000000	102.5	-119.5625
2300.000000	102.8	46.8438
2360.000000	103.1	-147.0000
2430.000000	103.3	-13.1875
2500.000000	103.5	120.3750
2580.000000	103.7	-138.5000
2650.000000	103.8	-5.0625
2720.000000	103.9	128.5000
2800.000000	103.9	-130.3125
2900.000000	103.9	-93.6250
3000.000000	103.8	-56.6250
3070.000000	103.7	77.4375
3150.000000	103.5	179.5000
3250.000000	103.4	-142.5000
3350.000000	103.2	-104.1875
3450.000000	103.1	-65.6250
3550.000000	102.8	-26.6875
3650.000000	102.6	12.3750
3750.000000	102.4	51.7500
3870.000000	102.2	27.1250
4000.000000	102.1	-29.3750
4120.000000	102.0	-53.7500
4250.000000	101.8	-110.1250
4370.000000	101.7	-134.6250
4500.000000	101.6	168.8750
4620.000000	101.5	144.2500
4750.000000	101.4	87.5000
4870.000000	101.3	62.7500
5000.000000	101.2	5.7500
5150.000000	101.1	-115.5000
5300.000000	101.0	123.3750
5450.000000	100.8	2.3750
5600.000000	100.5	-118.5000
5800.000000	100.1	-39.0000
6000.000000	99.8	41.1250
6150.000000	99.6	-78.6250
6300.000000	99.4	161.7500
6500.000000	99.2	-117.5000
6700.000000	99.1	-36.3750
6900.000000	99.2	44.6250
7100.000000	99.4	125.0000
7300.000000	99.9	-156.1250
7500.000000	100.6	-79.3750
7750.000000	101.9	-168.8750
8000.000000	102.7	95.7500
8250.000000	102.1	-0.8750
8500.000000	100.1	-92.6250
8750.000000	97.5	-177.6250
9000.000000	94.8	102.5000
9250.000000	92.4	25.8750
9500.000000	90.4	-48.7500
9750.000000	88.5	-121.7500
10000.000000	86.9	166.7500
10300.000000	85.2	-61.7500
10600.000000	83.8	72.5000
10900.000000	83.0	-149.5000
11200.000000	83.6	-12.5000
11500.000000	85.0	118.7500
11800.000000	86.0	-117.2500
12200.000000	86.4	46.0000
12500.000000	86.6	170.7500
12800.000000	86.9	-63.2500
13200.000000	87.7	105.7500
13600.000000	89.4	-85.5000
14000.000000	92.3	80.2500
14500.000000	97.2	-84.5000
15000.000000	100.1	81.5000
15500.000000	98.4	-116.7500
16000.000000	94.5	70.0000
16500.000000	91.4	-92.2500
17000.000000	89.4	105.5000
17500.000000	87.4	-57.5000
18000.000000	85.0	141.5000
18500.000000	82.3	-15.0000
19000.000000	79.4	-165.2500
19500.000000	76.7	49.5000
20000.000000	74.2	-83.0000
20600.000000	71.7	38.0000
21200.000000	70.8	-141.0000
21800.000000	71.4	97.0000
