* Measurement data measured by REW V5.20
* Source: ASIO MOTU M Series, In 1
* Format: 256k Log Swept Sine, 1 sweep at -12.0 dBFS using a loopback as a timing reference
* Dated: 2022/02/11 14:32:11
* REW Settings:
*  C-weighting compensation: Off
*  Target level: 75.0 dB
* Note: Delay 10.5777 ms (3.628 m, 11 ft 10.8 in)  relative to Loopback from 1: Out 1 to 3: Loopback 1 with no timing offset
* Measurement: TFZ TB MONICA L
* Smoothing: 1/12 octave
* Frequency Step: 1/24 octave
* Start Frequency: 20.000 Hz
*
* Freq(Hz)	SPL(dB)	Phase(degrees)
20.000000	104.9	143.8444
20.600000	105.0	140.0561
21.200001	105.0	136.3034
21.799999	105.1	132.6103
22.400000	105.1	128.9624
23.000000	105.2	125.3528
23.600000	105.3	121.8060
24.299999	105.3	117.7675
25.000000	105.4	113.7921
25.799999	105.4	109.2534
26.500000	105.4	105.3043
27.200001	105.4	101.4093
28.000000	105.4	96.9977
29.000000	105.5	91.5268
30.000000	105.5	86.1658
30.700001	105.5	82.4660
31.500000	105.5	78.2702
32.500000	105.5	73.0753
33.500000	105.5	67.9410
34.500000	105.5	62.8754
35.500000	105.5	57.8553
36.500000	105.5	52.8470
37.500000	105.5	47.8846
38.700001	105.5	41.9630
40.000000	105.4	35.5417
41.200001	105.4	29.7394
42.500000	105.4	23.5059
43.700001	105.4	17.8167
45.000000	105.3	11.7234
46.200001	105.3	6.1226
47.500000	105.3	0.0947
48.700001	105.2	-5.4171
50.000000	105.2	-11.3413
51.500000	105.1	-18.1448
53.000000	105.1	-24.9188
54.500000	105.0	-31.6494
56.000000	105.0	-38.3683
58.000000	104.9	-47.3116
60.000000	104.8	-56.1801
61.500000	104.8	-62.7865
63.000000	104.7	-69.3554
65.000000	104.7	-78.0598
67.000000	104.6	-86.7126
69.000000	104.5	-95.3206
71.000000	104.4	-103.8793
73.000000	104.3	-112.3911
75.000000	104.2	-120.8677
77.500000	104.1	-131.4150
80.000000	104.0	-141.9067
82.500000	103.9	-152.3277
85.000000	103.8	-162.7199
87.500000	103.7	-173.1343
90.000000	103.5	176.4716
92.500000	103.4	166.2919
95.000000	103.3	156.1620
97.500000	103.2	146.0203
100.000000	103.1	135.8814
103.000000	103.0	123.7402
106.000000	102.9	111.6537
109.000000	102.7	99.6017
112.000000	102.6	87.5871
115.000000	102.5	75.6161
118.000000	102.3	63.6752
122.000000	102.2	47.8015
125.000000	102.0	35.9382
128.000000	101.9	24.1000
132.000000	101.7	8.3615
136.000000	101.6	-7.3346
140.000000	101.4	-22.9869
145.000000	101.2	-42.4942
150.000000	101.1	-61.9357
155.000000	100.9	-81.3405
160.000000	100.7	-100.7018
165.000000	100.6	-119.9958
170.000000	100.4	-139.2437
175.000000	100.1	-158.4626
180.000000	99.9	-177.6442
185.000000	99.7	163.2094
190.000000	99.6	144.1023
195.000000	99.5	125.0284
200.000000	99.3	105.9749
206.000000	99.2	83.1362
212.000000	99.0	60.3667
218.000000	98.8	37.6389
224.000000	98.6	14.9508
230.000000	98.4	-7.6937
236.000000	98.3	-30.2883
243.000000	98.1	-56.6008
250.000000	98.0	-82.8861
258.000000	97.8	-112.8914
265.000000	97.7	-139.1512
272.000000	97.5	-165.4893
280.000000	97.4	164.3433
290.000000	97.2	126.6282
300.000000	97.0	88.9260
307.000000	96.9	62.5601
315.000000	96.7	32.4689
325.000000	96.6	-5.0925
335.000000	96.4	-42.6223
345.000000	96.2	-80.1130
355.000000	96.1	-117.5641
365.000000	95.9	-154.9819
375.000000	95.8	167.6222
387.000000	95.6	122.7655
400.000000	95.4	74.1989
412.000000	95.2	29.3846
425.000000	95.1	-19.1403
437.000000	95.0	-63.9214
450.000000	94.8	-112.4224
462.000000	94.7	-157.1628
475.000000	94.6	154.3755
487.000000	94.4	109.6465
500.000000	94.3	61.1973
515.000000	94.2	5.3157
530.000000	94.1	-50.5559
545.000000	94.0	-106.4219
560.000000	93.9	-162.2715
580.000000	93.8	123.2830
600.000000	93.7	48.8535
615.000000	93.6	-6.9570
630.000000	93.5	-62.7585
650.000000	93.5	-137.1487
670.000000	93.4	148.4917
690.000000	93.3	74.1506
710.000000	93.3	-0.1741
730.000000	93.3	-74.4841
750.000000	93.3	-148.7832
775.000000	93.3	118.3379
800.000000	93.3	25.4473
825.000000	93.4	-67.4824
850.000000	93.4	-160.3950
875.000000	93.5	106.8752
900.000000	93.6	14.1726
925.000000	93.7	-78.6904
950.000000	93.9	-171.7041
975.000000	94.1	95.1501
1000.000000	94.3	1.8779
1030.000000	94.6	-110.2310
1060.000000	94.8	137.4468
1090.000000	95.1	24.8965
1120.000000	95.4	-87.9111
1150.000000	95.8	159.0015
1180.000000	96.1	45.6182
1220.000000	96.5	-106.0337
1250.000000	96.8	139.8433
1280.000000	97.1	25.3242
1320.000000	97.4	-128.0166
1360.000000	97.4	79.3555
1400.000000	97.4	-70.7769
1450.000000	98.0	100.9453
1500.000000	98.5	-88.9209
1550.000000	99.0	80.8838
1600.000000	99.5	-109.3677
1650.000000	99.9	60.3252
1700.000000	100.1	-130.0791
1750.000000	100.4	39.3809
1800.000000	100.8	-151.3345
1850.000000	101.3	17.7378
1900.000000	101.8	-173.4360
1950.000000	102.3	-4.8848
2000.000000	102.8	163.3662
2060.000000	103.3	-67.1504
2120.000000	103.8	61.8760
2180.000000	104.2	-169.5332
2240.000000	104.5	-41.3096
2300.000000	104.8	86.6465
2360.000000	105.0	-145.5312
2430.000000	105.1	-56.3770
2500.000000	105.0	33.0254
2580.000000	104.8	84.3037
2650.000000	104.6	174.7607
2720.000000	104.3	-94.1895
2800.000000	104.0	-40.8535
2900.000000	103.6	-63.2217
3000.000000	103.2	-84.6875
3070.000000	102.9	8.7256
3150.000000	102.7	64.4160
3250.000000	102.5	44.4590
3350.000000	102.4	24.8623
3450.000000	102.4	5.5137
3550.000000	102.3	-13.6914
3650.000000	102.4	-32.8604
3750.000000	102.5	-52.0850
3870.000000	102.9	-147.3486
4000.000000	103.4	79.0156
4120.000000	104.0	-17.3037
4250.000000	104.8	-152.7617
4370.000000	105.6	108.3770
4500.000000	106.5	-31.0137
4620.000000	107.3	-134.5469
4750.000000	107.7	80.7012
4870.000000	107.6	-26.4102
5000.000000	107.1	-171.6895
5150.000000	105.9	-31.6035
5300.000000	104.5	112.4570
5450.000000	103.0	-100.1895
5600.000000	101.7	49.4238
5800.000000	100.2	11.1289
6000.000000	99.2	-25.6113
6150.000000	98.6	127.4512
6300.000000	98.2	-79.1641
6500.000000	97.9	-114.4180
6700.000000	98.0	-149.6758
6900.000000	98.4	174.7090
7100.000000	99.3	138.1172
7300.000000	100.8	99.3145
7500.000000	103.0	55.6133
7750.000000	106.0	166.9629
8000.000000	106.7	-96.2051
8250.000000	104.4	9.1074
8500.000000	100.9	131.5781
8750.000000	97.6	-95.9766
9000.000000	95.3	39.3828
9250.000000	93.7	174.7539
9500.000000	92.6	-48.7383
9750.000000	91.9	88.3203
10000.000000	91.6	-134.6875
10300.000000	92.0	172.9570
10600.000000	93.1	118.6094
10900.000000	95.0	59.3828
11200.000000	97.2	-10.5312
11500.000000	98.2	-94.1719
11800.000000	96.8	-179.2539
12200.000000	92.7	87.2695
12500.000000	89.5	29.0977
12800.000000	87.0	-24.7852
13200.000000	84.9	-94.5156
13600.000000	83.8	-164.1641
14000.000000	83.4	125.8867
14500.000000	84.5	37.6758
15000.000000	88.0	-56.6016
15500.000000	91.6	-174.8750
16000.000000	91.3	43.7188
16500.000000	87.3	-78.7812
17000.000000	82.6	177.8672
17500.000000	78.0	97.9453
18000.000000	77.1	21.4062
18500.000000	79.3	-68.0859
19000.000000	81.4	-175.3359
19500.000000	81.5	64.1406
20000.000000	79.6	-52.9844
20600.000000	75.9	-178.7969
21200.000000	72.0	114.5078
21800.000000	68.5	117.4219
