* Measurement data measured by REW V5.20
* Source: ASIO hdspfire, Analog 1 (1)
* Format: 256k Log Swept Sine, 1 sweep at -12.0 dBFS using a loopback as a timing reference
* Dated: 2021/10/17 12:52:11
* REW Settings:
*  C-weighting compensation: Off
*  Target level: 75.0 dB
* Note: Delay -0.0129 ms (-4.4 mm, -0.17 in)  relative to Loopback from 1: Analog 1 (1) to 2: Analog 2 (1) with no timing offset
* Measurement: ThieAudio Legacy 2 L
* Smoothing: None
* Frequency Step: 1/24 octave
* Start Frequency: 20.000 Hz
*
* Freq(Hz)	SPL(dB)	Phase(degrees)
20.000000	97.7	70.8280
20.600000	97.8	68.3057
21.200001	98.0	65.9597
21.799999	98.1	63.7072
22.400000	98.2	61.4805
23.000000	98.3	59.3095
23.600000	98.4	57.2401
24.299999	98.5	54.9296
25.000000	98.7	52.6443
25.799999	98.8	50.0765
26.500000	98.8	47.9557
27.200001	98.9	45.9547
28.000000	99.0	43.7534
29.000000	99.1	41.0510
30.000000	99.2	38.3503
30.700001	99.2	36.5977
31.500000	99.2	34.7319
32.500000	99.3	32.3060
33.500000	99.4	30.0203
34.500000	99.4	27.8565
35.500000	99.4	25.6725
36.500000	99.4	23.7958
37.500000	99.5	21.8767
38.700001	99.5	19.5717
40.000000	99.5	17.4411
41.200001	99.5	15.3666
42.500000	99.5	13.0208
43.700001	99.5	11.3270
45.000000	99.5	9.5150
46.200001	99.5	7.7336
47.500000	99.5	5.7520
48.700001	99.4	4.1194
50.000000	99.4	2.8308
51.500000	99.4	0.7090
53.000000	99.4	-0.9792
54.500000	99.3	-2.9532
56.000000	99.3	-4.6387
58.000000	99.2	-6.7586
60.000000	99.2	-8.8810
61.500000	99.1	-10.0532
63.000000	99.1	-11.9037
65.000000	99.1	-13.2916
67.000000	98.9	-15.4357
69.000000	99.0	-17.0946
71.000000	98.8	-18.5212
73.000000	98.9	-20.2523
75.000000	98.7	-21.4936
77.500000	98.7	-23.5186
80.000000	98.6	-25.2836
82.500000	98.5	-26.8183
85.000000	98.5	-28.6575
87.500000	98.3	-30.2120
90.000000	98.1	-32.3572
92.500000	98.2	-33.1246
95.000000	98.2	-34.8608
97.500000	98.1	-36.1491
100.000000	98.0	-37.5029
103.000000	97.9	-39.0629
106.000000	97.9	-40.5395
109.000000	97.8	-41.9900
112.000000	97.7	-43.4312
115.000000	97.7	-44.7272
118.000000	97.6	-46.0238
122.000000	97.5	-47.8670
125.000000	97.4	-49.1587
128.000000	97.4	-50.3545
132.000000	97.3	-52.0242
136.000000	97.2	-53.5710
140.000000	97.1	-55.1036
145.000000	97.0	-56.9666
150.000000	96.9	-58.6989
155.000000	96.8	-60.4781
160.000000	96.7	-62.1652
165.000000	96.7	-63.8452
170.000000	96.6	-65.3904
175.000000	96.5	-66.9216
180.000000	96.4	-68.4251
185.000000	96.4	-69.9055
190.000000	96.3	-71.3301
195.000000	96.2	-72.6939
200.000000	96.2	-74.0742
206.000000	96.1	-75.6067
212.000000	96.0	-77.1256
218.000000	95.9	-78.6143
224.000000	95.9	-80.0032
230.000000	95.8	-81.4084
236.000000	95.7	-82.7456
243.000000	95.7	-84.2511
250.000000	95.6	-85.7733
258.000000	95.5	-87.3090
265.000000	95.5	-88.6598
272.000000	95.4	-89.9690
280.000000	95.3	-91.4078
290.000000	95.2	-93.1215
300.000000	95.2	-94.7441
307.000000	95.1	-95.8354
315.000000	95.1	-97.0268
325.000000	95.0	-98.4466
335.000000	94.9	-99.7839
345.000000	94.8	-101.0179
355.000000	94.8	-102.2371
365.000000	94.7	-103.2608
375.000000	94.7	-104.1572
387.000000	94.6	-104.9811
400.000000	94.6	-106.2573
412.000000	94.6	-107.6868
425.000000	94.6	-109.1666
437.000000	94.5	-110.3173
450.000000	94.5	-111.4952
462.000000	94.4	-112.3097
475.000000	94.3	-113.2179
487.000000	94.3	-113.9778
500.000000	94.2	-114.7629
515.000000	94.2	-115.5058
530.000000	94.1	-116.1777
545.000000	94.0	-116.7358
560.000000	94.0	-117.1207
580.000000	94.0	-117.6678
600.000000	93.9	-118.1096
615.000000	93.9	-118.4363
630.000000	93.8	-118.6315
650.000000	93.8	-118.8768
670.000000	93.8	-118.8847
690.000000	93.8	-118.9183
710.000000	93.7	-118.8433
730.000000	93.7	-118.6705
750.000000	93.7	-118.5000
775.000000	93.8	-117.9948
800.000000	93.8	-117.4001
825.000000	93.9	-116.8708
850.000000	93.9	-116.1755
875.000000	94.0	-115.3701
900.000000	94.1	-114.5698
925.000000	94.3	-113.7433
950.000000	94.5	-112.8835
975.000000	94.6	-112.1587
1000.000000	94.9	-111.5476
1030.000000	95.1	-111.0049
1060.000000	95.4	-110.5911
1090.000000	95.7	-110.3380
1120.000000	95.9	-110.1761
1150.000000	96.2	-110.1714
1180.000000	96.5	-110.2445
1220.000000	96.9	-110.6005
1250.000000	97.1	-110.9092
1280.000000	97.3	-111.2878
1320.000000	97.6	-111.8085
1360.000000	97.9	-112.3749
1400.000000	98.2	-112.9634
1450.000000	98.5	-113.7330
1500.000000	98.9	-114.5391
1550.000000	99.2	-115.3826
1600.000000	99.5	-116.2717
1650.000000	99.8	-117.2343
1700.000000	100.1	-118.2462
1750.000000	100.4	-119.3225
1800.000000	100.6	-120.4640
1850.000000	100.9	-121.6689
1900.000000	101.2	-122.9357
1950.000000	101.4	-124.2677
2000.000000	101.7	-125.6611
2060.000000	101.9	-127.4375
2120.000000	102.2	-129.3220
2180.000000	102.4	-131.3145
2240.000000	102.6	-133.4153
2300.000000	102.8	-135.6057
2360.000000	103.0	-137.8901
2430.000000	103.1	-140.6367
2500.000000	103.2	-143.4308
2580.000000	103.2	-146.5972
2650.000000	103.2	-149.2729
2720.000000	103.1	-151.8293
2800.000000	103.0	-154.5348
2900.000000	102.8	-157.4966
3000.000000	102.5	-159.9592
3070.000000	102.3	-161.3877
3150.000000	102.1	-162.7134
3250.000000	101.8	-163.9786
3350.000000	101.5	-164.8699
3450.000000	101.3	-165.4497
3550.000000	101.0	-165.7937
3650.000000	100.8	-165.8962
3750.000000	100.6	-165.8413
3870.000000	100.5	-165.4771
4000.000000	100.3	-164.7166
4120.000000	100.4	-163.9216
4250.000000	100.6	-163.8398
4370.000000	100.9	-165.2566
4500.000000	101.1	-168.3779
4620.000000	101.1	-172.2419
4750.000000	100.9	-176.7571
4870.000000	100.4	179.3539
5000.000000	99.8	176.0283
5150.000000	98.9	173.6428
5300.000000	97.9	172.8461
5450.000000	97.0	173.5059
5600.000000	96.1	175.3408
5800.000000	95.0	179.1813
6000.000000	94.2	-175.8225
6150.000000	93.7	-171.6049
6300.000000	93.2	-167.0385
6500.000000	92.8	-160.2268
6700.000000	92.6	-152.6587
6900.000000	92.8	-144.9326
7100.000000	93.2	-137.6848
7300.000000	94.0	-131.6082
7500.000000	95.1	-128.2039
7750.000000	96.5	-125.4735
8000.000000	98.6	-130.8302
8250.000000	99.2	-145.8101
8500.000000	97.9	-154.3771
8750.000000	97.1	-151.5359
9000.000000	97.5	-149.3405
9250.000000	98.5	-152.0300
9500.000000	99.5	-160.9246
9750.000000	100.1	-175.8228
10000.000000	99.6	161.3712
10300.000000	96.0	137.4634
10600.000000	91.3	130.7887
10900.000000	87.2	134.8344
11200.000000	83.9	144.0334
11500.000000	81.2	155.7349
11800.000000	78.9	168.6420
12200.000000	76.5	-172.3438
12500.000000	75.2	-157.2972
12800.000000	74.1	-141.9351
13200.000000	73.2	-121.2941
13600.000000	72.9	-100.0881
14000.000000	73.3	-80.2375
14500.000000	74.6	-56.9088
15000.000000	77.3	-37.2750
15500.000000	81.9	-27.4163
16000.000000	88.3	-50.3586
16500.000000	88.6	-117.4950
17000.000000	79.4	-147.2795
17500.000000	73.7	-134.4225
18000.000000	73.8	-131.9268
18500.000000	64.1	-125.6692
19000.000000	60.5	-134.7987
19500.000000	51.5	-126.8777
20000.000000	27.5	-70.6839
20600.000000	43.2	136.4160
21200.000000	48.5	172.9531
21800.000000	37.0	-123.8359
