* Measurement data measured by REW V5.20
* Source: ASIO MOTU M Series, In 1
* Format: 256k Log Swept Sine, 1 sweep at -12.0 dBFS with no timing reference
* Dated: 2022/04/09 21:00:55
* REW Settings:
*  C-weighting compensation: Off
*  Target level: 75.0 dB
* Note: 
* Measurement: TK160 LC1
* Smoothing: 1/12 octave
* Frequency Step: 1/24 octave
* Start Frequency: 20.000 Hz
*
* Freq(Hz)	SPL(dB)	Phase(degrees)
20.000000	108.0	-174.1279
20.600000	108.0	-175.0735
21.200001	108.0	-175.9973
21.799999	107.9	-176.9019
22.400000	107.9	-177.7828
23.000000	107.9	-178.6350
23.600000	107.9	-179.4584
24.299999	107.9	179.6115
25.000000	107.9	178.7097
25.799999	107.8	177.7175
26.500000	107.8	176.8800
27.200001	107.8	176.0583
28.000000	107.7	175.1430
29.000000	107.7	174.0532
30.000000	107.6	172.9733
30.700001	107.6	172.2262
31.500000	107.5	171.4213
32.500000	107.5	170.4545
33.500000	107.4	169.4898
34.500000	107.4	168.5740
35.500000	107.3	167.7024
36.500000	107.3	166.8588
37.500000	107.2	166.0442
38.700001	107.1	165.0888
40.000000	107.0	164.1088
41.200001	106.9	163.2288
42.500000	106.9	162.2979
43.700001	106.8	161.4713
45.000000	106.7	160.6100
46.200001	106.6	159.8538
47.500000	106.5	159.0759
48.700001	106.5	158.3829
50.000000	106.4	157.6358
51.500000	106.3	156.8060
53.000000	106.2	156.0337
54.500000	106.1	155.2958
56.000000	106.0	154.5791
58.000000	105.8	153.6617
60.000000	105.7	152.7913
61.500000	105.6	152.1629
63.000000	105.5	151.5611
65.000000	105.3	150.7985
67.000000	105.2	150.0840
69.000000	105.1	149.4137
71.000000	104.9	148.7808
73.000000	104.8	148.1791
75.000000	104.7	147.6090
77.500000	104.5	146.9300
80.000000	104.4	146.2957
82.500000	104.2	145.7062
85.000000	104.0	145.1537
87.500000	103.9	144.6218
90.000000	103.7	144.1025
92.500000	103.6	143.6890
95.000000	103.5	143.3259
97.500000	103.3	142.9582
100.000000	103.2	142.5946
103.000000	103.0	142.2097
106.000000	102.8	141.8695
109.000000	102.7	141.5475
112.000000	102.5	141.2567
115.000000	102.3	141.0011
118.000000	102.2	140.7681
122.000000	102.0	140.4941
125.000000	101.8	140.3243
128.000000	101.7	140.1759
132.000000	101.5	140.0051
136.000000	101.3	139.8691
140.000000	101.1	139.7679
145.000000	100.9	139.6860
150.000000	100.7	139.6503
155.000000	100.5	139.6475
160.000000	100.3	139.6821
165.000000	100.1	139.7419
170.000000	99.9	139.8388
175.000000	99.6	139.9666
180.000000	99.4	140.1213
185.000000	99.2	140.3057
190.000000	99.0	140.5202
195.000000	98.9	140.7679
200.000000	98.8	141.0478
206.000000	98.6	141.4346
212.000000	98.4	141.8708
218.000000	98.2	142.3748
224.000000	98.0	142.9666
230.000000	97.8	143.6991
236.000000	97.7	144.5127
243.000000	97.6	145.3522
250.000000	97.5	145.8924
258.000000	97.4	146.2000
265.000000	97.3	146.3911
272.000000	97.1	146.6238
280.000000	96.9	146.9804
290.000000	96.7	147.5562
300.000000	96.5	148.2325
307.000000	96.4	148.7486
315.000000	96.2	149.3749
325.000000	96.1	150.2020
335.000000	95.9	151.0664
345.000000	95.7	151.9642
355.000000	95.6	152.8681
365.000000	95.5	153.7444
375.000000	95.3	154.5881
387.000000	95.2	155.5820
400.000000	95.0	156.6706
412.000000	94.9	157.6974
425.000000	94.7	158.8314
437.000000	94.6	159.8950
450.000000	94.5	161.0554
462.000000	94.4	162.1276
475.000000	94.3	163.2854
487.000000	94.2	164.3473
500.000000	94.1	165.4967
515.000000	94.0	166.8257
530.000000	93.9	168.1558
545.000000	93.8	169.4903
560.000000	93.8	170.8271
580.000000	93.7	172.6113
600.000000	93.6	174.3940
615.000000	93.5	175.7321
630.000000	93.5	177.0695
650.000000	93.5	178.8501
670.000000	93.4	-179.3593
690.000000	93.4	-177.5161
710.000000	93.4	-175.5213
730.000000	93.4	-173.4668
750.000000	93.5	-171.6555
775.000000	93.5	-169.5735
800.000000	93.6	-167.4768
825.000000	93.7	-165.3909
850.000000	93.8	-163.3716
875.000000	94.0	-161.4781
900.000000	94.1	-159.7567
925.000000	94.2	-158.1928
950.000000	94.4	-156.6588
975.000000	94.5	-154.9867
1000.000000	94.6	-153.1664
1030.000000	94.8	-151.0057
1060.000000	95.0	-149.0806
1090.000000	95.3	-147.4540
1120.000000	95.5	-146.0937
1150.000000	95.8	-144.9549
1180.000000	96.1	-143.9958
1220.000000	96.4	-142.9382
1250.000000	96.7	-142.2744
1280.000000	96.9	-141.6979
1320.000000	97.3	-141.0403
1360.000000	97.6	-140.4873
1400.000000	97.9	-140.0269
1450.000000	98.4	-139.5737
1500.000000	98.8	-139.2578
1550.000000	99.4	-139.0843
1600.000000	99.9	-139.0669
1650.000000	100.2	-139.2186
1700.000000	100.5	-139.5599
1750.000000	100.9	-140.1088
1800.000000	101.3	-140.8873
1850.000000	101.8	-141.9204
1900.000000	102.3	-143.2326
1950.000000	102.8	-144.8445
2000.000000	103.2	-146.7725
2060.000000	103.7	-149.5114
2120.000000	104.1	-152.6976
2180.000000	104.5	-156.2769
2240.000000	104.7	-160.1556
2300.000000	104.9	-164.2015
2360.000000	105.0	-168.2576
2430.000000	104.9	-172.7943
2500.000000	104.8	-176.9327
2580.000000	104.5	178.9928
2650.000000	104.2	176.0743
2720.000000	103.8	173.7697
2800.000000	103.4	171.8424
2900.000000	102.9	170.3647
3000.000000	102.4	169.7440
3070.000000	102.1	169.7211
3150.000000	101.8	170.0303
3250.000000	101.5	170.8179
3350.000000	101.3	171.9442
3450.000000	101.2	173.3134
3550.000000	101.0	174.8422
3650.000000	101.0	176.4566
3750.000000	101.0	178.0879
3870.000000	101.1	179.9680
4000.000000	101.5	-178.2346
4120.000000	101.8	-176.9649
4250.000000	102.3	-176.2470
4370.000000	102.9	-176.4749
4500.000000	103.6	-178.0861
4620.000000	104.3	178.7725
4750.000000	104.9	173.2336
4870.000000	105.3	166.1671
5000.000000	105.4	157.1005
5150.000000	104.9	146.8337
5300.000000	103.8	139.6037
5450.000000	102.8	135.7956
5600.000000	101.7	132.4704
5800.000000	100.1	130.8457
6000.000000	98.7	132.6356
6150.000000	97.8	135.2286
6300.000000	97.1	138.4236
6500.000000	96.4	143.1643
6700.000000	96.0	148.1844
6900.000000	95.9	153.3192
7100.000000	96.1	158.2064
7300.000000	96.8	161.9187
7500.000000	98.3	162.4207
7750.000000	100.8	153.1607
8000.000000	102.2	130.1546
8250.000000	101.1	105.2757
8500.000000	98.1	92.0845
8750.000000	94.5	89.9552
9000.000000	91.3	93.7417
9250.000000	88.7	100.3629
9500.000000	86.6	108.4332
9750.000000	84.9	117.3195
10000.000000	83.4	126.7080
10300.000000	82.1	138.4019
10600.000000	80.9	150.4003
10900.000000	80.1	162.6746
11200.000000	79.5	175.4312
11500.000000	79.2	-170.8982
11800.000000	79.5	-156.5624
12200.000000	81.1	-140.7136
12500.000000	82.4	-133.9486
12800.000000	83.6	-129.3864
13200.000000	85.7	-124.5809
13600.000000	88.2	-126.1639
14000.000000	90.2	-139.9709
14500.000000	90.3	-164.8725
15000.000000	88.8	-178.6791
15500.000000	88.2	171.9574
16000.000000	87.7	151.1447
16500.000000	85.0	127.1477
17000.000000	80.2	120.1694
17500.000000	75.0	127.5655
18000.000000	70.6	141.0762
18500.000000	67.1	156.5925
19000.000000	64.2	172.8911
19500.000000	61.2	-168.0222
20000.000000	58.3	-143.5010
20600.000000	56.0	-109.9871
21200.000000	56.4	-81.8005
21800.000000	57.6	-66.9784
