* Measurement data measured by REW V5.20
* Source: ASIO hdspfire, Analog 2 (1)
* Format: 256k Log Swept Sine, 1 sweep at -12.0 dBFS using a loopback as a timing reference
* Dated: 2022/01/18 18:17:55
* REW Settings:
*  C-weighting compensation: Off
*  Target level: 75.0 dB
* Note: Delay -2.2181 ms (-761 mm, -(2 ft 5.95 in))  relative to Loopback from 1: Analog 1 (1) to 1: Analog 1 (1) with no timing offset
* Measurement: TRN TA2 L
* Smoothing: 1/12 octave
* Frequency Step: 1/24 octave
* Start Frequency: 20.000 Hz
*
* Freq(Hz)	SPL(dB)	Phase(degrees)
20.000000	99.5	-43.9011
20.600000	99.8	-46.0104
21.200001	100.1	-48.0361
21.799999	100.4	-50.0101
22.400000	100.6	-51.9044
23.000000	100.9	-53.6987
23.600000	101.1	-55.4285
24.299999	101.4	-57.4149
25.000000	101.6	-59.3464
25.799999	101.9	-61.4397
26.500000	102.1	-63.1724
27.200001	102.3	-64.8090
28.000000	102.5	-66.5748
29.000000	102.8	-68.7223
30.000000	103.0	-70.7906
30.700001	103.2	-72.1242
31.500000	103.3	-73.5546
32.500000	103.5	-75.2861
33.500000	103.7	-76.9570
34.500000	103.9	-78.5535
35.500000	104.0	-80.0729
36.500000	104.2	-81.5190
37.500000	104.3	-82.8865
38.700001	104.5	-84.3882
40.000000	104.6	-85.8785
41.200001	104.7	-87.1155
42.500000	104.8	-88.3745
43.700001	104.9	-89.5039
45.000000	105.0	-90.6827
46.200001	105.1	-91.6885
47.500000	105.2	-92.6759
48.700001	105.2	-93.5138
50.000000	105.3	-94.3301
51.500000	105.4	-95.1539
53.000000	105.4	-95.8958
54.500000	105.4	-96.5349
56.000000	105.5	-97.1914
58.000000	105.5	-98.0593
60.000000	105.6	-98.7513
61.500000	105.6	-99.1638
63.000000	105.6	-99.4943
65.000000	105.6	-99.8591
67.000000	105.6	-100.1558
69.000000	105.6	-100.3792
71.000000	105.6	-100.5073
73.000000	105.6	-100.5389
75.000000	105.5	-100.5184
77.500000	105.5	-100.4215
80.000000	105.5	-100.1979
82.500000	105.4	-99.8580
85.000000	105.4	-99.4897
87.500000	105.3	-99.1133
90.000000	105.3	-98.6968
92.500000	105.2	-97.9698
95.000000	105.1	-97.1619
97.500000	105.1	-96.3993
100.000000	105.0	-95.6101
103.000000	104.9	-94.6174
106.000000	104.8	-93.5447
109.000000	104.7	-92.3894
112.000000	104.6	-91.1492
115.000000	104.5	-89.8549
118.000000	104.4	-88.5066
122.000000	104.3	-86.5959
125.000000	104.2	-85.0923
128.000000	104.1	-83.5359
132.000000	104.0	-81.3529
136.000000	103.8	-79.0310
140.000000	103.6	-76.5554
145.000000	103.5	-73.2513
150.000000	103.4	-69.7704
155.000000	103.3	-66.3013
160.000000	103.2	-63.0491
165.000000	103.1	-59.8947
170.000000	103.0	-56.7273
175.000000	102.9	-53.5858
180.000000	102.8	-50.4075
185.000000	102.6	-47.1366
190.000000	102.5	-43.7936
195.000000	102.3	-40.3730
200.000000	102.2	-36.8837
206.000000	102.0	-32.6128
212.000000	101.9	-28.2712
218.000000	101.7	-23.8704
224.000000	101.6	-19.4011
230.000000	101.4	-14.8772
236.000000	101.3	-10.3063
243.000000	101.1	-4.9164
250.000000	100.9	0.5348
258.000000	100.7	6.8313
265.000000	100.6	12.4019
272.000000	100.4	18.0328
280.000000	100.2	24.5518
290.000000	100.0	32.8486
300.000000	99.8	41.2725
307.000000	99.7	47.1479
315.000000	99.6	53.7478
325.000000	99.5	61.8672
335.000000	99.3	69.9951
345.000000	99.2	78.2142
355.000000	99.0	86.5283
365.000000	98.8	94.9147
375.000000	98.7	103.3483
387.000000	98.5	113.4990
400.000000	98.3	124.5314
412.000000	98.2	134.7541
425.000000	98.0	145.8673
437.000000	97.9	156.1575
450.000000	97.7	167.3374
462.000000	97.6	177.6870
475.000000	97.5	-171.0759
487.000000	97.3	-160.6798
500.000000	97.2	-149.3945
515.000000	97.1	-136.3439
530.000000	97.0	-123.2687
545.000000	96.9	-110.1712
560.000000	96.8	-97.0498
580.000000	96.6	-79.5177
600.000000	96.5	-61.9521
615.000000	96.4	-48.7566
630.000000	96.4	-35.5425
650.000000	96.3	-17.8963
670.000000	96.2	-0.2224
690.000000	96.1	17.4755
710.000000	96.1	35.2016
730.000000	96.1	52.9501
750.000000	96.0	70.7160
775.000000	96.0	92.9436
800.000000	96.1	115.1768
825.000000	96.1	137.3999
850.000000	96.2	159.6201
875.000000	96.3	-178.0807
900.000000	96.5	-155.8169
925.000000	96.8	-134.3767
950.000000	96.9	-113.7683
975.000000	97.0	-93.3333
1000.000000	96.9	-71.5974
1030.000000	97.0	-44.1986
1060.000000	97.3	-17.5435
1090.000000	97.7	8.2607
1120.000000	98.0	33.6190
1150.000000	98.3	58.7185
1180.000000	98.6	83.6414
1220.000000	99.0	116.6768
1250.000000	99.2	141.3491
1280.000000	99.5	165.9573
1320.000000	99.8	-161.3038
1360.000000	100.1	-128.6267
1400.000000	100.5	-96.0036
1450.000000	100.9	-55.3040
1500.000000	101.3	-14.7044
1550.000000	101.7	25.7753
1600.000000	102.1	66.1066
1650.000000	102.6	106.2581
1700.000000	103.0	146.1952
1750.000000	103.5	-174.1157
1800.000000	104.0	-134.7054
1850.000000	104.5	-95.6052
1900.000000	104.9	-56.8380
1950.000000	105.4	-18.4181
2000.000000	105.8	19.6499
2060.000000	106.3	64.8792
2120.000000	106.7	109.6694
2180.000000	107.0	154.1229
2240.000000	107.3	-161.6223
2300.000000	107.4	-117.4062
2360.000000	107.4	-73.0674
2430.000000	107.4	-21.0007
2500.000000	107.3	31.5698
2580.000000	107.1	92.3326
2650.000000	106.9	146.0446
2720.000000	106.7	-159.8175
2800.000000	106.5	-97.4972
2900.000000	106.3	-19.0648
3000.000000	106.2	59.7546
3070.000000	106.2	115.0415
3150.000000	106.3	178.2178
3250.000000	106.4	-103.0605
3350.000000	106.7	-24.9583
3450.000000	107.0	52.1580
3550.000000	107.4	127.9517
3650.000000	107.6	-157.7678
3750.000000	107.7	-84.8789
3870.000000	107.5	1.5447
4000.000000	106.7	95.6016
4120.000000	105.7	-175.7239
4250.000000	104.4	-77.1357
4370.000000	103.3	15.6804
4500.000000	102.2	116.9563
4620.000000	101.3	-150.0278
4750.000000	100.2	-49.8804
4870.000000	98.9	43.4114
5000.000000	97.3	146.9490
5150.000000	95.6	-90.4961
5300.000000	94.1	33.9404
5450.000000	92.9	159.1057
5600.000000	92.0	-75.5811
5800.000000	91.2	91.3081
6000.000000	90.6	-102.1558
6150.000000	90.4	22.5342
6300.000000	90.3	147.0298
6500.000000	90.5	-47.4023
6700.000000	90.9	117.5054
6900.000000	91.8	-78.4468
7100.000000	93.1	84.3301
7300.000000	94.9	-114.9863
7500.000000	97.4	41.8511
7750.000000	100.5	-132.7329
8000.000000	102.0	38.0044
8250.000000	101.1	-151.1562
8500.000000	98.9	33.2881
8750.000000	96.9	-132.0015
9000.000000	95.6	67.4512
9250.000000	95.0	-91.1855
9500.000000	95.0	110.5757
9750.000000	95.4	-48.3164
10000.000000	96.2	151.2217
10300.000000	97.2	27.7749
10600.000000	98.1	-98.8213
10900.000000	98.5	132.8477
11200.000000	98.4	5.6172
11500.000000	98.2	-118.9072
11800.000000	98.2	118.8066
12200.000000	99.1	75.4336
12500.000000	100.4	-52.0195
12800.000000	101.4	171.9082
13200.000000	100.7	101.1729
13600.000000	97.6	39.1914
14000.000000	93.4	-9.2939
14500.000000	88.8	22.5039
15000.000000	86.0	29.0352
15500.000000	86.8	-12.2607
16000.000000	87.9	-47.8516
16500.000000	88.0	-37.7197
17000.000000	88.9	-6.8076
17500.000000	90.8	23.7305
18000.000000	92.0	39.0557
18500.000000	90.2	51.7920
19000.000000	86.6	81.2979
19500.000000	82.9	120.8486
20000.000000	79.8	163.2119
20600.000000	76.2	-71.8613
21200.000000	73.0	43.6543
21800.000000	72.7	61.6211
