* Measurement data measured by REW V5.19
* Source: ASIO hdspfire, Analog 1 (1)
* Format: 256k Log Swept Sine, 1 sweep at -12.0 dBFS  With no timing reference
* Dated: 2021/08/05 12:26:05
* REW Settings:
*  C-weighting compensation: Off
*  Target level: 75.0 dB
* Note: 
* Measurement: Hitune X5 R
* Smoothing: None
* Frequency Step: 1/24 octave
* Start Frequency: 20.600 Hz
*
* Freq(Hz)	SPL(dB)	Phase(degrees)
20.600000	109.0	-123.8612
21.200001	109.0	-125.9691
21.799999	109.1	-128.0439
22.400000	109.1	-130.1592
23.000000	109.2	-132.2881
23.600000	109.2	-134.4121
24.299999	109.3	-136.8501
25.000000	109.3	-139.1274
25.799999	109.3	-141.3913
26.500000	109.4	-143.1648
27.200001	109.4	-145.0202
28.000000	109.5	-147.2648
29.000000	109.4	-149.1491
30.000000	109.5	-150.5631
30.700001	109.6	-152.6875
31.500000	109.6	-155.4276
32.500000	109.5	-157.4663
33.500000	109.5	-159.4122
34.500000	109.5	-161.7359
35.500000	109.5	-163.6879
36.500000	109.5	-165.7818
37.500000	109.5	-167.4690
38.700001	109.5	-169.3715
40.000000	109.4	-172.0434
41.200001	109.3	-173.6961
42.500000	109.3	-175.8808
43.700001	109.3	-177.5950
45.000000	109.2	-179.7941
46.200001	109.2	178.6525
47.500000	109.1	176.8146
48.700001	109.0	175.0731
50.000000	108.9	173.5027
51.500000	108.9	171.9069
53.000000	108.8	169.8809
54.500000	108.7	168.0514
56.000000	108.6	166.4543
58.000000	108.5	164.3109
60.000000	108.3	162.1968
61.500000	108.4	161.2769
63.000000	108.1	159.0252
65.000000	108.1	157.2427
67.000000	107.9	155.6382
69.000000	107.7	153.8501
71.000000	107.5	151.7870
73.000000	107.4	150.2696
75.000000	107.3	149.0182
77.500000	106.9	146.9375
80.000000	106.8	144.8420
82.500000	106.8	143.1987
85.000000	106.4	141.4932
87.500000	105.8	139.1489
90.000000	105.0	126.0226
92.500000	105.7	135.5526
95.000000	105.7	134.4745
97.500000	105.3	134.5718
100.000000	105.0	133.4101
103.000000	104.7	131.9099
106.000000	104.5	130.4135
109.000000	104.2	128.3444
112.000000	104.0	127.1090
115.000000	103.4	128.9475
118.000000	103.2	126.5969
122.000000	103.1	124.9252
125.000000	102.5	124.2327
128.000000	102.3	124.0150
132.000000	101.7	122.8036
136.000000	101.4	122.8264
140.000000	101.0	122.8383
145.000000	100.5	120.9665
150.000000	99.8	124.3928
155.000000	99.7	125.2643
160.000000	99.3	124.4583
165.000000	99.1	122.1469
170.000000	98.8	121.5801
175.000000	98.3	122.8433
180.000000	97.5	123.7225
185.000000	97.3	124.2491
190.000000	97.6	125.3287
195.000000	96.6	124.6632
200.000000	96.4	126.1492
206.000000	95.7	126.5410
212.000000	95.3	130.4901
218.000000	95.4	132.5382
224.000000	94.9	133.3620
230.000000	94.9	135.9167
236.000000	94.2	137.3218
243.000000	94.2	139.6497
250.000000	93.8	141.4560
258.000000	93.6	144.2936
265.000000	93.6	146.9146
272.000000	93.4	148.6800
280.000000	93.4	151.4319
290.000000	93.3	153.8575
300.000000	93.3	156.6055
307.000000	93.4	157.6353
315.000000	93.4	159.4454
325.000000	93.5	161.5161
335.000000	93.5	163.0316
345.000000	93.5	164.4944
355.000000	93.6	165.6708
365.000000	93.7	166.8572
375.000000	93.7	167.8328
387.000000	93.7	168.9120
400.000000	93.8	170.0837
412.000000	93.8	170.8239
425.000000	93.8	171.6448
437.000000	93.9	172.2727
450.000000	93.9	173.1003
462.000000	93.8	173.6415
475.000000	93.8	174.3705
487.000000	93.8	175.0103
500.000000	93.8	175.1392
515.000000	93.8	176.4142
530.000000	93.7	177.2818
545.000000	93.7	178.0122
560.000000	93.6	178.9457
580.000000	93.6	-179.8748
600.000000	93.5	-178.6711
615.000000	93.4	-177.6613
630.000000	93.4	-176.6080
650.000000	93.4	-174.9174
670.000000	93.3	-173.5189
690.000000	93.3	-171.9063
710.000000	93.3	-170.2034
730.000000	93.3	-168.4755
750.000000	93.4	-166.7059
775.000000	93.4	-164.7670
800.000000	93.5	-162.8893
825.000000	93.6	-161.8667
850.000000	93.6	-160.1477
875.000000	93.6	-157.8756
900.000000	93.7	-155.4250
925.000000	93.8	-153.4735
950.000000	94.1	-151.6012
975.000000	94.2	-149.4773
1000.000000	94.3	-148.2228
1030.000000	94.6	-146.0183
1060.000000	94.9	-144.4748
1090.000000	95.1	-143.1973
1120.000000	95.4	-142.1304
1150.000000	95.6	-142.0387
1180.000000	95.9	-140.5900
1220.000000	96.2	-139.8288
1250.000000	96.4	-138.8586
1280.000000	96.6	-139.1007
1320.000000	96.9	-138.7036
1360.000000	97.1	-138.3002
1400.000000	97.3	-138.0569
1450.000000	97.7	-137.5399
1500.000000	97.9	-136.7688
1550.000000	98.3	-135.7173
1600.000000	98.7	-134.5396
1650.000000	99.0	-133.4424
1700.000000	99.3	-133.0806
1750.000000	99.6	-133.1462
1800.000000	100.1	-133.4090
1850.000000	100.5	-133.7060
1900.000000	101.0	-135.0588
1950.000000	101.4	-136.4104
2000.000000	101.7	-137.5184
2060.000000	102.1	-139.0061
2120.000000	102.4	-140.5285
2180.000000	102.7	-142.1515
2240.000000	102.9	-143.8358
2300.000000	103.1	-145.4516
2360.000000	103.2	-146.9711
2430.000000	103.4	-148.7236
2500.000000	103.6	-150.1278
2580.000000	103.7	-151.5688
2650.000000	103.8	-152.6654
2720.000000	104.0	-153.6268
2800.000000	104.2	-154.7197
2900.000000	104.4	-156.6689
3000.000000	104.7	-158.7988
3070.000000	104.8	-160.4800
3150.000000	105.0	-162.6633
3250.000000	105.1	-165.3404
3350.000000	105.2	-168.5897
3450.000000	105.2	-171.6367
3550.000000	105.0	-174.5956
3650.000000	104.6	-177.1990
3750.000000	104.0	-178.3449
3870.000000	103.6	-178.0422
4000.000000	103.2	-175.9054
4120.000000	102.8	-172.2326
4250.000000	103.2	-165.4461
4370.000000	104.2	-165.5848
4500.000000	104.6	-168.3115
4620.000000	104.8	-170.7112
4750.000000	104.9	-172.8696
4870.000000	105.0	-174.1682
5000.000000	105.1	-176.0291
5150.000000	105.2	-177.6201
5300.000000	105.3	-178.8920
5450.000000	105.5	179.9511
5600.000000	105.6	178.4499
5800.000000	105.9	176.1825
6000.000000	106.5	171.3922
6150.000000	106.7	165.4923
6300.000000	106.7	156.7657
6500.000000	105.7	146.9592
6700.000000	104.0	141.4725
6900.000000	102.5	140.3412
7100.000000	101.1	142.8639
7300.000000	99.7	148.3677
7500.000000	99.1	155.1183
7750.000000	99.5	164.1531
8000.000000	101.4	172.4491
8250.000000	104.2	170.8214
8500.000000	105.4	153.3965
8750.000000	104.0	136.0085
9000.000000	101.6	129.1891
9250.000000	99.6	129.4812
9500.000000	98.2	132.7902
9750.000000	96.8	136.3929
10000.000000	95.8	137.9347
10300.000000	94.2	143.8434
10600.000000	93.3	154.0888
10900.000000	92.5	160.4976
11200.000000	91.9	170.3815
11500.000000	91.3	179.4655
11800.000000	91.2	-172.1603
12200.000000	91.1	-161.5834
12500.000000	91.4	-151.2428
12800.000000	91.7	-140.8821
13200.000000	93.0	-129.1009
13600.000000	95.0	-113.1614
14000.000000	97.6	-107.1082
14500.000000	104.0	-116.6692
15000.000000	102.6	-179.9816
15500.000000	96.4	177.4985
16000.000000	93.5	-164.0053
16500.000000	90.8	-141.6621
17000.000000	90.1	-115.1271
17500.000000	91.1	-84.0114
18000.000000	94.1	-69.2917
18500.000000	96.8	-73.2025
19000.000000	97.1	-103.0694
19500.000000	87.5	-96.0803
20000.000000	83.3	-63.2760
20600.000000	78.0	2.4343
21200.000000	74.3	77.7422
21800.000000	65.2	139.5125
