* Measurement data measured by REW V5.20
* Source: ASIO MOTU M Series, In 1
* Format: 256k Log Swept Sine, 1 sweep at -12.0 dBFS with no timing reference
* Dated: 2022/05/01 11:43:28
* REW Settings:
*  C-weighting compensation: Off
*  Target level: 75.0 dB
* Note: 
* Measurement: UM Merverick Ti RC1
* Smoothing: 1/12 octave
* Frequency Step: 1/24 octave
* Start Frequency: 20.000 Hz
*
* Freq(Hz)	SPL(dB)	Phase(degrees)
20.000000	95.455	-157.3912
20.600000	95.486	-158.2141
21.200001	95.510	-159.0524
21.799999	95.517	-159.8565
22.400000	95.514	-160.5178
23.000000	95.523	-161.0314
23.600000	95.554	-161.5471
24.299999	95.596	-162.2890
25.000000	95.617	-163.0921
25.799999	95.623	-163.8806
26.500000	95.629	-164.4660
27.200001	95.637	-165.0244
28.000000	95.641	-165.6225
29.000000	95.642	-166.2958
30.000000	95.640	-166.9573
30.700001	95.633	-167.4082
31.500000	95.623	-167.8833
32.500000	95.619	-168.4503
33.500000	95.620	-169.0607
34.500000	95.616	-169.6623
35.500000	95.615	-170.1860
36.500000	95.620	-170.6846
37.500000	95.620	-171.1712
38.700001	95.608	-171.7001
40.000000	95.585	-172.1460
41.200001	95.576	-172.5047
42.500000	95.571	-172.9918
43.700001	95.560	-173.4739
45.000000	95.540	-173.9215
46.200001	95.525	-174.2017
47.500000	95.514	-174.4427
48.700001	95.501	-174.5855
50.000000	95.506	-174.7930
51.500000	95.491	-175.2930
53.000000	95.453	-175.7318
54.500000	95.424	-176.0888
56.000000	95.411	-176.3834
58.000000	95.403	-176.7499
60.000000	95.383	-177.0519
61.500000	95.365	-177.2402
63.000000	95.349	-177.4575
65.000000	95.322	-177.7814
67.000000	95.302	-178.0392
69.000000	95.294	-178.3084
71.000000	95.282	-178.5232
73.000000	95.265	-178.6922
75.000000	95.242	-178.8544
77.500000	95.217	-179.1195
80.000000	95.197	-179.3689
82.500000	95.174	-179.4912
85.000000	95.152	-179.6550
87.500000	95.150	179.7557
90.000000	95.123	179.0166
92.500000	95.091	179.2047
95.000000	95.104	179.5723
97.500000	95.085	179.6618
100.000000	95.063	179.5577
103.000000	95.058	179.3403
106.000000	95.048	179.1841
109.000000	95.032	179.0871
112.000000	95.016	178.9693
115.000000	94.997	178.8393
118.000000	94.978	178.7183
122.000000	94.956	178.5988
125.000000	94.940	178.4970
128.000000	94.922	178.3893
132.000000	94.901	178.2949
136.000000	94.882	178.1945
140.000000	94.856	178.0811
145.000000	94.823	178.0269
150.000000	94.799	177.9288
155.000000	94.757	177.9741
160.000000	94.725	177.9526
165.000000	94.708	177.9256
170.000000	94.690	177.9594
175.000000	94.674	178.0733
180.000000	94.668	178.3247
185.000000	94.680	178.5427
190.000000	94.713	178.6936
195.000000	94.753	178.6457
200.000000	94.784	178.4328
206.000000	94.800	178.0834
212.000000	94.792	177.7143
218.000000	94.770	177.4369
224.000000	94.748	177.2447
230.000000	94.724	177.0934
236.000000	94.697	176.9695
243.000000	94.666	176.8518
250.000000	94.636	176.7543
258.000000	94.605	176.6737
265.000000	94.578	176.6211
272.000000	94.551	176.5815
280.000000	94.520	176.5467
290.000000	94.483	176.5209
300.000000	94.447	176.5118
307.000000	94.422	176.5251
315.000000	94.394	176.5559
325.000000	94.362	176.6025
335.000000	94.333	176.6330
345.000000	94.302	176.6640
355.000000	94.271	176.7250
365.000000	94.241	176.8065
375.000000	94.211	176.8964
387.000000	94.177	177.0185
400.000000	94.141	177.1639
412.000000	94.109	177.3106
425.000000	94.075	177.4935
437.000000	94.045	177.6775
450.000000	94.016	177.8848
462.000000	93.991	178.0875
475.000000	93.965	178.3157
487.000000	93.942	178.5360
500.000000	93.918	178.7869
515.000000	93.891	179.0985
530.000000	93.867	179.4293
545.000000	93.844	179.7816
560.000000	93.823	-179.8453
580.000000	93.802	-179.3183
600.000000	93.786	-178.7632
615.000000	93.777	-178.3346
630.000000	93.772	-177.8923
650.000000	93.767	-177.2769
670.000000	93.767	-176.6212
690.000000	93.774	-175.9333
710.000000	93.788	-175.2137
730.000000	93.810	-174.4619
750.000000	93.840	-173.6815
775.000000	93.891	-172.6776
800.000000	93.958	-171.6387
825.000000	94.042	-170.5812
850.000000	94.145	-169.5229
875.000000	94.268	-168.4752
900.000000	94.409	-167.4526
925.000000	94.571	-166.4731
950.000000	94.752	-165.5712
975.000000	94.950	-164.7675
1000.000000	95.162	-164.0753
1030.000000	95.429	-163.4062
1060.000000	95.705	-162.9210
1090.000000	95.983	-162.6157
1120.000000	96.259	-162.4772
1150.000000	96.528	-162.4825
1180.000000	96.788	-162.6039
1220.000000	97.117	-162.9007
1250.000000	97.350	-163.1932
1280.000000	97.573	-163.5233
1320.000000	97.857	-163.9917
1360.000000	98.130	-164.4680
1400.000000	98.395	-164.9353
1450.000000	98.722	-165.4964
1500.000000	99.050	-166.0324
1550.000000	99.383	-166.5485
1600.000000	99.729	-167.0474
1650.000000	100.096	-167.5555
1700.000000	100.489	-168.1375
1750.000000	100.907	-168.8628
1800.000000	101.346	-169.7636
1850.000000	101.806	-170.8633
1900.000000	102.291	-172.2030
1950.000000	102.802	-173.8549
2000.000000	103.338	-175.9299
2060.000000	104.000	-179.1976
2120.000000	104.636	176.4009
2180.000000	105.159	170.7054
2240.000000	105.463	163.9723
2300.000000	105.483	156.9644
2360.000000	105.232	150.6106
2430.000000	104.707	144.8126
2500.000000	104.075	140.8874
2580.000000	103.357	138.2665
2650.000000	102.793	137.1402
2720.000000	102.311	136.7656
2800.000000	101.867	136.9813
2900.000000	101.474	137.8922
3000.000000	101.247	139.1968
3070.000000	101.181	140.1860
3150.000000	101.192	141.2439
3250.000000	101.313	142.2299
3350.000000	101.510	142.5930
3450.000000	101.707	142.2681
3550.000000	101.839	141.6060
3650.000000	101.911	141.2362
3750.000000	102.015	141.5093
3870.000000	102.324	142.2831
4000.000000	102.945	142.4029
4120.000000	103.689	140.6541
4250.000000	104.465	135.9399
4370.000000	104.915	129.1082
4500.000000	104.922	120.4701
4620.000000	104.494	113.3438
4750.000000	103.789	107.6482
4870.000000	103.077	103.6256
5000.000000	102.207	100.2549
5150.000000	101.089	98.2946
5300.000000	99.993	98.4574
5450.000000	99.011	100.1693
5600.000000	98.147	103.1424
5800.000000	97.276	109.2172
6000.000000	96.914	115.7446
6150.000000	96.841	120.7576
6300.000000	97.091	125.6804
6500.000000	97.801	129.9600
6700.000000	98.646	130.9704
6900.000000	99.368	128.7087
7100.000000	99.715	123.9670
7300.000000	99.564	118.9735
7500.000000	99.090	115.6590
7750.000000	98.308	113.5021
8000.000000	97.255	114.5778
8250.000000	96.358	120.2634
8500.000000	96.093	128.3620
8750.000000	96.601	135.8221
9000.000000	97.490	139.3232
9250.000000	98.138	139.3945
9500.000000	98.629	139.2943
9750.000000	99.368	138.1288
10000.000000	100.075	131.7952
10300.000000	99.752	118.0423
10600.000000	97.737	108.6680
10900.000000	94.770	110.7866
11200.000000	91.913	122.2082
11500.000000	89.808	138.5089
11800.000000	88.580	157.1738
12200.000000	88.325	-177.0592
12500.000000	89.151	-159.0424
12800.000000	90.739	-144.1729
13200.000000	93.352	-133.7937
13600.000000	94.970	-137.6133
14000.000000	94.535	-145.3486
14500.000000	92.274	-141.9057
15000.000000	90.294	-128.5056
15500.000000	88.631	-113.1715
16000.000000	86.932	-85.7026
16500.000000	89.027	-51.9794
17000.000000	93.041	-37.9695
17500.000000	95.458	-50.6817
18000.000000	94.634	-74.0722
18500.000000	91.084	-80.7336
19000.000000	87.242	-77.3555
19500.000000	83.427	-71.7065
20000.000000	78.950	-57.7150
20600.000000	73.261	-32.2443
21200.000000	67.320	0.5972
21800.000000	61.563	23.7076
