* Measurement data measured by REW V5.20
* Source: ASIO hdspfire, Analog 2 (1)
* Format: 256k Log Swept Sine, 1 sweep at -12.0 dBFS using a loopback as a timing reference
* Dated: 2022/01/04 19:06:14
* REW Settings:
*  C-weighting compensation: Off
*  Target level: 75.0 dB
* Note: Delay 0.0079 ms (2.7 mm, 0.11 in)  relative to Loopback from 1: Analog 1 (1) to 1: Analog 1 (1) with no timing offset
* Measurement: UM MINI MEST R
* Smoothing: None
* Frequency Step: 1/24 octave
* Start Frequency: 20.000 Hz
*
* Freq(Hz)	SPL(dB)	Phase(degrees)
20.000000	102.0	-82.3929
20.600000	102.3	-85.0293
21.200001	102.5	-87.5483
21.799999	102.7	-89.9755
22.400000	102.9	-92.3361
23.000000	103.1	-94.6206
23.600000	103.3	-96.8126
24.299999	103.5	-99.2663
25.000000	103.7	-101.6580
25.799999	103.9	-104.3124
26.500000	104.1	-106.5261
27.200001	104.2	-108.6640
28.000000	104.4	-111.0520
29.000000	104.5	-113.8754
30.000000	104.7	-116.5600
30.700001	104.8	-118.3983
31.500000	104.9	-120.4095
32.500000	105.0	-122.8115
33.500000	105.2	-125.1222
34.500000	105.3	-127.4241
35.500000	105.4	-129.6146
36.500000	105.4	-131.5396
37.500000	105.5	-133.5318
38.700001	105.6	-135.8911
40.000000	105.7	-138.2328
41.200001	105.7	-140.3092
42.500000	105.8	-142.4553
43.700001	105.8	-144.3585
45.000000	105.9	-146.3359
46.200001	105.9	-148.0544
47.500000	105.9	-149.9055
48.700001	105.9	-151.4917
50.000000	106.0	-153.2026
51.500000	106.0	-155.0728
53.000000	106.0	-156.8589
54.500000	106.0	-158.5228
56.000000	106.0	-160.1522
58.000000	105.9	-162.2110
60.000000	105.9	-164.1214
61.500000	105.9	-165.5100
63.000000	105.9	-166.8397
65.000000	105.8	-168.5035
67.000000	105.8	-170.0814
69.000000	105.7	-171.6221
71.000000	105.7	-173.0639
73.000000	105.6	-174.4245
75.000000	105.5	-175.6992
77.500000	105.5	-177.2396
80.000000	105.4	-178.6417
82.500000	105.3	-179.9678
85.000000	105.2	178.7174
87.500000	105.2	177.4985
90.000000	105.1	176.4421
92.500000	105.0	175.3420
95.000000	104.9	174.4014
97.500000	104.8	173.4579
100.000000	104.7	172.5874
103.000000	104.6	171.5478
106.000000	104.5	170.5898
109.000000	104.4	169.7110
112.000000	104.3	168.8707
115.000000	104.2	168.1167
118.000000	104.1	167.3837
122.000000	104.0	166.4964
125.000000	103.9	165.8575
128.000000	103.8	165.2722
132.000000	103.7	164.5550
136.000000	103.6	163.8871
140.000000	103.4	163.2570
145.000000	103.3	162.5609
150.000000	103.2	161.9415
155.000000	103.0	161.3724
160.000000	102.9	160.8766
165.000000	102.8	160.3957
170.000000	102.6	159.9828
175.000000	102.5	159.6103
180.000000	102.4	159.2750
185.000000	102.3	158.9573
190.000000	102.2	158.6790
195.000000	102.1	158.4497
200.000000	102.0	158.2412
206.000000	101.9	157.9879
212.000000	101.8	157.7679
218.000000	101.6	157.5865
224.000000	101.5	157.4362
230.000000	101.4	157.2983
236.000000	101.4	157.1659
243.000000	101.2	157.0372
250.000000	101.1	156.9577
258.000000	101.0	156.8698
265.000000	100.9	156.7985
272.000000	100.8	156.7550
280.000000	100.7	156.7173
290.000000	100.6	156.6842
300.000000	100.5	156.6867
307.000000	100.4	156.6917
315.000000	100.4	156.6916
325.000000	100.3	156.7186
335.000000	100.2	156.7627
345.000000	100.1	156.8161
355.000000	100.0	156.8632
365.000000	99.9	156.9334
375.000000	99.8	157.0029
387.000000	99.8	157.0985
400.000000	99.7	157.1893
412.000000	99.6	157.3156
425.000000	99.5	157.4349
437.000000	99.5	157.5344
450.000000	99.4	157.6278
462.000000	99.3	157.6924
475.000000	99.3	157.7874
487.000000	99.2	157.8383
500.000000	99.2	157.7643
515.000000	99.2	157.4655
530.000000	99.1	156.9844
545.000000	99.0	156.5105
560.000000	98.8	156.3370
580.000000	98.5	156.8812
600.000000	98.4	157.8631
615.000000	98.3	158.5223
630.000000	98.2	159.1131
650.000000	98.1	159.8152
670.000000	98.1	160.5250
690.000000	98.0	161.2119
710.000000	98.0	161.8944
730.000000	97.9	162.6011
750.000000	97.9	163.3322
775.000000	97.9	164.2884
800.000000	97.8	165.2841
825.000000	97.9	166.2870
850.000000	97.9	167.3291
875.000000	97.9	168.3438
900.000000	98.0	169.3514
925.000000	98.1	170.2938
950.000000	98.2	171.1636
975.000000	98.3	171.9746
1000.000000	98.5	172.6752
1030.000000	98.7	173.2999
1060.000000	98.9	173.7709
1090.000000	99.1	174.0325
1120.000000	99.3	174.1490
1150.000000	99.5	174.1177
1180.000000	99.7	173.9953
1220.000000	99.9	173.7239
1250.000000	100.0	173.4775
1280.000000	100.2	173.2175
1320.000000	100.4	172.8728
1360.000000	100.6	172.5499
1400.000000	100.7	172.2537
1450.000000	101.0	171.9333
1500.000000	101.2	171.6824
1550.000000	101.4	171.4801
1600.000000	101.7	171.2650
1650.000000	102.0	170.9587
1700.000000	102.4	170.4539
1750.000000	102.7	169.8384
1800.000000	103.1	169.0991
1850.000000	103.5	168.0891
1900.000000	103.9	166.7122
1950.000000	104.3	164.9122
2000.000000	104.7	162.6076
2060.000000	105.2	159.1855
2120.000000	105.5	155.0522
2180.000000	105.8	150.3884
2240.000000	105.9	145.4916
2300.000000	105.8	140.7416
2360.000000	105.6	136.4775
2430.000000	105.1	132.3717
2500.000000	104.7	129.3128
2580.000000	104.1	127.0767
2650.000000	103.5	126.1464
2720.000000	103.1	126.0729
2800.000000	102.6	126.8743
2900.000000	102.1	128.9324
3000.000000	101.9	131.7900
3070.000000	101.9	133.9880
3150.000000	102.1	136.2975
3250.000000	102.5	138.0127
3350.000000	103.1	137.1113
3450.000000	103.5	133.0650
3550.000000	103.3	127.7714
3650.000000	102.5	124.3494
3750.000000	101.5	124.4737
3870.000000	100.5	129.5189
4000.000000	100.0	138.8207
4120.000000	100.3	147.3432
4250.000000	101.0	154.3237
4370.000000	101.9	158.6387
4500.000000	102.9	161.4749
4620.000000	103.9	162.6849
4750.000000	104.9	162.5416
4870.000000	105.8	161.0363
5000.000000	106.7	157.9177
5150.000000	107.5	152.6696
5300.000000	107.9	146.2218
5450.000000	107.8	139.7980
5600.000000	107.4	135.3190
5800.000000	106.8	132.7800
6000.000000	106.2	132.7371
6150.000000	105.9	133.8001
6300.000000	105.7	135.5146
6500.000000	105.6	138.4982
6700.000000	105.7	141.8984
6900.000000	106.1	145.1841
7100.000000	106.8	147.5081
7300.000000	107.7	147.9799
7500.000000	108.9	144.7820
7750.000000	110.0	133.6576
8000.000000	109.7	117.8478
8250.000000	108.0	107.4001
8500.000000	106.1	105.1799
8750.000000	104.6	108.2531
9000.000000	103.7	113.7390
9250.000000	103.5	119.3422
9500.000000	104.0	123.0371
9750.000000	105.2	120.9829
10000.000000	106.3	104.8321
10300.000000	103.7	77.7497
10600.000000	99.0	71.1477
10900.000000	95.1	78.1088
11200.000000	92.1	90.1339
11500.000000	89.8	104.3734
11800.000000	88.1	119.7067
12200.000000	86.5	140.9592
12500.000000	85.8	156.8086
12800.000000	85.6	172.3141
13200.000000	86.0	-168.7805
13600.000000	87.1	-153.5532
14000.000000	88.8	-146.0418
14500.000000	90.2	-149.5674
15000.000000	89.9	-153.2481
15500.000000	90.2	-156.8560
16000.000000	90.0	-179.4033
16500.000000	84.7	157.8837
17000.000000	78.4	161.4843
17500.000000	73.2	176.1175
18000.000000	69.4	-165.0221
18500.000000	66.2	-154.1999
19000.000000	61.4	-157.7521
19500.000000	46.3	-157.0033
20000.000000	45.7	-46.2266
20600.000000	42.4	-21.5415
21200.000000	39.3	113.0762
21800.000000	56.5	-163.8789
