* Measurement data measured by REW V5.20
* Source: ASIO MOTU M Series, In 1
* Format: 256k Log Swept Sine, 1 sweep at -12.0 dBFS with no timing reference
* Dated: 2022/05/14 21:03:19
* REW Settings:
*  C-weighting compensation: Off
*  Target level: 75.0 dB
* Note: 
* Measurement: Yu9 U-556 LC1
* Smoothing: 1/12 octave
* Frequency Step: 1/24 octave
* Start Frequency: 20.000 Hz
*
* Freq(Hz)	SPL(dB)	Phase(degrees)
20.000000	94.166	-153.1783
20.600000	94.234	-153.8226
21.200001	94.298	-154.4677
21.799999	94.355	-155.0938
22.400000	94.406	-155.6781
23.000000	94.457	-156.2283
23.600000	94.507	-156.7670
24.299999	94.560	-157.3822
25.000000	94.608	-157.9676
25.799999	94.661	-158.6020
26.500000	94.704	-159.1371
27.200001	94.745	-159.6551
28.000000	94.788	-160.2278
29.000000	94.837	-160.9079
30.000000	94.884	-161.5521
30.700001	94.915	-161.9950
31.500000	94.948	-162.4885
32.500000	94.985	-163.0778
33.500000	95.018	-163.6373
34.500000	95.047	-164.1596
35.500000	95.075	-164.6602
36.500000	95.099	-165.1452
37.500000	95.122	-165.6111
38.700001	95.146	-166.1608
40.000000	95.170	-166.7378
41.200001	95.191	-167.2491
42.500000	95.212	-167.7554
43.700001	95.232	-168.1899
45.000000	95.251	-168.6306
46.200001	95.262	-169.0203
47.500000	95.264	-169.4165
48.700001	95.257	-169.7100
50.000000	95.270	-169.9657
51.500000	95.297	-170.4945
53.000000	95.302	-171.0508
54.500000	95.307	-171.5073
56.000000	95.315	-171.8983
58.000000	95.322	-172.3771
60.000000	95.322	-172.8184
61.500000	95.320	-173.1366
63.000000	95.319	-173.4520
65.000000	95.315	-173.8527
67.000000	95.310	-174.2262
69.000000	95.303	-174.5766
71.000000	95.297	-174.9129
73.000000	95.291	-175.2323
75.000000	95.282	-175.5350
77.500000	95.269	-175.8850
80.000000	95.256	-176.2181
82.500000	95.240	-176.5123
85.000000	95.223	-176.7990
87.500000	95.205	-177.1532
90.000000	95.183	-177.5099
92.500000	95.167	-177.6911
95.000000	95.157	-177.8389
97.500000	95.135	-178.0255
100.000000	95.110	-178.2206
103.000000	95.093	-178.4390
106.000000	95.076	-178.6403
109.000000	95.053	-178.8265
112.000000	95.029	-179.0038
115.000000	95.006	-179.1606
118.000000	94.981	-179.3026
122.000000	94.950	-179.4785
125.000000	94.926	-179.5866
128.000000	94.903	-179.6855
132.000000	94.871	-179.8064
136.000000	94.841	-179.9067
140.000000	94.810	-180.0000
145.000000	94.772	179.9097
150.000000	94.734	179.8530
155.000000	94.698	179.7959
160.000000	94.663	179.7618
165.000000	94.627	179.7416
170.000000	94.593	179.7382
175.000000	94.560	179.7488
180.000000	94.527	179.7741
185.000000	94.495	179.8116
190.000000	94.463	179.8613
195.000000	94.434	179.9177
200.000000	94.404	179.9781
206.000000	94.367	-179.9382
212.000000	94.332	-179.8304
218.000000	94.298	-179.7122
224.000000	94.266	-179.5903
230.000000	94.234	-179.4609
236.000000	94.202	-179.3161
243.000000	94.166	-179.1303
250.000000	94.132	-178.9341
258.000000	94.091	-178.7142
265.000000	94.055	-178.5008
272.000000	94.019	-178.2611
280.000000	93.976	-177.9543
290.000000	93.920	-177.4791
300.000000	93.875	-176.8271
307.000000	93.865	-176.2616
315.000000	93.895	-175.6401
325.000000	93.968	-175.2363
335.000000	94.011	-175.2534
345.000000	94.003	-175.3103
355.000000	93.973	-175.2373
365.000000	93.940	-175.0460
375.000000	93.908	-174.7836
387.000000	93.873	-174.4136
400.000000	93.842	-173.9744
412.000000	93.816	-173.5599
425.000000	93.791	-173.0989
437.000000	93.769	-172.6573
450.000000	93.748	-172.1661
462.000000	93.731	-171.7005
475.000000	93.714	-171.1892
487.000000	93.701	-170.7063
500.000000	93.687	-170.1733
515.000000	93.674	-169.5493
530.000000	93.662	-168.9143
545.000000	93.652	-168.2660
560.000000	93.645	-167.5993
580.000000	93.639	-166.6903
600.000000	93.637	-165.7462
615.000000	93.639	-165.0088
630.000000	93.645	-164.2387
650.000000	93.664	-163.1629
670.000000	93.705	-162.0774
690.000000	93.766	-161.0938
710.000000	93.827	-160.2996
730.000000	93.860	-159.6349
750.000000	93.853	-158.8481
775.000000	93.838	-157.3745
800.000000	93.884	-155.5859
825.000000	93.985	-153.8249
850.000000	94.118	-152.1627
875.000000	94.273	-150.5835
900.000000	94.450	-149.0731
925.000000	94.648	-147.6431
950.000000	94.868	-146.3099
975.000000	95.107	-145.0923
1000.000000	95.364	-144.0157
1030.000000	95.689	-142.9322
1060.000000	96.027	-142.0941
1090.000000	96.369	-141.5105
1120.000000	96.710	-141.1719
1150.000000	97.042	-141.0604
1180.000000	97.360	-141.1480
1220.000000	97.756	-141.5178
1250.000000	98.030	-141.9427
1280.000000	98.283	-142.4540
1320.000000	98.592	-143.2223
1360.000000	98.869	-144.0458
1400.000000	99.121	-144.8864
1450.000000	99.406	-145.9297
1500.000000	99.665	-146.9426
1550.000000	99.908	-147.9218
1600.000000	100.138	-148.8721
1650.000000	100.361	-149.8038
1700.000000	100.578	-150.7332
1750.000000	100.792	-151.6758
1800.000000	101.002	-152.6441
1850.000000	101.210	-153.6500
1900.000000	101.414	-154.7085
1950.000000	101.615	-155.8270
2000.000000	101.811	-157.0126
2060.000000	102.039	-158.5344
2120.000000	102.256	-160.1700
2180.000000	102.459	-161.9232
2240.000000	102.646	-163.7925
2300.000000	102.813	-165.7717
2360.000000	102.958	-167.8505
2430.000000	103.094	-170.3856
2500.000000	103.192	-173.0152
2580.000000	103.250	-176.0695
2650.000000	103.256	-178.7028
2720.000000	103.226	178.7533
2800.000000	103.158	175.9590
2900.000000	103.024	172.6292
3000.000000	102.841	169.5248
3070.000000	102.688	167.5148
3150.000000	102.494	165.3966
3250.000000	102.230	163.0224
3350.000000	101.954	160.9399
3450.000000	101.672	159.1239
3550.000000	101.391	157.5477
3650.000000	101.116	156.1781
3750.000000	100.849	154.9791
3870.000000	100.543	153.7083
4000.000000	100.224	152.4744
4120.000000	99.938	151.4524
4250.000000	99.637	150.4888
4370.000000	99.376	149.6972
4500.000000	99.113	148.8478
4620.000000	98.880	148.0019
4750.000000	98.626	146.9998
4870.000000	98.380	146.0118
5000.000000	98.095	144.9095
5150.000000	97.737	143.6556
5300.000000	97.347	142.4818
5450.000000	96.926	141.4198
5600.000000	96.471	140.5154
5800.000000	95.810	139.7008
6000.000000	95.109	139.4756
6150.000000	94.571	139.7319
6300.000000	94.034	140.3524
6500.000000	93.337	141.7189
6700.000000	92.675	143.6523
6900.000000	92.062	146.0963
7100.000000	91.516	148.9606
7300.000000	91.043	152.0896
7500.000000	90.635	155.4003
7750.000000	90.216	159.7872
8000.000000	89.909	164.3584
8250.000000	89.715	168.9655
8500.000000	89.627	173.5169
8750.000000	89.645	177.9752
9000.000000	89.776	-177.7130
9250.000000	90.034	-173.6429
9500.000000	90.430	-170.0290
9750.000000	90.948	-167.1145
10000.000000	91.577	-164.9790
10300.000000	92.482	-163.6644
10600.000000	93.551	-164.1331
10900.000000	94.763	-167.1245
11200.000000	96.002	-173.9001
11500.000000	96.950	174.2311
11800.000000	97.158	157.7928
12200.000000	95.843	135.8157
12500.000000	93.893	124.8977
12800.000000	91.604	119.6994
13200.000000	88.630	119.1529
13600.000000	86.084	123.4383
14000.000000	84.201	130.1052
14500.000000	82.859	138.6121
15000.000000	82.678	143.3423
15500.000000	83.158	136.3253
16000.000000	82.269	114.4576
16500.000000	78.592	98.2183
17000.000000	73.186	100.3719
17500.000000	67.660	114.0618
18000.000000	62.696	134.3373
18500.000000	58.232	161.9356
19000.000000	54.523	-160.6246
19500.000000	53.571	-117.0621
20000.000000	56.246	-80.2921
20600.000000	60.166	-60.0437
21200.000000	61.654	-66.3588
21800.000000	60.052	-75.1759
