* Measurement data measured by REW V5.20
* Source: ASIO MOTU M Series, In 1
* Format: 256k Log Swept Sine, 1 sweep at -12.0 dBFS using a loopback as a timing reference
* Dated: 2022/03/13 16:01:11
* REW Settings:
*  C-weighting compensation: Off
*  Target level: 75.0 dB
* Note: Delay 10.5094 ms (3.605 m, 11 ft 9.9 in)  relative to Loopback from 1: Out 1 to 3: Loopback 1 with no timing offset
* Measurement: ZA ZIRCO BASSO RC1
* Smoothing: 1/12 octave
* Frequency Step: 1/24 octave
* Start Frequency: 20.000 Hz
*
* Freq(Hz)	SPL(dB)	Phase(degrees)
20.000000	109.7	109.5614
20.600000	109.7	106.1200
21.200001	109.6	102.7118
21.799999	109.6	99.3306
22.400000	109.6	95.9736
23.000000	109.5	92.6450
23.600000	109.5	89.3578
24.299999	109.5	85.5821
25.000000	109.4	81.8495
25.799999	109.4	77.6094
26.500000	109.3	73.9341
27.200001	109.2	70.3023
28.000000	109.2	66.1882
29.000000	109.1	61.0937
30.000000	109.0	56.0691
30.700001	108.9	52.5798
31.500000	108.9	48.6187
32.500000	108.8	43.7181
33.500000	108.7	38.8548
34.500000	108.6	34.0319
35.500000	108.5	29.2610
36.500000	108.5	24.5192
37.500000	108.4	19.8025
38.700001	108.3	14.2028
40.000000	108.1	8.2067
41.200001	108.0	2.6899
42.500000	107.9	-3.2464
43.700001	107.8	-8.6783
45.000000	107.7	-14.5135
46.200001	107.6	-19.8726
47.500000	107.5	-25.6277
48.700001	107.4	-30.8998
50.000000	107.3	-36.5934
51.500000	107.1	-43.1212
53.000000	107.0	-49.6041
54.500000	106.9	-56.0490
56.000000	106.8	-62.4586
58.000000	106.6	-70.9581
60.000000	106.4	-79.3987
61.500000	106.3	-85.6900
63.000000	106.2	-91.9575
65.000000	106.0	-100.2841
67.000000	105.9	-108.5590
69.000000	105.7	-116.7863
71.000000	105.6	-124.9794
73.000000	105.4	-133.1306
75.000000	105.3	-141.2415
77.500000	105.1	-151.3245
80.000000	104.9	-161.3447
82.500000	104.7	-171.3706
85.000000	104.6	178.6268
87.500000	104.4	168.6793
90.000000	104.3	158.7429
92.500000	104.1	148.8396
95.000000	103.9	139.0288
97.500000	103.8	129.1931
100.000000	103.6	119.3740
103.000000	103.4	107.6585
106.000000	103.3	95.9716
109.000000	103.1	84.3051
112.000000	102.9	72.6685
115.000000	102.7	61.0581
118.000000	102.6	49.4680
122.000000	102.4	34.0517
125.000000	102.2	22.5146
128.000000	102.1	10.9999
132.000000	101.8	-4.3188
136.000000	101.7	-19.6067
140.000000	101.5	-34.8649
145.000000	101.2	-53.9104
150.000000	101.0	-72.9344
155.000000	100.8	-91.8748
160.000000	100.6	-110.7910
165.000000	100.4	-129.6918
170.000000	100.2	-148.5671
175.000000	99.9	-167.4160
180.000000	99.7	173.7577
185.000000	99.5	154.9541
190.000000	99.3	136.1697
195.000000	99.2	117.4009
200.000000	99.1	98.6494
206.000000	98.9	76.1780
212.000000	98.7	53.7249
218.000000	98.5	31.2885
224.000000	98.3	8.8627
230.000000	98.1	-13.5477
236.000000	97.9	-35.9390
243.000000	97.8	-62.0510
250.000000	97.6	-88.1621
258.000000	97.4	-117.9360
265.000000	97.2	-143.9794
272.000000	97.0	-170.0183
280.000000	96.8	160.2346
290.000000	96.6	123.0692
300.000000	96.4	85.9259
307.000000	96.2	59.9541
315.000000	96.1	30.2937
325.000000	95.8	-6.7360
335.000000	95.6	-43.6571
345.000000	95.5	-80.3962
355.000000	95.3	-117.0894
365.000000	95.3	-154.0944
375.000000	95.1	168.5836
387.000000	95.0	123.7814
400.000000	94.8	75.4263
412.000000	94.6	30.8732
425.000000	94.4	-17.3267
437.000000	94.3	-61.7749
450.000000	94.1	-109.9001
462.000000	94.0	-154.3435
475.000000	93.8	157.5264
487.000000	93.7	113.1206
500.000000	93.6	65.0254
515.000000	93.4	9.5264
530.000000	93.3	-45.9648
545.000000	93.2	-101.4521
560.000000	93.0	-156.9138
580.000000	92.9	129.1624
600.000000	92.8	55.2505
615.000000	92.7	-0.1863
630.000000	92.6	-55.6123
650.000000	92.5	-129.4910
670.000000	92.4	156.6365
690.000000	92.4	82.7788
710.000000	92.3	8.9492
730.000000	92.3	-64.8547
750.000000	92.2	-138.6472
775.000000	92.2	129.0996
800.000000	92.2	36.8701
825.000000	92.3	-55.3760
850.000000	92.3	-147.6404
875.000000	92.4	120.0513
900.000000	92.5	27.6812
925.000000	92.6	-64.7800
950.000000	92.7	-157.3601
975.000000	92.9	109.9292
1000.000000	93.1	17.0615
1030.000000	93.3	-94.6104
1060.000000	93.5	153.4634
1090.000000	93.7	41.3008
1120.000000	93.9	-71.0757
1150.000000	94.1	176.3657
1180.000000	94.3	63.6704
1220.000000	94.6	-86.7578
1250.000000	94.7	160.3296
1280.000000	94.9	47.3613
1320.000000	95.1	-103.3105
1360.000000	95.3	105.9980
1400.000000	95.5	-44.6958
1450.000000	95.8	126.9551
1500.000000	96.1	-61.3784
1550.000000	96.4	110.3105
1600.000000	96.8	-77.9976
1650.000000	97.0	93.6836
1700.000000	97.1	-94.6582
1750.000000	97.3	76.9580
1800.000000	97.6	-111.4824
1850.000000	97.9	60.0068
1900.000000	98.3	-128.5869
1950.000000	98.7	42.7202
2000.000000	99.1	-146.0928
2060.000000	99.6	-12.8433
2120.000000	100.1	120.1875
2180.000000	100.6	-107.0352
2240.000000	101.2	25.4482
2300.000000	101.7	157.5977
2360.000000	102.3	-70.6387
2430.000000	102.9	22.5332
2500.000000	103.5	115.0488
2580.000000	104.1	168.5283
2650.000000	104.6	-100.3555
2720.000000	104.9	-9.7383
2800.000000	105.2	42.0615
2900.000000	105.2	16.8965
3000.000000	105.0	-7.5488
3070.000000	104.8	83.9785
3150.000000	104.5	137.8457
3250.000000	104.1	116.1758
3350.000000	103.7	95.4941
3450.000000	103.3	75.6406
3550.000000	102.8	56.4512
3650.000000	102.4	37.7803
3750.000000	102.1	19.5098
3870.000000	101.8	-74.0293
4000.000000	101.7	154.9609
4120.000000	101.5	61.8945
4250.000000	101.5	-68.8770
4370.000000	101.5	-161.9648
4500.000000	101.6	66.9727
4620.000000	101.9	-26.6543
4750.000000	102.2	-158.6504
4870.000000	102.6	106.4727
5000.000000	103.1	-27.3477
5150.000000	103.7	121.2129
5300.000000	104.1	-92.1484
5450.000000	104.3	52.8691
5600.000000	104.1	-162.7969
5800.000000	103.2	150.2090
6000.000000	101.9	105.6699
6150.000000	100.7	-105.2168
6300.000000	99.5	45.8105
6500.000000	97.9	9.4336
6700.000000	96.6	-25.1211
6900.000000	95.4	-58.4219
7100.000000	94.3	-90.9023
7300.000000	93.4	-122.9336
7500.000000	92.8	-154.6680
7750.000000	92.7	-14.0371
8000.000000	93.2	126.7383
8250.000000	93.7	-92.5488
8500.000000	94.2	47.8086
8750.000000	94.9	-172.6641
9000.000000	96.2	-34.9180
9250.000000	98.0	99.0703
9500.000000	100.0	-134.3711
9750.000000	101.2	-18.3047
10000.000000	100.8	92.6445
10300.000000	98.3	18.8320
10600.000000	94.9	-41.2344
10900.000000	91.8	-93.6602
11200.000000	89.4	-142.8359
11500.000000	87.6	169.3750
11800.000000	86.2	122.3125
12200.000000	84.8	60.2773
12500.000000	84.1	14.0391
12800.000000	83.7	-32.1641
13200.000000	83.7	-93.9297
13600.000000	84.2	-156.3516
14000.000000	85.8	139.0859
14500.000000	89.4	48.5156
15000.000000	92.0	-67.5391
15500.000000	90.4	166.9922
16000.000000	85.9	66.2812
16500.000000	81.6	-18.0703
17000.000000	78.7	-97.0273
17500.000000	77.2	-174.3906
18000.000000	76.8	108.0469
18500.000000	77.6	27.6797
19000.000000	79.3	-62.4219
19500.000000	80.3	-171.3281
20000.000000	78.5	72.8438
20600.000000	72.7	-46.1562
21200.000000	65.6	168.6328
21800.000000	59.7	49.9062
