* Measurement data measured by REW V5.20.13
* Source: ASIO ASIO4ALL v2, USB PnP Audio Device 1. Timing signal peak level -19,9 dBFS, measurement signal peak level -16,0 dBFS
* Format: 2M Log Swept Sine, 1 sweep at -12,0 dBFS using an acoustic timing reference
* Dated: 26-sep-2023 18:22:14
* REW Settings:
*  C-weighting compensation: Off
*  Target level: 75.0 dB
* Note: Delay -0,0592 ms (-20 mm, -0,8 in) using estimated IR delay relative to Acoustic reference played from 2: xCORE USB Audio 2.0  2 with no timing offset Clock adjustment: 17,3 ppm
* Measurement: 7Hz Sonus R sep 26
* Smoothing: None
* Frequency Step: 1/48 octave
* Start Frequency: 20.000 Hz
*
* Freq(Hz)	SPL(dB)	Phase(degrees)
20.000000	100.368	1.8773
20.299999	100.356	1.4447
20.600000	100.346	0.9866
20.900000	100.332	0.5034
21.200001	100.311	0.0161
21.400000	100.294	-0.2911
21.799999	100.254	-0.8383
22.000000	100.235	-1.0739
22.400000	100.205	-1.4888
22.700001	100.193	-1.7938
23.000000	100.186	-2.1361
23.299999	100.178	-2.5281
23.600000	100.166	-2.9551
24.000000	100.136	-3.5284
24.299999	100.106	-3.9171
24.700001	100.065	-4.3549
25.000000	100.039	-4.6401
25.400000	100.013	-5.0146
25.799999	99.991	-5.4330
26.200001	99.966	-5.8957
26.500000	99.941	-6.2436
26.900000	99.903	-6.6711
27.200001	99.875	-6.9555
27.600000	99.842	-7.3045
28.000000	99.815	-7.6591
28.500000	99.783	-8.1423
29.000000	99.745	-8.6365
29.500000	99.702	-9.0886
30.000000	99.663	-9.4941
30.400000	99.636	-9.8104
30.700001	99.618	-10.0529
31.100000	99.593	-10.3834
31.500000	99.567	-10.7168
32.000000	99.534	-11.1344
32.500000	99.497	-11.5513
33.000000	99.454	-11.9454
33.500000	99.408	-12.2840
34.000000	99.366	-12.5666
34.500000	99.330	-12.8367
35.000000	99.298	-13.1281
35.500000	99.263	-13.4294
36.000000	99.228	-13.7180
36.500000	99.194	-14.0075
37.000000	99.159	-14.3266
37.500000	99.116	-14.6574
38.200001	99.044	-15.0244
38.700001	98.999	-15.1972
39.500000	98.951	-15.5033
40.000000	98.924	-15.7831
40.599998	98.882	-16.1690
41.200001	98.829	-16.5379
41.799999	98.771	-16.8508
42.500000	98.708	-17.1364
43.099998	98.667	-17.3726
43.700001	98.631	-17.6770
44.400002	98.577	-18.0812
45.000000	98.523	-18.3637
45.500000	98.483	-18.5454
46.200001	98.439	-18.8109
46.799999	98.402	-19.0936
47.500000	98.348	-19.4310
48.200001	98.286	-19.7031
48.700001	98.242	-19.8404
49.400002	98.191	-19.9805
50.000000	98.157	-20.1212
50.799999	98.110	-20.3926
51.500000	98.060	-20.6311
52.200001	98.011	-20.8283
53.000000	97.960	-21.0943
53.799999	97.896	-21.3847
54.500000	97.836	-21.5324
55.200001	97.792	-21.6287
56.000000	97.751	-21.8398
57.000000	97.683	-22.1437
58.000000	97.611	-22.3665
59.000000	97.538	-22.5337
60.000000	97.482	-22.6702
60.799999	97.432	-22.8912
61.500000	97.376	-23.0437
62.200001	97.326	-23.1385
63.000000	97.273	-23.2905
64.000000	97.201	-23.4418
65.000000	97.140	-23.6063
66.000000	97.069	-23.7719
67.000000	97.010	-23.8750
68.000000	96.948	-24.0483
69.000000	96.889	-24.1297
70.000000	96.836	-24.3388
71.000000	96.758	-24.4637
72.000000	96.703	-24.4704
73.000000	96.655	-24.5961
74.000000	96.598	-24.7300
75.000000	96.538	-24.8048
76.199997	96.481	-24.9006
77.500000	96.398	-25.0893
78.800003	96.320	-25.0754
80.000000	96.257	-25.1516
81.199997	96.193	-25.1781
82.500000	96.130	-25.2746
83.800003	96.061	-25.3654
85.000000	95.995	-25.4253
86.199997	95.930	-25.4016
87.500000	95.876	-25.4390
88.500000	95.816	-25.5076
90.000000	95.741	-25.4277
91.199997	95.684	-25.5013
92.500000	95.620	-25.4667
93.800003	95.561	-25.5226
95.000000	95.500	-25.5183
96.199997	95.441	-25.4985
97.500000	95.382	-25.4737
98.800003	95.316	-25.4188
100.000000	95.275	-25.3840
101.500000	95.193	-25.4206
103.000000	95.144	-25.3161
104.400002	95.069	-25.3663
106.000000	95.006	-25.1996
107.500000	94.950	-25.1459
109.000000	94.879	-25.1898
110.599998	94.816	-25.0550
112.000000	94.751	-24.9684
113.800003	94.702	-24.9290
115.000000	94.649	-24.8031
117.199997	94.567	-24.6698
118.000000	94.552	-24.6681
120.599998	94.456	-24.3253
122.000000	94.405	-24.5540
124.099998	94.349	-24.3875
125.000000	94.311	-24.3360
126.500000	94.267	-24.2059
128.000000	94.211	-24.0548
131.500000	94.123	-23.7784
132.000000	94.105	-23.8004
134.000000	94.022	-23.6798
136.000000	93.961	-23.5317
138.000000	93.902	-23.3411
140.000000	93.827	-23.2010
143.000000	93.741	-22.8550
145.000000	93.696	-22.6998
147.500000	93.603	-22.5596
150.000000	93.532	-22.3218
152.500000	93.468	-22.0942
155.000000	93.416	-21.8385
157.500000	93.337	-21.6406
160.000000	93.294	-21.4745
162.500000	93.257	-21.3153
165.000000	93.194	-20.9428
167.500000	93.142	-20.4232
170.000000	93.091	-20.3920
172.500000	93.051	-20.3289
175.000000	93.013	-20.0943
177.500000	92.983	-19.8499
180.000000	92.947	-19.5829
182.500000	92.892	-19.3945
185.000000	92.843	-19.2380
187.500000	92.796	-18.9768
190.000000	92.754	-18.6318
192.500000	92.708	-18.4364
195.000000	92.651	-18.1695
197.500000	92.609	-17.8842
200.000000	92.562	-17.6927
203.000000	92.516	-17.4300
206.000000	92.473	-17.1022
209.000000	92.429	-16.8409
212.000000	92.383	-16.5920
214.000000	92.349	-16.3627
218.000000	92.296	-15.9139
220.000000	92.262	-15.7757
224.000000	92.196	-15.3892
227.000000	92.172	-15.0932
230.000000	92.133	-14.8664
233.000000	92.091	-14.6092
236.000000	92.059	-14.3222
240.000000	92.016	-13.8762
243.000000	91.982	-13.6099
247.000000	91.931	-13.2622
250.000000	91.904	-12.9885
254.000000	91.864	-12.6155
258.000000	91.828	-12.2706
262.000000	91.790	-11.9248
265.000000	91.760	-11.6680
269.000000	91.737	-11.2664
272.000000	91.720	-11.0310
276.000000	91.667	-10.6653
280.000000	91.648	-10.2478
285.000000	91.599	-9.8529
290.000000	91.578	-9.5033
295.000000	91.547	-9.0462
300.000000	91.512	-8.5521
304.000000	91.495	-8.2985
307.000000	91.477	-8.0305
311.000000	91.450	-7.6536
315.000000	91.432	-7.3486
320.000000	91.410	-6.9769
325.000000	91.404	-6.5768
330.000000	91.372	-6.2326
335.000000	91.347	-5.7974
340.000000	91.337	-5.3140
345.000000	91.311	-4.9787
350.000000	91.295	-4.6416
355.000000	91.284	-4.2161
360.000000	91.265	-3.9016
365.000000	91.248	-3.4844
370.000000	91.226	-3.0287
375.000000	91.209	-2.6756
382.000000	91.181	-2.1890
387.000000	91.180	-1.8521
395.000000	91.179	-1.2631
400.000000	91.175	-0.8619
406.000000	91.153	-0.5443
412.000000	91.148	-0.0506
418.000000	91.132	0.3517
425.000000	91.118	0.8208
431.000000	91.106	1.2286
437.000000	91.105	1.6594
444.000000	91.089	2.1543
450.000000	91.077	2.4915
455.000000	91.067	2.8464
462.000000	91.069	3.3245
468.000000	91.053	3.6595
475.000000	91.047	4.0977
482.000000	91.053	4.6360
487.000000	91.043	4.8760
494.000000	91.053	5.3200
500.000000	91.037	5.8221
508.000000	91.044	6.1711
515.000000	91.040	6.6175
522.000000	91.048	7.1517
530.000000	91.039	7.6056
538.000000	91.045	8.1295
545.000000	91.056	8.5340
552.000000	91.036	8.9648
560.000000	91.053	9.4785
570.000000	91.055	10.0692
580.000000	91.063	10.6422
590.000000	91.068	11.2643
600.000000	91.096	11.8727
608.000000	91.088	12.3030
615.000000	91.103	12.7188
622.000000	91.098	13.2045
630.000000	91.109	13.6285
640.000000	91.129	14.3004
650.000000	91.138	14.8877
660.000000	91.148	15.3981
670.000000	91.176	16.0805
680.000000	91.195	16.6769
690.000000	91.213	17.2514
700.000000	91.237	17.9484
710.000000	91.256	18.5147
720.000000	91.279	19.1802
730.000000	91.314	19.8091
740.000000	91.332	20.2705
750.000000	91.359	21.0033
762.000000	91.388	21.7189
775.000000	91.445	22.5188
788.000000	91.487	23.3744
800.000000	91.537	24.1533
812.000000	91.572	24.9286
825.000000	91.634	25.7177
838.000000	91.697	26.4746
850.000000	91.766	27.3230
862.000000	91.830	28.2474
875.000000	91.911	28.9763
885.000000	91.968	29.7228
900.000000	92.064	30.6558
912.000000	92.175	31.4636
925.000000	92.286	32.2013
938.000000	92.416	33.0109
950.000000	92.527	33.6772
962.000000	92.663	34.2525
975.000000	92.796	34.8516
988.000000	92.935	35.3581
1000.000000	93.103	35.5723
1015.000000	93.213	36.1194
1030.000000	93.369	36.4734
1044.000000	93.523	36.7845
1060.000000	93.666	37.1046
1075.000000	93.809	37.4903
1090.000000	93.955	37.7377
1106.000000	94.114	37.9720
1120.000000	94.237	38.1260
1138.000000	94.414	38.3974
1150.000000	94.532	38.5073
1172.000000	94.740	38.6535
1180.000000	94.817	38.7041
1206.000000	95.048	38.7925
1220.000000	95.173	38.8314
1241.000000	95.363	38.7462
1250.000000	95.443	38.7020
1265.000000	95.575	38.6517
1280.000000	95.705	38.6034
1315.000000	95.991	38.2762
1320.000000	96.020	38.2098
1340.000000	96.183	38.0283
1360.000000	96.351	37.7469
1380.000000	96.501	37.5281
1400.000000	96.658	37.1727
1430.000000	96.866	36.7625
1450.000000	97.012	36.3700
1475.000000	97.183	35.8980
1500.000000	97.366	35.3582
1525.000000	97.526	34.8535
1550.000000	97.677	34.3095
1575.000000	97.838	33.6357
1600.000000	97.977	32.9134
1625.000000	98.135	32.2684
1650.000000	98.273	31.5804
1675.000000	98.408	30.7660
1700.000000	98.542	29.9386
1725.000000	98.654	29.0800
1750.000000	98.776	28.2264
1775.000000	98.877	27.2375
1800.000000	98.971	26.2494
1825.000000	99.065	25.2768
1850.000000	99.142	24.2774
1875.000000	99.213	23.2095
1900.000000	99.268	22.1807
1925.000000	99.325	21.1593
1950.000000	99.368	20.0382
1975.000000	99.390	19.0247
2000.000000	99.436	17.8371
2030.000000	99.418	16.7530
2060.000000	99.414	15.4833
2090.000000	99.393	14.3582
2120.000000	99.365	13.2593
2140.000000	99.334	12.4628
2180.000000	99.272	11.0925
2200.000000	99.238	10.4785
2240.000000	99.137	9.2932
2270.000000	99.058	8.4356
2300.000000	98.985	7.6787
2330.000000	98.889	7.0447
2360.000000	98.801	6.4152
2400.000000	98.676	5.7974
2430.000000	98.583	5.2931
2470.000000	98.460	4.7565
2500.000000	98.361	4.3994
2540.000000	98.232	4.1490
2580.000000	98.123	3.9108
2620.000000	98.004	3.8151
2650.000000	97.927	3.7205
2690.000000	97.824	3.7465
2720.000000	97.750	3.7613
2760.000000	97.665	3.8412
2800.000000	97.592	4.0296
2850.000000	97.484	4.3183
2900.000000	97.405	4.6143
2950.000000	97.348	4.9940
3000.000000	97.333	5.3944
3040.000000	97.271	5.6916
3070.000000	97.243	6.0066
3110.000000	97.231	6.2790
3150.000000	97.225	6.6614
3200.000000	97.216	7.0601
3250.000000	97.245	7.4978
3300.000000	97.255	7.9999
3350.000000	97.304	8.2597
3400.000000	97.364	8.5533
3450.000000	97.416	8.9396
3500.000000	97.477	9.1266
3550.000000	97.560	9.2852
3600.000000	97.650	9.3276
3650.000000	97.732	9.4088
3700.000000	97.851	9.3579
3750.000000	97.937	9.2559
3820.000000	98.084	8.8442
3870.000000	98.194	8.4459
3950.000000	98.370	7.6119
4000.000000	98.451	6.7773
4060.000000	98.592	5.9090
4120.000000	98.699	4.7309
4180.000000	98.775	3.4109
4250.000000	98.852	1.5871
4310.000000	98.882	-0.0618
4370.000000	98.874	-1.8542
4440.000000	98.811	-3.9713
4500.000000	98.724	-5.8833
4550.000000	98.595	-7.4418
4620.000000	98.373	-9.4395
4680.000000	98.151	-10.9846
4750.000000	97.831	-12.5137
4820.000000	97.474	-13.5877
4870.000000	97.206	-14.0374
4940.000000	96.826	-14.2710
5000.000000	96.527	-13.7903
5080.000000	96.160	-12.7562
5150.000000	95.998	-11.3962
5220.000000	96.000	-10.1435
5300.000000	96.123	-9.9262
5380.000000	96.230	-11.6248
5450.000000	96.097	-13.7379
5520.000000	95.792	-15.6759
5600.000000	95.327	-17.0423
5700.000000	94.704	-17.1931
5800.000000	94.075	-16.4368
5900.000000	93.569	-14.9074
6000.000000	93.048	-13.2649
6080.000000	92.783	-11.2302
6150.000000	92.510	-9.5216
6220.000000	92.292	-7.7969
6300.000000	92.069	-5.4318
6400.000000	91.839	-2.5890
6500.000000	91.671	0.0599
6600.000000	91.553	3.0561
6700.000000	91.502	6.1596
6800.000000	91.453	9.1157
6900.000000	91.496	12.1659
7000.000000	91.524	15.2855
7100.000000	91.716	17.9804
7200.000000	91.906	20.6558
7300.000000	92.154	23.0840
7400.000000	92.502	25.4147
7500.000000	92.851	27.4765
7620.000000	93.356	29.2668
7750.000000	93.993	30.4425
7880.000000	94.684	30.5196
8000.000000	95.354	29.0907
8120.000000	95.982	26.5108
8250.000000	96.501	21.7204
8380.000000	96.669	15.3791
8500.000000	96.433	9.3051
8620.000000	95.841	4.4841
8750.000000	94.911	1.3459
8850.000000	94.133	0.9536
9000.000000	92.982	3.0486
9120.000000	92.321	7.7042
9250.000000	91.947	13.9679
9380.000000	92.060	20.7395
9500.000000	92.544	25.8226
9620.000000	93.301	28.5971
9750.000000	94.150	28.7977
9880.000000	94.758	26.6804
10000.000000	95.037	23.9886
10150.000000	95.214	21.3518
10300.000000	95.238	19.6442
10440.000000	95.274	18.8463
10600.000000	95.445	18.2454
10750.000000	95.718	17.4046
10900.000000	96.113	15.7069
11060.000000	96.601	12.2595
11200.000000	96.937	7.5708
11380.000000	97.060	-0.8264
11500.000000	96.835	-7.0922
11720.000000	95.718	-16.9798
11800.000000	95.175	-19.6647
12060.000000	93.173	-23.9886
12200.000000	92.185	-23.8717
12410.000000	90.853	-21.7232
12500.000000	90.375	-20.3830
12650.000000	89.708	-17.5520
12800.000000	89.143	-14.5069
13150.000000	88.411	-7.2451
13200.000000	88.364	-6.1907
13400.000000	88.258	-3.0415
13600.000000	88.286	-0.7585
13800.000000	88.378	0.3599
14000.000000	88.461	0.2676
14300.000000	88.305	-1.5683
14500.000000	87.974	-3.1590
14750.000000	87.525	-2.8150
15000.000000	87.289	-3.3919
15250.000000	86.934	-4.9536
15500.000000	86.579	-6.5970
15750.000000	86.101	-9.0925
16000.000000	85.542	-11.4962
16250.000000	84.462	-14.6200
16500.000000	83.359	-15.5182
16750.000000	82.274	-12.2303
17000.000000	82.824	-10.0196
17250.000000	81.093	-15.6827
17500.000000	80.090	-11.0140
17750.000000	79.612	-6.9288
18000.000000	79.615	-5.4088
18250.000000	79.948	-6.6238
18500.000000	79.740	-15.9039
18750.000000	78.378	-22.0023
19000.000000	77.370	-28.3362
19250.000000	76.290	-34.7076
19500.000000	73.689	-43.6919
19750.000000	70.887	-48.6157
20000.000000	66.436	-51.8949
