* Measurement data measured by REW V5.30 beta 2
* Source: ASIO ASIO4ALL v2, USB PnP Audio Device 1. Timing signal peak level -21,1 dBFS, measurement signal peak level -15,0 dBFS
* Format: 2M Log Swept Sine, 1 sweep at -12,0 dBFS using an acoustic timing reference
* Dated: 04-dic-2023 21:27:17
* REW Settings:
*  C-weighting compensation: Off
*  Target level: 75.0 dB
* Note: ; Delay -0,0563 ms (-19 mm, -0,76 in) using estimated IR delay relative to Acoustic reference played from 2: xCORE USB Audio 2.0  2 with no timing offset Clock adjustment: 15,0 ppm
* Measurement: ZiiGaat Cinno R dic 4
* Smoothing: None
* Frequency Step: 1/48 octave
* Start Frequency: 20.000 Hz
*
* Freq(Hz)	SPL(dB)	Phase(degrees)
20.000000	101.410	28.7416
20.299999	101.434	28.1006
20.600000	101.457	27.4783
20.900000	101.478	26.8730
21.200001	101.500	26.2804
21.400000	101.515	25.8892
21.799999	101.544	25.1115
22.000000	101.557	24.7237
22.400000	101.583	23.9506
22.700001	101.599	23.3768
23.000000	101.613	22.8130
23.299999	101.626	22.2628
23.600000	101.637	21.7277
24.000000	101.651	21.0368
24.299999	101.661	20.5321
24.700001	101.675	19.8722
25.000000	101.684	19.3844
25.400000	101.696	18.7433
25.799999	101.706	18.1154
26.200001	101.715	17.5032
26.500000	101.721	17.0540
26.900000	101.729	16.4654
27.200001	101.734	16.0294
27.600000	101.740	15.4540
28.000000	101.744	14.8882
28.500000	101.746	14.2037
29.000000	101.746	13.5522
29.500000	101.747	12.9278
30.000000	101.749	12.3119
30.400000	101.751	11.8145
30.700001	101.752	11.4385
31.100000	101.750	10.9403
31.500000	101.745	10.4561
32.000000	101.737	9.8805
32.500000	101.731	9.3307
33.000000	101.727	8.7869
33.500000	101.722	8.2403
34.000000	101.715	7.6984
34.500000	101.706	7.1693
35.000000	101.697	6.6496
35.500000	101.686	6.1367
36.000000	101.672	5.6442
36.500000	101.657	5.1877
37.000000	101.645	4.7589
37.500000	101.636	4.3287
38.200001	101.624	3.6992
38.700001	101.611	3.2528
39.500000	101.589	2.5724
40.000000	101.576	2.1451
40.599998	101.555	1.6292
41.200001	101.531	1.1516
41.799999	101.509	0.7196
42.500000	101.492	0.2092
43.099998	101.477	-0.2687
43.700001	101.454	-0.7495
44.400002	101.422	-1.2582
45.000000	101.397	-1.6405
45.500000	101.380	-1.9441
46.200001	101.361	-2.3881
46.799999	101.344	-2.7945
47.500000	101.318	-3.2619
48.200001	101.290	-3.7010
48.700001	101.270	-4.0062
49.400002	101.242	-4.4268
50.000000	101.217	-4.7742
50.799999	101.184	-5.2278
51.500000	101.154	-5.6223
52.200001	101.123	-6.0008
53.000000	101.089	-6.4201
53.799999	101.054	-6.8370
54.500000	101.023	-7.1846
55.200001	100.994	-7.5204
56.000000	100.961	-7.9094
57.000000	100.918	-8.3812
58.000000	100.876	-8.8388
59.000000	100.830	-9.2872
60.000000	100.786	-9.6900
60.799999	100.753	-10.0286
61.500000	100.720	-10.3252
62.200001	100.686	-10.5841
63.000000	100.654	-10.8740
64.000000	100.612	-11.2722
65.000000	100.567	-11.6313
66.000000	100.524	-11.9983
67.000000	100.475	-12.3352
68.000000	100.433	-12.6354
69.000000	100.390	-12.9657
70.000000	100.344	-13.2677
71.000000	100.302	-13.5749
72.000000	100.256	-13.8828
73.000000	100.210	-14.1641
74.000000	100.165	-14.4375
75.000000	100.121	-14.7135
76.199997	100.065	-15.0132
77.500000	100.010	-15.3191
78.800003	99.953	-15.6406
80.000000	99.900	-15.9277
81.199997	99.845	-16.1857
82.500000	99.791	-16.4389
83.800003	99.740	-16.7225
85.000000	99.686	-16.9819
86.199997	99.633	-17.1876
87.500000	99.580	-17.4214
88.500000	99.537	-17.6015
90.000000	99.475	-17.8265
91.199997	99.428	-18.0372
92.500000	99.371	-18.2220
93.800003	99.325	-18.4196
95.000000	99.271	-18.6133
96.199997	99.223	-18.7517
97.500000	99.174	-18.9182
98.800003	99.124	-19.1169
100.000000	99.072	-19.2600
101.500000	99.015	-19.4074
103.000000	98.956	-19.5963
104.400002	98.901	-19.7076
106.000000	98.839	-19.8714
107.500000	98.784	-19.9903
109.000000	98.728	-20.1370
110.599998	98.663	-20.2366
112.000000	98.623	-20.3149
113.800003	98.560	-20.5258
115.000000	98.513	-20.6178
117.199997	98.438	-20.7507
118.000000	98.411	-20.7896
120.599998	98.320	-20.9781
122.000000	98.276	-20.9809
124.099998	98.204	-21.0640
125.000000	98.175	-21.1067
126.500000	98.123	-21.1520
128.000000	98.074	-21.2200
131.500000	97.965	-21.3469
132.000000	97.950	-21.3753
134.000000	97.885	-21.3920
136.000000	97.829	-21.4207
138.000000	97.769	-21.4259
140.000000	97.709	-21.4719
143.000000	97.622	-21.4839
145.000000	97.567	-21.5058
147.500000	97.495	-21.5077
150.000000	97.426	-21.4861
152.500000	97.354	-21.4543
155.000000	97.293	-21.4316
157.500000	97.221	-21.4346
160.000000	97.155	-21.4981
162.500000	97.099	-21.3797
165.000000	97.050	-21.3464
167.500000	96.982	-21.2643
170.000000	96.927	-21.1633
172.500000	96.862	-21.1270
175.000000	96.806	-21.0820
177.500000	96.752	-20.9884
180.000000	96.692	-20.9323
182.500000	96.640	-20.7444
185.000000	96.593	-20.7042
187.500000	96.539	-20.6830
190.000000	96.493	-20.5808
192.500000	96.439	-20.4776
195.000000	96.388	-20.3855
197.500000	96.346	-20.2701
200.000000	96.295	-20.1720
203.000000	96.238	-20.0626
206.000000	96.192	-19.9386
209.000000	96.137	-19.7673
212.000000	96.077	-19.6423
214.000000	96.052	-19.5081
218.000000	95.980	-19.3799
220.000000	95.950	-19.2780
224.000000	95.899	-18.9834
227.000000	95.845	-18.8834
230.000000	95.798	-18.7469
233.000000	95.753	-18.6091
236.000000	95.709	-18.4446
240.000000	95.656	-18.2226
243.000000	95.618	-18.0580
247.000000	95.564	-17.8266
250.000000	95.519	-17.6968
254.000000	95.474	-17.4722
258.000000	95.421	-17.2685
262.000000	95.370	-17.0439
265.000000	95.339	-16.8845
269.000000	95.287	-16.6517
272.000000	95.255	-16.4924
276.000000	95.219	-16.2816
280.000000	95.172	-16.0018
285.000000	95.119	-15.7553
290.000000	95.075	-15.4643
295.000000	95.023	-15.2005
300.000000	94.980	-14.8940
304.000000	94.942	-14.7113
307.000000	94.912	-14.5251
311.000000	94.883	-14.2984
315.000000	94.849	-14.0623
320.000000	94.802	-13.7633
325.000000	94.762	-13.5132
330.000000	94.727	-13.2436
335.000000	94.695	-12.9442
340.000000	94.653	-12.6981
345.000000	94.617	-12.3868
350.000000	94.585	-12.0954
355.000000	94.552	-11.8383
360.000000	94.519	-11.5403
365.000000	94.493	-11.2777
370.000000	94.462	-10.9924
375.000000	94.430	-10.6777
382.000000	94.392	-10.3138
387.000000	94.366	-10.1155
395.000000	94.324	-9.6622
400.000000	94.302	-9.4312
406.000000	94.271	-9.0697
412.000000	94.238	-8.7920
418.000000	94.210	-8.4088
425.000000	94.190	-8.0550
431.000000	94.167	-7.7687
437.000000	94.135	-7.4644
444.000000	94.108	-7.0498
450.000000	94.085	-6.7484
455.000000	94.071	-6.5649
462.000000	94.049	-6.1696
468.000000	94.029	-5.8320
475.000000	94.009	-5.5033
482.000000	93.988	-5.1260
487.000000	93.975	-4.9324
494.000000	93.955	-4.4979
500.000000	93.926	-4.2377
508.000000	93.913	-3.7949
515.000000	93.885	-3.4744
522.000000	93.882	-3.1240
530.000000	93.851	-2.7237
538.000000	93.841	-2.2786
545.000000	93.822	-1.9316
552.000000	93.809	-1.5991
560.000000	93.793	-1.2234
570.000000	93.783	-0.6823
580.000000	93.770	-0.2270
590.000000	93.754	0.3227
600.000000	93.730	0.8319
608.000000	93.731	1.2571
615.000000	93.721	1.5657
622.000000	93.708	1.9295
630.000000	93.698	2.3708
640.000000	93.701	2.8686
650.000000	93.702	3.4003
660.000000	93.687	3.9760
670.000000	93.690	4.4939
680.000000	93.680	5.0496
690.000000	93.686	5.5664
700.000000	93.681	6.1714
710.000000	93.692	6.7545
720.000000	93.701	7.3482
730.000000	93.714	7.9317
740.000000	93.732	8.5257
750.000000	93.751	9.1036
762.000000	93.786	9.8860
775.000000	93.834	10.6662
788.000000	93.887	11.4631
800.000000	93.947	12.1552
812.000000	94.018	12.8649
825.000000	94.101	13.6191
838.000000	94.188	14.2468
850.000000	94.279	14.7387
862.000000	94.393	15.2075
875.000000	94.492	15.5881
885.000000	94.576	15.8768
900.000000	94.701	16.2241
912.000000	94.787	16.3081
925.000000	94.889	16.4568
938.000000	94.980	16.5324
950.000000	95.058	16.6529
962.000000	95.126	16.7153
975.000000	95.213	16.7515
988.000000	95.280	16.7998
1000.000000	95.379	16.8454
1015.000000	95.424	16.8466
1030.000000	95.511	16.8675
1044.000000	95.581	16.8069
1060.000000	95.665	16.8213
1075.000000	95.750	16.7318
1090.000000	95.823	16.6142
1106.000000	95.902	16.4828
1120.000000	95.964	16.3047
1138.000000	96.033	16.1516
1150.000000	96.087	15.9666
1172.000000	96.168	15.6516
1180.000000	96.199	15.5201
1206.000000	96.288	15.0115
1220.000000	96.327	14.7287
1241.000000	96.385	14.2991
1250.000000	96.399	14.1203
1265.000000	96.430	13.7622
1280.000000	96.453	13.3866
1315.000000	96.481	12.5347
1320.000000	96.492	12.3841
1340.000000	96.486	11.9213
1360.000000	96.476	11.4363
1380.000000	96.449	10.9459
1400.000000	96.417	10.5522
1430.000000	96.355	9.9783
1450.000000	96.294	9.6693
1475.000000	96.213	9.3714
1500.000000	96.130	9.1887
1525.000000	96.039	9.1190
1550.000000	95.946	9.1456
1575.000000	95.852	9.2362
1600.000000	95.769	9.4344
1625.000000	95.680	9.6731
1650.000000	95.600	10.1242
1675.000000	95.528	10.5238
1700.000000	95.457	11.0186
1725.000000	95.402	11.5898
1750.000000	95.351	12.2045
1775.000000	95.320	12.8458
1800.000000	95.287	13.4589
1825.000000	95.262	14.1290
1850.000000	95.254	14.8199
1875.000000	95.243	15.5335
1900.000000	95.254	16.2681
1925.000000	95.259	16.9499
1950.000000	95.284	17.5951
1975.000000	95.302	18.2848
2000.000000	95.365	18.6410
2030.000000	95.395	19.6347
2060.000000	95.451	20.3538
2090.000000	95.525	21.0986
2120.000000	95.591	21.7327
2140.000000	95.636	22.1802
2180.000000	95.750	22.9160
2200.000000	95.796	23.2833
2240.000000	95.931	23.9314
2270.000000	96.025	24.3676
2300.000000	96.132	24.7603
2330.000000	96.219	25.1604
2360.000000	96.323	25.4492
2400.000000	96.475	25.7541
2430.000000	96.574	26.0180
2470.000000	96.712	26.2428
2500.000000	96.828	26.3688
2540.000000	96.962	26.4387
2580.000000	97.106	26.5000
2620.000000	97.239	26.4135
2650.000000	97.339	26.3497
2690.000000	97.470	26.2276
2720.000000	97.567	26.0533
2760.000000	97.694	25.7499
2800.000000	97.814	25.4342
2850.000000	97.954	25.0164
2900.000000	98.088	24.4213
2950.000000	98.205	23.8161
3000.000000	98.325	22.8803
3040.000000	98.401	22.5536
3070.000000	98.459	22.0496
3110.000000	98.517	21.3896
3150.000000	98.571	20.7123
3200.000000	98.628	19.8650
3250.000000	98.666	18.8863
3300.000000	98.690	18.0099
3350.000000	98.701	17.0791
3400.000000	98.686	16.1006
3450.000000	98.655	15.2337
3500.000000	98.616	14.3604
3550.000000	98.539	13.5690
3600.000000	98.453	12.8734
3650.000000	98.334	12.3017
3700.000000	98.215	11.9354
3750.000000	98.085	11.7882
3820.000000	97.936	12.0274
3870.000000	97.859	12.4031
3950.000000	97.800	13.3060
4000.000000	97.806	14.0661
4060.000000	97.922	14.2853
4120.000000	98.037	14.2432
4180.000000	98.168	13.8782
4250.000000	98.299	13.0364
4310.000000	98.377	11.9091
4370.000000	98.418	10.6343
4440.000000	98.407	8.9786
4500.000000	98.356	7.5626
4550.000000	98.286	6.3206
4620.000000	98.125	4.6214
4680.000000	97.957	3.3912
4750.000000	97.709	2.0667
4820.000000	97.409	1.1251
4870.000000	97.187	0.7115
4940.000000	96.882	0.3890
5000.000000	96.638	0.1112
5080.000000	96.272	0.6123
5150.000000	95.983	1.1866
5220.000000	95.715	1.9994
5300.000000	95.441	3.2014
5380.000000	95.212	4.6071
5450.000000	95.053	6.1433
5520.000000	94.952	7.7182
5600.000000	94.886	9.6173
5700.000000	94.913	11.8498
5800.000000	95.059	13.8485
5900.000000	95.294	15.2761
6000.000000	95.639	16.1419
6080.000000	95.916	15.2367
6150.000000	96.135	14.0898
6220.000000	96.309	12.4846
6300.000000	96.395	9.8761
6400.000000	96.282	6.2948
6500.000000	95.927	3.0863
6600.000000	95.421	0.8586
6700.000000	94.824	-0.2014
6800.000000	94.201	-0.0656
6900.000000	93.640	0.9823
7000.000000	93.229	3.1279
7100.000000	92.759	5.0712
7200.000000	92.460	7.7651
7300.000000	92.248	10.4612
7400.000000	92.122	13.2875
7500.000000	92.068	16.1365
7620.000000	92.179	19.2917
7750.000000	92.126	21.2108
7880.000000	92.213	25.5770
8000.000000	92.614	28.8186
8120.000000	93.102	30.2300
8250.000000	93.700	31.4448
8380.000000	94.404	31.3681
8500.000000	95.093	29.8641
8620.000000	95.774	26.7770
8750.000000	96.404	21.2492
8850.000000	96.689	15.5967
9000.000000	96.663	6.0931
9120.000000	96.160	-1.8283
9250.000000	95.257	-8.4635
9380.000000	94.156	-12.9411
9500.000000	93.046	-15.2803
9620.000000	91.978	-15.6673
9750.000000	90.893	-14.8594
9880.000000	89.912	-12.4133
10000.000000	89.282	-9.0256
10150.000000	88.517	-5.1236
10300.000000	88.083	-0.8869
10440.000000	87.813	3.0119
10600.000000	87.629	6.5125
10750.000000	87.482	9.5730
10900.000000	87.371	12.1543
11060.000000	87.308	15.1618
11200.000000	87.287	17.5354
11380.000000	87.434	20.4419
11500.000000	87.540	21.6981
11720.000000	87.788	23.5470
11800.000000	87.885	24.0684
12060.000000	88.200	25.4573
12200.000000	88.441	25.7776
12410.000000	88.812	26.1273
12500.000000	89.031	25.6449
12650.000000	89.293	24.8924
12800.000000	89.675	23.6641
13150.000000	90.398	18.0575
13200.000000	90.479	17.4226
13400.000000	90.730	12.6038
13600.000000	90.822	7.6969
13800.000000	90.785	2.8421
14000.000000	90.692	-1.5180
14300.000000	90.441	-9.0969
14500.000000	89.924	-13.7814
14750.000000	91.170	1.1746
15000.000000	92.390	-28.6956
15250.000000	90.661	-46.6247
15500.000000	87.990	-58.7012
15750.000000	84.037	-57.8620
16000.000000	85.390	-44.2208
16250.000000	83.525	-57.9947
16500.000000	81.297	-57.3664
16750.000000	79.315	-51.8967
17000.000000	77.714	-42.9872
17250.000000	77.102	-31.3201
17500.000000	77.204	-20.6065
17750.000000	77.734	-13.7280
18000.000000	78.411	-12.1540
18250.000000	78.646	-11.2901
18500.000000	78.472	-9.9860
18750.000000	78.090	-8.0773
19000.000000	77.607	-0.2760
19250.000000	79.319	2.0289
19500.000000	79.622	-0.1549
19750.000000	80.124	-1.3062
20000.000000	80.353	-2.5601
