* Measurement data measured by REW V5.20 Beta 61
* Source: USB-C to 3.5mm Headphone Jack Adapter, USB-C to 3.5mm Headphone Jack Adapter, 0, volume: 0.138. Timing signal peak level -18.2 dBFS, measurement signal peak level -14.6 dBFS
* Format: 256k Log Swept Sine, 1 sweep at -12.0 dBFS using an acoustic timing reference
* Dated: Oct 1, 2023 6:48:11 PM
* REW Settings:
*  C-weighting compensation: Off
*  Target level: 75.0 dB
* Note: Delay -0.0262 ms (-9.0 mm, -0.35 in) using estimated IR delay relative to Acoustic reference on USB-C to 3.5mm Headphone Jack Adapter R with no timing offset
* Measurement: r
* Smoothing: None
* Frequency Step: 1/48 octave
* Start Frequency: 20.300 Hz
*
* Freq(Hz)	SPL(dB)	Phase(degrees)
20.299999	102.132675	157.5968
20.600000	102.079018	157.1267
20.900000	102.016174	156.7242
21.200001	101.953270	156.3192
21.400000	101.912605	156.0383
21.799999	101.835510	155.4610
22.000000	101.800453	155.1742
22.400000	101.741913	154.6286
22.700001	101.712624	154.2365
23.000000	101.697006	153.8204
23.299999	101.688202	153.3337
23.600000	101.674866	152.7621
24.000000	101.630737	151.9114
24.299999	101.569168	151.3016
24.700001	101.455643	150.6713
25.000000	101.364639	150.3910
25.400000	101.263992	150.2260
25.799999	101.205612	150.1022
26.200001	101.179817	149.8145
26.500000	101.164185	149.4580
26.900000	101.129074	148.8765
27.200001	101.087845	148.4630
27.600000	101.020905	148.0485
28.000000	100.957352	147.8009
28.500000	100.896431	147.5690
29.000000	100.842255	147.2144
29.500000	100.770996	146.6977
30.000000	100.677971	146.1248
30.400000	100.599228	145.6870
30.700001	100.544090	145.3739
31.100000	100.479202	144.9622
31.500000	100.422401	144.5510
32.000000	100.356155	144.0569
32.500000	100.290176	143.6203
33.000000	100.223969	143.2464
33.500000	100.158264	142.9023
34.000000	100.092323	142.5514
34.500000	100.025299	142.1822
35.000000	99.957306	141.8035
35.500000	99.888802	141.4293
36.000000	99.819862	141.0701
36.500000	99.751190	140.7292
37.000000	99.684258	140.3974
37.500000	99.619507	140.0584
38.200001	99.528435	139.5707
38.700001	99.460739	139.2502
39.500000	99.356804	138.8474
40.000000	99.300789	138.6156
40.599998	99.238007	138.2712
41.200001	99.167099	137.8527
41.799999	99.084869	137.4496
42.500000	98.987762	137.0755
43.099998	98.912300	136.7955
43.700001	98.840439	136.5008
44.400002	98.755898	136.1438
45.000000	98.683952	135.8502
45.500000	98.624977	135.6226
46.200001	98.542809	135.3420
46.799999	98.473900	135.1297
47.500000	98.396286	134.8532
48.200001	98.316422	134.5057
48.700001	98.256271	134.2442
49.400002	98.173309	133.9277
50.000000	98.110153	133.7120
50.799999	98.035744	133.4283
51.500000	97.964951	133.1365
52.200001	97.881905	132.8691
53.000000	97.790970	132.6514
53.799999	97.713516	132.4028
54.500000	97.638954	132.1437
55.200001	97.562897	131.9350
56.000000	97.492279	131.6583
57.000000	97.393410	131.2405
58.000000	97.292938	131.1331
59.000000	97.207855	130.9527
60.000000	97.098022	130.6167
60.799999	97.031403	130.2965
61.500000	96.979019	129.9424
62.200001	96.912827	129.7062
63.000000	96.835716	129.6347
64.000000	96.740646	129.4999
65.000000	96.642639	129.2636
66.000000	96.559914	128.9792
67.000000	96.472603	128.7466
68.000000	96.389847	128.5822
69.000000	96.309357	128.3425
70.000000	96.226608	128.1213
71.000000	96.146133	127.9627
72.000000	96.070023	127.8309
73.000000	95.995316	127.6361
74.000000	95.914825	127.4507
75.000000	95.842918	127.2986
76.199997	95.753731	127.0277
77.500000	95.646233	126.7869
78.800003	95.556976	126.6427
80.000000	95.476028	126.4266
81.199997	95.388733	126.2330
82.500000	95.305717	126.0856
83.800003	95.211906	125.9834
85.000000	95.128487	125.8202
86.199997	95.053223	125.5637
87.500000	94.973778	125.4364
88.500000	94.918610	125.3265
90.000000	94.828247	125.0946
91.199997	94.756165	124.9699
92.500000	94.677216	124.8762
93.800003	94.589790	124.7090
95.000000	94.530418	124.6679
96.199997	94.462692	124.4480
97.500000	94.384109	124.3347
98.800003	94.322433	124.1920
100.000000	94.247520	124.1235
101.500000	94.185150	123.9656
103.000000	94.100227	123.8047
104.400002	94.020935	123.7815
106.000000	93.951630	123.5230
107.500000	93.874237	123.3982
109.000000	93.792686	123.3596
110.599998	93.727875	123.1740
112.000000	93.672363	123.0820
113.800003	93.579742	122.8945
115.000000	93.525139	122.8083
117.199997	93.429199	122.7021
118.000000	93.396126	122.5882
120.599998	93.307220	122.4295
122.000000	93.232864	122.3358
124.099998	93.153351	122.1973
125.000000	93.117081	122.1099
126.500000	93.056999	122.0196
128.000000	93.008301	121.9117
131.500000	92.881111	121.6873
132.000000	92.861084	121.6621
134.000000	92.794891	121.5709
136.000000	92.726204	121.4726
138.000000	92.648285	121.3022
140.000000	92.591530	121.2106
143.000000	92.497314	121.0548
145.000000	92.437683	120.9251
147.500000	92.365059	120.7389
150.000000	92.288422	120.6196
152.500000	92.219650	120.4734
155.000000	92.151833	120.2646
157.500000	92.092514	120.1731
160.000000	92.019699	120.0430
162.500000	91.946609	119.9658
165.000000	91.889099	119.8147
167.500000	91.828003	119.7081
170.000000	91.769226	119.5550
172.500000	91.714966	119.4234
175.000000	91.651230	119.3048
177.500000	91.594124	119.2360
180.000000	91.558052	119.0820
182.500000	91.499428	119.1333
185.000000	91.441345	118.9817
187.500000	91.392250	118.9842
190.000000	91.349434	118.9254
192.500000	91.323212	118.9603
195.000000	91.288910	118.9556
197.500000	91.283134	118.9790
200.000000	91.277710	118.8462
203.000000	91.241119	118.5665
206.000000	91.232208	118.2792
209.000000	91.199600	117.9478
212.000000	91.170837	117.6669
214.000000	91.141510	117.4717
218.000000	91.083817	117.1694
220.000000	91.054108	117.0388
224.000000	91.012421	116.7887
227.000000	90.966965	116.5856
230.000000	90.925690	116.3513
233.000000	90.905220	116.2258
236.000000	90.867325	116.0398
240.000000	90.826881	115.7066
243.000000	90.798126	115.5940
247.000000	90.756500	115.3582
250.000000	90.734795	115.2206
254.000000	90.700569	114.9979
258.000000	90.668930	114.7631
262.000000	90.642166	114.5574
265.000000	90.619812	114.4082
269.000000	90.589745	114.1452
272.000000	90.572769	114.0487
276.000000	90.552048	113.8335
280.000000	90.522827	113.6470
285.000000	90.500023	113.4066
290.000000	90.475708	113.1912
295.000000	90.453545	113.0126
300.000000	90.458405	112.8966
304.000000	90.445786	112.8877
307.000000	90.443573	112.7304
311.000000	90.463463	112.7010
315.000000	90.500023	112.5871
320.000000	90.546524	112.2807
325.000000	90.592590	111.7793
330.000000	90.618187	111.2259
335.000000	90.626358	110.6563
340.000000	90.628082	110.1027
345.000000	90.630432	109.5888
350.000000	90.624016	109.1413
355.000000	90.621033	108.7212
360.000000	90.630371	108.2542
365.000000	90.620102	107.8567
370.000000	90.619003	107.4894
375.000000	90.617905	107.0878
382.000000	90.622917	106.5502
387.000000	90.630630	106.1708
395.000000	90.635956	105.5423
400.000000	90.643257	105.1619
406.000000	90.645264	104.7159
412.000000	90.660881	104.2430
418.000000	90.668968	103.7925
425.000000	90.682251	103.2210
431.000000	90.693565	102.7975
437.000000	90.703011	102.3327
444.000000	90.716957	101.7660
450.000000	90.727554	101.2930
455.000000	90.740891	100.9093
462.000000	90.756821	100.3905
468.000000	90.764450	99.8987
475.000000	90.780334	99.3763
482.000000	90.794701	98.8147
487.000000	90.803131	98.4198
494.000000	90.814850	97.8803
500.000000	90.821327	97.4380
508.000000	90.834991	96.8252
515.000000	90.846962	96.2724
522.000000	90.849945	95.7567
530.000000	90.860329	95.1838
538.000000	90.866913	94.5836
545.000000	90.870293	94.0992
552.000000	90.875710	93.5772
560.000000	90.876953	93.0588
570.000000	90.880569	92.3783
580.000000	90.882126	91.7563
590.000000	90.881126	91.1064
600.000000	90.885139	90.4902
608.000000	90.877686	90.0146
615.000000	90.875153	89.6442
622.000000	90.876694	89.2730
630.000000	90.868950	88.8075
640.000000	90.867439	88.3179
650.000000	90.856911	87.7929
660.000000	90.849869	87.3032
670.000000	90.843475	86.8814
680.000000	90.831215	86.4678
690.000000	90.820580	86.0829
700.000000	90.806580	85.7232
710.000000	90.794777	85.3682
720.000000	90.793167	85.0815
730.000000	90.774635	84.7834
740.000000	90.763245	84.5582
750.000000	90.756378	84.3130
762.000000	90.743103	84.0554
775.000000	90.733368	83.8720
788.000000	90.722778	83.7078
800.000000	90.718681	83.5740
812.000000	90.715622	83.5001
825.000000	90.712914	83.4432
838.000000	90.719696	83.4438
850.000000	90.728539	83.4826
862.000000	90.737785	83.5366
875.000000	90.759491	83.6486
885.000000	90.778297	83.6985
900.000000	90.812622	83.8336
912.000000	90.848495	83.9565
925.000000	90.887947	84.1257
938.000000	90.934738	84.2882
950.000000	90.987434	84.4412
962.000000	91.039085	84.5613
975.000000	91.105362	84.7228
988.000000	91.172508	84.8804
1000.000000	91.246277	84.9921
1015.000000	91.334930	85.1207
1030.000000	91.434845	85.2443
1044.000000	91.529686	85.3196
1060.000000	91.646584	85.3820
1075.000000	91.752800	85.3670
1090.000000	91.868027	85.3095
1106.000000	91.986168	85.2080
1120.000000	92.093124	85.1008
1138.000000	92.224213	84.9323
1150.000000	92.313477	84.7329
1172.000000	92.472107	84.3868
1180.000000	92.524246	84.2347
1206.000000	92.692482	83.7394
1220.000000	92.779648	83.4354
1241.000000	92.906334	83.0061
1250.000000	92.955688	82.7818
1265.000000	93.035629	82.4496
1280.000000	93.110710	82.1148
1315.000000	93.272408	81.3103
1320.000000	93.298531	81.1645
1340.000000	93.377632	80.7676
1360.000000	93.454544	80.3582
1380.000000	93.536530	79.9436
1400.000000	93.596436	79.6467
1430.000000	93.693008	79.1860
1450.000000	93.757767	78.8859
1475.000000	93.837616	78.6006
1500.000000	93.920959	78.2572
1525.000000	93.999138	78.0923
1550.000000	94.079895	77.9069
1575.000000	94.164246	77.7532
1600.000000	94.249512	77.6060
1625.000000	94.342621	77.4623
1650.000000	94.435791	77.3483
1675.000000	94.540039	77.2324
1700.000000	94.643150	77.1545
1725.000000	94.751343	77.0728
1750.000000	94.866539	76.9316
1775.000000	94.986984	76.8264
1800.000000	95.106438	76.6867
1825.000000	95.233299	76.4849
1850.000000	95.364998	76.2973
1875.000000	95.500664	76.0862
1900.000000	95.634003	75.8199
1925.000000	95.775192	75.5168
1950.000000	95.920372	75.1833
1975.000000	96.063553	74.7955
2000.000000	96.205482	74.3703
2030.000000	96.379723	73.7778
2060.000000	96.554985	73.1075
2090.000000	96.724503	72.3584
2120.000000	96.893112	71.5412
2140.000000	97.002045	70.9565
2180.000000	97.211029	69.6367
2200.000000	97.310379	68.9432
2240.000000	97.498405	67.4313
2270.000000	97.624756	66.2132
2300.000000	97.741081	64.9531
2330.000000	97.842346	63.6149
2360.000000	97.931877	62.2552
2400.000000	98.022446	60.3609
2430.000000	98.077530	58.9227
2470.000000	98.122849	56.9756
2500.000000	98.137428	55.4983
2540.000000	98.131927	53.5336
2580.000000	98.099403	51.6327
2620.000000	98.040726	49.7969
2650.000000	97.980621	48.4788
2690.000000	97.883080	46.7960
2720.000000	97.797592	45.5928
2760.000000	97.667076	44.0860
2800.000000	97.523468	42.7323
2850.000000	97.327454	41.2088
2900.000000	97.121292	39.8753
2950.000000	96.905205	38.7392
3000.000000	96.688972	37.7773
3040.000000	96.512619	37.1326
3070.000000	96.379501	36.6966
3110.000000	96.200447	36.2225
3150.000000	96.021217	35.8566
3200.000000	95.793236	35.5084
3250.000000	95.558548	35.3374
3300.000000	95.313332	35.4541
3350.000000	95.077065	35.8210
3400.000000	94.844749	36.5564
3450.000000	94.636414	37.7689
3500.000000	94.476456	39.4774
3550.000000	94.425102	41.7381
3600.000000	94.531616	44.1309
3650.000000	94.798935	46.1388
3700.000000	95.171867	47.2832
3750.000000	95.589897	47.4683
3820.000000	96.122543	46.4015
3870.000000	96.445770	45.0125
3950.000000	96.857414	42.2457
4000.000000	97.065231	40.3068
4060.000000	97.288422	37.7994
4120.000000	97.480545	35.0032
4180.000000	97.639832	31.9367
4250.000000	97.773438	27.8583
4310.000000	97.816803	23.8486
4370.000000	97.764137	19.4581
4440.000000	97.528084	13.9992
4500.000000	97.140076	9.3627
4550.000000	96.662354	5.8864
4620.000000	95.809196	2.4063
4680.000000	95.013428	1.2645
4750.000000	94.179001	1.8195
4820.000000	93.564812	3.5947
4870.000000	93.245712	4.9507
4940.000000	92.918930	6.7941
5000.000000	92.708588	8.1314
5080.000000	92.484215	9.7395
5150.000000	92.313148	11.0038
5220.000000	92.162300	12.1105
5300.000000	91.999008	13.3765
5380.000000	91.840576	14.7754
5450.000000	91.722473	15.9368
5520.000000	91.619125	17.2683
5600.000000	91.512962	18.8990
5700.000000	91.434082	21.1370
5800.000000	91.432869	23.5554
5900.000000	91.509773	26.0178
6000.000000	91.677238	28.3968
6080.000000	91.868851	30.1089
6150.000000	92.077560	31.4652
6220.000000	92.307335	32.5747
6300.000000	92.596306	33.5836
6400.000000	92.971855	34.4142
6500.000000	93.360023	34.8412
6600.000000	93.730011	35.0077
6700.000000	94.086395	34.8830
6800.000000	94.451065	34.7193
6900.000000	94.805496	34.3586
7000.000000	95.176910	33.8231
7100.000000	95.536484	33.2492
7200.000000	95.961845	32.7443
7300.000000	96.467354	31.6233
7400.000000	96.974236	29.6912
7500.000000	97.452621	27.1377
7620.000000	97.956284	23.3569
7750.000000	98.496384	18.1712
7880.000000	98.816353	10.9947
8000.000000	98.737000	4.2383
8120.000000	98.431099	-1.6004
8250.000000	97.946739	-6.7160
8380.000000	97.392899	-10.6184
8500.000000	96.875107	-13.2791
8620.000000	96.381226	-15.2541
8750.000000	95.903366	-16.8420
8850.000000	95.570786	-17.8557
9000.000000	95.133316	-19.2800
9120.000000	94.839516	-20.6651
9250.000000	94.487213	-22.4424
9380.000000	94.086456	-24.4905
9500.000000	93.649651	-26.6686
9620.000000	93.103333	-28.7059
9750.000000	92.389671	-30.6668
9880.000000	91.556358	-31.7655
10000.000000	90.725342	-31.9491
10150.000000	89.684502	-30.7895
10300.000000	88.669800	-28.2755
10440.000000	87.823959	-25.0172
10600.000000	87.004631	-20.3239
10750.000000	86.371483	-15.4142
10900.000000	85.872643	-10.1449
11060.000000	85.514725	-4.4033
11200.000000	85.331696	0.4714
11380.000000	85.257019	6.0218
11500.000000	85.225327	9.3962
11720.000000	85.305794	15.4114
11800.000000	85.379158	17.4387
12060.000000	85.804932	22.8720
12200.000000	86.111610	25.1513
12410.000000	86.709229	26.8478
12500.000000	86.941246	27.0518
12650.000000	87.295105	26.7508
12800.000000	87.573074	26.0965
13150.000000	88.260445	25.1428
13200.000000	88.385185	25.0470
13400.000000	89.183334	23.9980
13600.000000	90.278130	20.3485
13800.000000	91.409912	13.2416
14000.000000	92.353043	2.6785
14300.000000	93.001907	-16.8080
14500.000000	92.950951	-29.8528
14750.000000	92.598282	-44.2257
15000.000000	92.319412	-56.4860
15250.000000	92.590752	-67.9515
15500.000000	93.456650	-82.7355
15750.000000	93.959068	-104.5196
16000.000000	94.238205	-124.4078
16250.000000	95.042480	-150.0948
16500.000000	94.890182	176.5005
16750.000000	93.681267	144.6492
17000.000000	92.369049	113.0586
17250.000000	90.599434	78.3553
17500.000000	87.901291	42.9537
17750.000000	84.599655	9.9343
18000.000000	81.254257	-20.5394
18250.000000	78.122932	-51.3761
18500.000000	75.294365	-86.3812
18750.000000	72.705055	-126.8550
19000.000000	70.183640	-175.4165
19250.000000	67.608673	125.9246
19500.000000	65.043488	54.4190
19750.000000	62.310486	-32.4641
