* Measurement data measured by REW V5.20 Beta 61
* Source: USB-C to 3.5mm Headphone Jack Adapter, USB-C to 3.5mm Headphone Jack Adapter, 0, volume: 0.138. Timing signal peak level -24.0 dBFS, measurement signal peak level -21.9 dBFS
* Format: 256k Log Swept Sine, 1 sweep at -12.0 dBFS using an acoustic timing reference
* Dated: Jun 24, 2023 2:35:04 PM
* REW Settings:
*  C-weighting compensation: Off
*  Target level: 75.0 dB
* Note: Delay -0.0913 ms (-31 mm, -1.23 in) using estimated IR delay relative to Acoustic reference on USB-C to 3.5mm Headphone Jack Adapter R with no timing offset
* Measurement: r
* Smoothing: None
* Frequency Step: 1/48 octave
* Start Frequency: 20.300 Hz
*
* Freq(Hz)	SPL(dB)	Phase(degrees)
20.299999	94.850914	161.2936
20.600000	94.820198	160.7686
20.900000	94.772659	160.3709
21.200001	94.719276	160.0442
21.400000	94.683960	159.8457
21.799999	94.616348	159.4478
22.000000	94.584251	159.2268
22.400000	94.521233	158.7158
22.700001	94.473129	158.2835
23.000000	94.424751	157.8356
23.299999	94.378876	157.3936
23.600000	94.337898	156.9650
24.000000	94.292252	156.4116
24.299999	94.262749	156.0033
24.700001	94.224350	155.4687
25.000000	94.193130	155.0847
25.400000	94.147278	154.6056
25.799999	94.098816	154.1526
26.200001	94.049194	153.6935
26.500000	94.010406	153.3312
26.900000	93.955185	152.8313
27.200001	93.911751	152.4624
27.600000	93.854614	152.0006
28.000000	93.802933	151.5700
28.500000	93.745392	151.0310
29.000000	93.684189	150.4696
29.500000	93.611969	149.9422
30.000000	93.538803	149.5013
30.400000	93.489769	149.1748
30.700001	93.459114	148.9064
31.100000	93.419617	148.4921
31.500000	93.373695	148.0412
32.000000	93.304626	147.5263
32.500000	93.235992	147.1298
33.000000	93.182060	146.7823
33.500000	93.138046	146.3737
34.000000	93.087463	145.8943
34.500000	93.023979	145.4317
35.000000	92.956207	145.0392
35.500000	92.894180	144.6775
36.000000	92.837555	144.2803
36.500000	92.780640	143.8360
37.000000	92.721008	143.3808
37.500000	92.659554	142.9458
38.200001	92.568634	142.3860
38.700001	92.498482	142.0220
39.500000	92.390450	141.4550
40.000000	92.336090	141.0438
40.599998	92.282257	140.4709
41.200001	92.225967	139.9451
41.799999	92.161125	139.6659
42.500000	92.088562	139.6832
43.099998	92.034027	139.7373
43.700001	91.970169	139.6533
44.400002	91.881866	139.4980
45.000000	91.818542	139.3775
45.500000	91.772804	139.1411
46.200001	91.674637	138.4665
46.799999	91.553429	137.7394
47.500000	91.459442	136.9247
48.200001	91.464859	136.1108
48.700001	91.482506	135.7081
49.400002	91.456718	135.8420
50.000000	91.385834	136.3954
50.799999	91.207596	136.4686
51.500000	90.977814	135.5592
52.200001	90.837486	134.5770
53.000000	90.921173	133.9355
53.799999	91.010513	133.8172
54.500000	90.898621	134.4206
55.200001	90.714310	135.1539
56.000000	90.574303	134.6476
57.000000	90.492493	132.8077
58.000000	90.494316	132.6003
59.000000	90.415154	133.1050
60.000000	90.175789	133.0703
60.799999	90.050079	132.5635
61.500000	89.995193	132.1674
62.200001	89.948769	132.3444
63.000000	89.884895	132.8528
64.000000	89.714844	132.9287
65.000000	89.594200	133.0635
66.000000	89.687431	133.3440
67.000000	89.714165	133.7813
68.000000	89.625153	134.6114
69.000000	89.594124	134.7843
70.000000	89.651543	134.4063
71.000000	89.730125	134.2604
72.000000	89.757294	134.2998
73.000000	89.767090	134.0366
74.000000	89.788177	133.5328
75.000000	89.828636	133.2985
76.199997	89.873985	132.6768
77.500000	89.828552	131.4718
78.800003	89.831589	130.8465
80.000000	89.830605	130.2932
81.199997	89.768219	129.4201
82.500000	89.703995	128.5466
83.800003	89.657356	128.0522
85.000000	89.579567	127.3926
86.199997	89.515350	126.6039
87.500000	89.444031	126.0983
88.500000	89.358719	125.8497
90.000000	89.267921	125.3554
91.199997	89.204926	124.9337
92.500000	89.121536	124.6185
93.800003	89.059608	124.1672
95.000000	89.015015	123.8912
96.199997	88.939865	123.5727
97.500000	88.869713	123.3052
98.800003	88.815247	122.9769
100.000000	88.758926	122.7357
101.500000	88.691681	122.3351
103.000000	88.618889	122.0338
104.400002	88.568428	121.7438
106.000000	88.504982	121.3852
107.500000	88.439232	121.1190
109.000000	88.382172	120.7621
110.599998	88.327675	120.4546
112.000000	88.272659	120.2016
113.800003	88.205681	119.8259
115.000000	88.172058	119.5596
117.199997	88.099701	119.1670
118.000000	88.075401	119.0229
120.599998	87.999252	118.5194
122.000000	87.953293	118.2211
124.099998	87.893852	117.8906
125.000000	87.867554	117.7128
126.500000	87.825310	117.4874
128.000000	87.774673	117.2139
131.500000	87.683708	116.6625
132.000000	87.670441	116.5756
134.000000	87.615540	116.2505
136.000000	87.560806	115.8546
138.000000	87.511177	115.5531
140.000000	87.456917	115.2557
143.000000	87.372070	114.7947
145.000000	87.335167	114.4771
147.500000	87.273438	114.1111
150.000000	87.195686	113.8628
152.500000	87.131866	113.4690
155.000000	87.055397	113.2892
157.500000	86.975662	113.0595
160.000000	86.899734	113.0254
162.500000	86.815170	113.1824
165.000000	86.757851	113.5961
167.500000	86.761429	114.3351
170.000000	86.863785	114.9471
172.500000	87.053314	114.8042
175.000000	87.160919	113.9757
177.500000	87.222809	113.0908
180.000000	87.195503	112.0669
182.500000	87.218216	111.7097
185.000000	87.229584	111.1642
187.500000	87.241089	110.6061
190.000000	87.265236	109.9206
192.500000	87.253555	109.2038
195.000000	87.235901	108.4558
197.500000	87.216194	107.9041
200.000000	87.180168	107.3767
203.000000	87.142944	106.7521
206.000000	87.114609	106.2682
209.000000	87.079224	105.7297
212.000000	87.058350	105.2083
214.000000	87.036713	104.9205
218.000000	87.012085	104.2950
220.000000	86.995193	104.0095
224.000000	86.977661	103.4419
227.000000	86.959145	103.0071
230.000000	86.941620	102.5785
233.000000	86.926216	102.1844
236.000000	86.909866	101.7934
240.000000	86.917076	101.4761
243.000000	86.886627	100.7928
247.000000	86.884148	100.3038
250.000000	86.872337	99.9047
254.000000	86.861183	99.3950
258.000000	86.848679	98.8677
262.000000	86.843987	98.3880
265.000000	86.837158	98.0400
269.000000	86.834778	97.5510
272.000000	86.830803	97.2044
276.000000	86.820740	96.7677
280.000000	86.820755	96.2404
285.000000	86.816139	95.7064
290.000000	86.809891	95.1479
295.000000	86.806549	94.5732
300.000000	86.792870	93.9773
304.000000	86.801865	93.6438
307.000000	86.801949	93.2830
311.000000	86.807968	92.8939
315.000000	86.806213	92.4880
320.000000	86.803078	91.9436
325.000000	86.802361	91.5090
330.000000	86.801392	90.9768
335.000000	86.802277	90.5059
340.000000	86.803665	90.0342
345.000000	86.807556	89.6157
350.000000	86.805443	89.2062
355.000000	86.811226	88.7375
360.000000	86.813728	88.3050
365.000000	86.813362	87.9035
370.000000	86.820099	87.5228
375.000000	86.815979	87.0953
382.000000	86.821289	86.6219
387.000000	86.826416	86.2443
395.000000	86.826866	85.6176
400.000000	86.827133	85.3081
406.000000	86.836670	84.9304
412.000000	86.844398	84.5506
418.000000	86.848572	84.1673
425.000000	86.852081	83.7684
431.000000	86.848549	83.3952
437.000000	86.864273	83.0956
444.000000	86.869675	82.7482
450.000000	86.868156	82.4396
455.000000	86.876495	82.1952
462.000000	86.878052	81.8638
468.000000	86.891983	81.6284
475.000000	86.897568	81.2996
482.000000	86.906937	81.0361
487.000000	86.917511	80.8345
494.000000	86.928490	80.5651
500.000000	86.931114	80.3613
508.000000	86.944588	80.0645
515.000000	86.955406	79.8497
522.000000	86.966881	79.6215
530.000000	86.978714	79.4031
538.000000	86.983917	79.1458
545.000000	86.996323	78.9867
552.000000	87.012993	78.8593
560.000000	87.011673	78.6685
570.000000	87.025345	78.4595
580.000000	87.043922	78.2493
590.000000	87.064125	78.1171
600.000000	87.080605	78.0604
608.000000	87.097931	77.9238
615.000000	87.114456	77.8779
622.000000	87.125565	77.8507
630.000000	87.143921	77.8081
640.000000	87.162666	77.7531
650.000000	87.188179	77.6591
660.000000	87.213676	77.6442
670.000000	87.246292	77.6346
680.000000	87.275475	77.5967
690.000000	87.298531	77.6525
700.000000	87.332031	77.6837
710.000000	87.365059	77.6997
720.000000	87.391808	77.7174
730.000000	87.421494	77.7714
740.000000	87.463905	77.8391
750.000000	87.488853	77.9065
762.000000	87.531380	78.0210
775.000000	87.571747	78.0838
788.000000	87.622498	78.2469
800.000000	87.665863	78.3595
812.000000	87.712204	78.5529
825.000000	87.759087	78.6937
838.000000	87.812660	78.8879
850.000000	87.860924	79.0636
862.000000	87.914902	79.3035
875.000000	87.970581	79.4660
885.000000	88.012115	79.7348
900.000000	88.084282	79.9696
912.000000	88.149612	80.2457
925.000000	88.214638	80.4751
938.000000	88.284134	80.7995
950.000000	88.349098	81.0644
962.000000	88.424103	81.2972
975.000000	88.506065	81.5746
988.000000	88.592567	81.8198
1000.000000	88.669853	82.0508
1015.000000	88.777878	82.3687
1030.000000	88.887901	82.5788
1044.000000	88.997322	82.8095
1060.000000	89.112747	83.0161
1075.000000	89.235970	83.1340
1090.000000	89.354897	83.2723
1106.000000	89.476700	83.3563
1120.000000	89.585464	83.3926
1138.000000	89.720222	83.4019
1150.000000	89.812599	83.3815
1172.000000	89.971878	83.3135
1180.000000	90.025833	83.2642
1206.000000	90.195900	83.0106
1220.000000	90.284775	82.8705
1241.000000	90.400497	82.6705
1250.000000	90.450943	82.5769
1265.000000	90.524139	82.4129
1280.000000	90.596992	82.2434
1315.000000	90.744659	81.9423
1320.000000	90.760284	81.8697
1340.000000	90.837761	81.7640
1360.000000	90.907639	81.6292
1380.000000	90.967255	81.5446
1400.000000	91.031769	81.4906
1430.000000	91.115280	81.4736
1450.000000	91.166725	81.5330
1475.000000	91.238724	81.6557
1500.000000	91.304314	81.8281
1525.000000	91.390320	82.0623
1550.000000	91.485855	82.2895
1575.000000	91.576607	82.4456
1600.000000	91.666603	82.6000
1625.000000	91.755333	82.7548
1650.000000	91.838791	82.9206
1675.000000	91.927872	83.1490
1700.000000	92.019188	83.3364
1725.000000	92.118294	83.5541
1750.000000	92.218742	83.7986
1775.000000	92.321495	84.0017
1800.000000	92.426025	84.1744
1825.000000	92.535477	84.3691
1850.000000	92.651718	84.5023
1875.000000	92.766541	84.6193
1900.000000	92.884308	84.7290
1925.000000	92.999420	84.7634
1950.000000	93.121513	84.7796
1975.000000	93.239975	84.7540
2000.000000	93.359390	84.6963
2030.000000	93.503952	84.5857
2060.000000	93.633888	84.3908
2090.000000	93.769539	84.1739
2120.000000	93.895370	83.8838
2140.000000	93.976875	83.6832
2180.000000	94.137955	83.2234
2200.000000	94.222832	82.9257
2240.000000	94.367447	82.2128
2270.000000	94.462807	81.5957
2300.000000	94.532646	80.9457
2330.000000	94.591629	80.3594
2360.000000	94.635406	79.7837
2400.000000	94.700851	79.1208
2430.000000	94.755058	78.6126
2470.000000	94.822495	77.7419
2500.000000	94.855392	76.9812
2540.000000	94.860519	75.9141
2580.000000	94.837944	74.9026
2620.000000	94.782600	73.9736
2650.000000	94.727127	73.3612
2690.000000	94.632469	72.6352
2720.000000	94.553116	72.2100
2760.000000	94.440735	71.7240
2800.000000	94.322472	71.3788
2850.000000	94.172264	71.0934
2900.000000	94.019478	70.9900
2950.000000	93.866112	71.0656
3000.000000	93.726097	71.2691
3040.000000	93.618248	71.5201
3070.000000	93.550468	71.7690
3110.000000	93.460152	72.0532
3150.000000	93.372452	72.3961
3200.000000	93.268478	72.7758
3250.000000	93.167068	73.2459
3300.000000	93.070984	73.7517
3350.000000	92.988602	74.2840
3400.000000	92.917816	74.8151
3450.000000	92.856445	75.2240
3500.000000	92.799789	75.5440
3550.000000	92.741943	75.7532
3600.000000	92.682434	75.8422
3650.000000	92.597244	75.6752
3700.000000	92.475616	75.3722
3750.000000	92.298050	75.0102
3820.000000	91.943741	74.5058
3870.000000	91.599976	74.4070
3950.000000	90.889046	75.4503
4000.000000	90.392776	77.1606
4060.000000	89.863327	80.5741
4120.000000	89.505524	85.3069
4180.000000	89.382462	90.3470
4250.000000	89.496849	95.8018
4310.000000	89.734413	99.7041
4370.000000	90.062622	102.8799
4440.000000	90.505234	105.6437
4500.000000	90.913231	107.2457
4550.000000	91.255707	107.9354
4620.000000	91.713272	107.9994
4680.000000	92.042953	107.1925
4750.000000	92.310402	105.4986
4820.000000	92.414345	103.2407
4870.000000	92.382668	101.5629
4940.000000	92.189728	99.3109
5000.000000	91.907097	97.8161
5080.000000	91.420403	96.6871
5150.000000	90.938980	96.5259
5220.000000	90.440987	97.0342
5300.000000	89.883881	98.4155
5380.000000	89.350937	100.4137
5450.000000	88.919510	102.5900
5520.000000	88.512978	105.1647
5600.000000	88.092628	108.5365
5700.000000	87.637817	113.2853
5800.000000	87.285469	118.6393
5900.000000	87.075584	124.3761
6000.000000	86.964233	130.1438
6080.000000	86.977737	134.7913
6150.000000	87.067314	138.8009
6220.000000	87.190521	142.7362
6300.000000	87.436203	147.0620
6400.000000	87.877823	151.9942
6500.000000	88.427376	156.1014
6600.000000	89.087326	158.9493
6700.000000	89.761192	160.2187
6800.000000	90.334183	159.9160
6900.000000	90.693253	158.6451
7000.000000	90.850784	157.3899
7100.000000	90.849808	156.8656
7200.000000	90.838524	157.2196
7300.000000	90.903427	158.1028
7400.000000	91.072235	158.5873
7500.000000	91.315407	159.1287
7620.000000	91.688400	158.2318
7750.000000	92.007950	155.2758
7880.000000	92.040489	150.4940
8000.000000	91.706833	145.5892
8120.000000	91.046730	141.6310
8250.000000	90.073250	139.0696
8380.000000	89.023811	138.7194
8500.000000	88.114021	139.7544
8620.000000	87.260864	142.1393
8750.000000	86.480026	145.4552
8850.000000	85.969109	148.4514
9000.000000	85.358665	153.3470
9120.000000	84.983559	157.1607
9250.000000	84.711700	161.3757
9380.000000	84.540176	165.3580
9500.000000	84.460953	168.6656
9620.000000	84.455101	171.4572
9750.000000	84.490639	173.8215
9880.000000	84.560112	175.3536
10000.000000	84.600983	176.1293
10150.000000	84.577515	176.0645
10300.000000	84.420761	175.2554
10440.000000	84.095840	174.2825
10600.000000	83.527321	173.5787
10750.000000	82.870934	173.6792
10900.000000	82.176193	174.5325
11060.000000	81.413437	176.5643
11200.000000	80.850891	178.8894
11380.000000	80.242668	-178.3813
11500.000000	79.830025	-177.0593
11720.000000	78.834129	-176.1503
11800.000000	78.321075	-175.8186
12060.000000	75.833954	-168.4171
12200.000000	74.783569	-158.9391
12410.000000	74.224304	-140.2271
12500.000000	74.541473	-131.9100
12650.000000	75.387062	-120.9882
12800.000000	76.784424	-112.7902
13150.000000	80.599106	-109.6132
13200.000000	81.113220	-110.6087
13400.000000	82.646751	-117.4439
13600.000000	83.755783	-125.6172
13800.000000	84.642632	-134.2660
14000.000000	85.519104	-144.3423
14300.000000	86.410812	-164.4682
14500.000000	85.831345	-177.7382
14750.000000	87.609268	169.1900
15000.000000	86.329338	143.4604
15250.000000	84.994820	127.9669
15500.000000	83.832703	113.8928
15750.000000	82.549171	100.2350
16000.000000	80.409317	89.2000
16250.000000	78.756905	107.0603
16500.000000	84.787491	91.1790
16750.000000	86.346634	59.3698
17000.000000	87.453568	20.6889
17250.000000	86.409019	-25.8730
17500.000000	83.426735	-65.5154
17750.000000	80.338371	-98.2905
18000.000000	77.593475	-128.9523
18250.000000	75.359886	-161.8312
18500.000000	73.395859	161.4365
18750.000000	71.757797	117.8654
19000.000000	70.000679	66.4395
19250.000000	68.054688	4.1678
19500.000000	65.468140	-68.4775
19750.000000	61.712097	-154.0659
