* Measurement data measured by REW V5.20 Beta 61
* Source: USB-C to 3.5mm Headphone Jack Adapter, USB-C to 3.5mm Headphone Jack Adapter, 0, volume: 0.138. Timing signal peak level -18.8 dBFS, measurement signal peak level -14.5 dBFS
* Format: 256k Log Swept Sine, 1 sweep at -12.0 dBFS using an acoustic timing reference
* Dated: Sep 18, 2023 7:08:43 PM
* REW Settings:
*  C-weighting compensation: Off
*  Target level: 75.0 dB
* Note: Delay -0.0888 ms (-30 mm, -1.2 in) using estimated IR delay relative to Acoustic reference on USB-C to 3.5mm Headphone Jack Adapter R with no timing offset
* Measurement: r
* Smoothing: None
* Frequency Step: 1/48 octave
* Start Frequency: 20.300 Hz
*
* Freq(Hz)	SPL(dB)	Phase(degrees)
20.299999	102.426231	157.5584
20.600000	102.377998	157.0654
20.900000	102.325005	156.6226
21.200001	102.272392	156.1799
21.400000	102.238129	155.8833
21.799999	102.171356	155.2931
22.000000	102.138733	155.0043
22.400000	102.075043	154.4515
22.700001	102.029205	154.0607
23.000000	101.985626	153.6830
23.299999	101.943863	153.3040
23.600000	101.902519	152.9125
24.000000	101.844986	152.3649
24.299999	101.798103	151.9455
24.700001	101.730812	151.4028
25.000000	101.679276	151.0273
25.400000	101.613907	150.5757
25.799999	101.555939	150.1574
26.200001	101.503510	149.7353
26.500000	101.463715	149.4046
26.900000	101.405014	148.9546
27.200001	101.355614	148.6297
27.600000	101.285515	148.2350
28.000000	101.217659	147.8784
28.500000	101.142944	147.4226
29.000000	101.073471	146.8896
29.500000	100.996277	146.3165
30.000000	100.909813	145.8244
30.400000	100.843102	145.5262
30.700001	100.798668	145.3334
31.100000	100.744423	145.0559
31.500000	100.686295	144.7251
32.000000	100.594818	144.2988
32.500000	100.491379	144.0058
33.000000	100.411400	143.8749
33.500000	100.376884	143.7159
34.000000	100.367119	143.3165
34.500000	100.338982	142.7143
35.000000	100.274719	142.1408
35.500000	100.194000	141.7641
36.000000	100.124268	141.5088
36.500000	100.067650	141.1983
37.000000	100.006287	140.7778
37.500000	99.931511	140.3496
38.200001	99.825089	139.8986
38.700001	99.761307	139.6368
39.500000	99.663910	139.1650
40.000000	99.596252	138.8612
40.599998	99.514015	138.5211
41.200001	99.437263	138.1843
41.799999	99.363319	137.8465
42.500000	99.276924	137.4910
43.099998	99.203934	137.2177
43.700001	99.130829	136.9332
44.400002	99.042114	136.5745
45.000000	98.964828	136.2772
45.500000	98.903847	136.0556
46.200001	98.826241	135.7632
46.799999	98.760666	135.4980
47.500000	98.676903	135.1965
48.200001	98.594055	134.9350
48.700001	98.541359	134.7380
49.400002	98.468979	134.4101
50.000000	98.399673	134.1506
50.799999	98.308228	133.9281
51.500000	98.238693	133.7462
52.200001	98.166840	133.4990
53.000000	98.077698	133.2174
53.799999	97.994003	132.9592
54.500000	97.922859	132.7229
55.200001	97.849503	132.5035
56.000000	97.767471	132.2791
57.000000	97.670357	131.9837
58.000000	97.572632	131.6679
59.000000	97.474220	131.4135
60.000000	97.382431	131.1819
60.799999	97.304886	130.9977
61.500000	97.240189	130.8480
62.200001	97.177269	130.6498
63.000000	97.095070	130.4702
64.000000	97.013702	130.4245
65.000000	96.927490	130.1025
66.000000	96.787697	129.9273
67.000000	96.725258	129.8861
68.000000	96.673615	129.4577
69.000000	96.584930	129.2818
70.000000	96.510765	129.1321
71.000000	96.424248	128.9007
72.000000	96.349670	128.7475
73.000000	96.273384	128.5797
74.000000	96.190834	128.4353
75.000000	96.115623	128.2623
76.199997	96.030991	128.0632
77.500000	95.934372	127.8935
78.800003	95.840576	127.7306
80.000000	95.756195	127.5685
81.199997	95.675316	127.4204
82.500000	95.577637	127.2421
83.800003	95.494957	127.1348
85.000000	95.421570	126.9401
86.199997	95.341919	126.8157
87.500000	95.261452	126.6623
88.500000	95.197685	126.5915
90.000000	95.107185	126.4057
91.199997	95.028526	126.2933
92.500000	94.962738	126.1993
93.800003	94.887581	126.0751
95.000000	94.815887	125.9452
96.199997	94.745926	125.8445
97.500000	94.676826	125.7665
98.800003	94.602127	125.6729
100.000000	94.539452	125.5979
101.500000	94.465317	125.4441
103.000000	94.388947	125.3293
104.400002	94.315506	125.2476
106.000000	94.236359	125.1022
107.500000	94.167557	125.0074
109.000000	94.094353	124.9112
110.599998	94.021942	124.8073
112.000000	93.959946	124.7255
113.800003	93.882545	124.6398
115.000000	93.826012	124.5602
117.199997	93.731987	124.4442
118.000000	93.697983	124.3749
120.599998	93.586334	124.2674
122.000000	93.539032	124.1451
124.099998	93.454056	124.0544
125.000000	93.415245	124.0263
126.500000	93.368347	123.9530
128.000000	93.305908	123.9076
131.500000	93.184547	123.6889
132.000000	93.158493	123.7213
134.000000	93.101814	123.6578
136.000000	93.029976	123.5287
138.000000	92.963142	123.4396
140.000000	92.898552	123.3409
143.000000	92.804352	123.2275
145.000000	92.744331	123.1496
147.500000	92.675812	123.0558
150.000000	92.603455	122.9725
152.500000	92.531044	122.8690
155.000000	92.463844	122.7881
157.500000	92.399940	122.7046
160.000000	92.340141	122.6337
162.500000	92.276131	122.5078
165.000000	92.215614	122.4580
167.500000	92.158752	122.3631
170.000000	92.103569	122.2536
172.500000	92.045502	122.1845
175.000000	91.993660	122.0960
177.500000	91.943649	122.0379
180.000000	91.881371	121.9796
182.500000	91.834488	121.9429
185.000000	91.778908	121.8666
187.500000	91.736183	121.7867
190.000000	91.683334	121.7088
192.500000	91.648384	121.6749
195.000000	91.592072	121.6772
197.500000	91.550186	121.6776
200.000000	91.497810	121.6550
203.000000	91.464027	121.6831
206.000000	91.433594	121.6406
209.000000	91.397285	121.5992
212.000000	91.349899	121.6012
214.000000	91.320747	121.6127
218.000000	91.261444	121.7046
220.000000	91.240433	121.8401
224.000000	91.216286	122.1621
227.000000	91.237297	122.4188
230.000000	91.294334	122.5527
233.000000	91.354774	122.3817
236.000000	91.401169	121.9399
240.000000	91.406906	121.2047
243.000000	91.389771	120.8033
247.000000	91.346916	120.3593
250.000000	91.322121	120.0960
254.000000	91.285263	119.8161
258.000000	91.239182	119.4919
262.000000	91.207016	119.3066
265.000000	91.194656	119.1391
269.000000	91.159973	118.9382
272.000000	91.138603	118.8468
276.000000	91.118393	118.6243
280.000000	91.102219	118.4348
285.000000	91.076355	118.2741
290.000000	91.060661	118.0493
295.000000	91.046951	117.8311
300.000000	91.031952	117.6153
304.000000	91.032211	117.4524
307.000000	91.022797	117.3342
311.000000	91.021980	117.1641
315.000000	91.012222	117.0176
320.000000	91.017197	116.7790
325.000000	91.018761	116.5487
330.000000	91.025261	116.3197
335.000000	91.025642	116.0870
340.000000	91.032120	115.8310
345.000000	91.034988	115.5764
350.000000	91.049034	115.3221
355.000000	91.047554	115.1488
360.000000	91.053650	114.8745
365.000000	91.062294	114.6292
370.000000	91.072884	114.4107
375.000000	91.087837	114.1398
382.000000	91.104866	113.8349
387.000000	91.117706	113.5669
395.000000	91.140236	113.1558
400.000000	91.152306	112.8887
406.000000	91.169342	112.5537
412.000000	91.190636	112.2836
418.000000	91.207405	111.9708
425.000000	91.228096	111.6265
431.000000	91.245842	111.2856
437.000000	91.267525	111.0243
444.000000	91.284279	110.6734
450.000000	91.305954	110.4401
455.000000	91.322006	110.1731
462.000000	91.351959	109.8693
468.000000	91.376442	109.6027
475.000000	91.413353	109.2583
482.000000	91.452606	108.9263
487.000000	91.474838	108.6117
494.000000	91.503540	108.2358
500.000000	91.533409	107.8737
508.000000	91.560486	107.4297
515.000000	91.585754	107.0180
522.000000	91.611862	106.6384
530.000000	91.634010	106.2027
538.000000	91.658722	105.7555
545.000000	91.678558	105.3728
552.000000	91.696777	105.0275
560.000000	91.716431	104.5814
570.000000	91.741379	104.1110
580.000000	91.761009	103.5907
590.000000	91.778526	103.1410
600.000000	91.794876	102.6735
608.000000	91.804626	102.2964
615.000000	91.814331	101.9989
622.000000	91.820038	101.7177
630.000000	91.827652	101.4040
640.000000	91.833916	101.0096
650.000000	91.841591	100.6652
660.000000	91.840897	100.3198
670.000000	91.842613	100.0115
680.000000	91.842880	99.6980
690.000000	91.842049	99.4399
700.000000	91.838577	99.1781
710.000000	91.835266	98.9632
720.000000	91.835144	98.7808
730.000000	91.833069	98.6063
740.000000	91.824081	98.4791
750.000000	91.818527	98.3633
762.000000	91.810593	98.2790
775.000000	91.804199	98.2118
788.000000	91.801689	98.1816
800.000000	91.798279	98.2058
812.000000	91.794235	98.2659
825.000000	91.791588	98.3439
838.000000	91.795425	98.4664
850.000000	91.798927	98.6290
862.000000	91.808968	98.8073
875.000000	91.818207	99.0494
885.000000	91.828423	99.2342
900.000000	91.850800	99.5665
912.000000	91.870613	99.8528
925.000000	91.900696	100.1841
938.000000	91.933159	100.5261
950.000000	91.966225	100.8495
962.000000	92.007309	101.1869
975.000000	92.055969	101.5324
988.000000	92.110336	101.9219
1000.000000	92.165062	102.2842
1015.000000	92.237259	102.6643
1030.000000	92.318390	103.0585
1044.000000	92.394821	103.4145
1060.000000	92.490997	103.7803
1075.000000	92.582100	104.0798
1090.000000	92.677185	104.3509
1106.000000	92.777885	104.5998
1120.000000	92.869743	104.7946
1138.000000	92.984909	104.9861
1150.000000	93.061760	105.0872
1172.000000	93.198547	105.2214
1180.000000	93.242012	105.2673
1206.000000	93.390297	105.3327
1220.000000	93.464722	105.3586
1241.000000	93.564598	105.3675
1250.000000	93.612770	105.3623
1265.000000	93.675842	105.3637
1280.000000	93.739975	105.3690
1315.000000	93.871468	105.4322
1320.000000	93.889732	105.4439
1340.000000	93.952393	105.4724
1360.000000	94.017792	105.5530
1380.000000	94.074852	105.6697
1400.000000	94.122704	105.7907
1430.000000	94.201073	106.0560
1450.000000	94.247986	106.2730
1475.000000	94.311920	106.5784
1500.000000	94.372452	106.9300
1525.000000	94.432411	107.3165
1550.000000	94.500320	107.7781
1575.000000	94.567924	108.2279
1600.000000	94.641220	108.7038
1625.000000	94.710403	109.2213
1650.000000	94.792534	109.7304
1675.000000	94.874908	110.2786
1700.000000	94.966934	110.8165
1725.000000	95.058968	111.3517
1750.000000	95.158386	111.8727
1775.000000	95.261604	112.4035
1800.000000	95.369232	112.9231
1825.000000	95.484024	113.3985
1850.000000	95.599693	113.9030
1875.000000	95.718513	114.3331
1900.000000	95.844765	114.7617
1925.000000	95.974022	115.1574
1950.000000	96.099449	115.4972
1975.000000	96.233742	115.7985
2000.000000	96.370178	116.0600
2030.000000	96.532951	116.3353
2060.000000	96.692169	116.5176
2090.000000	96.857048	116.6332
2120.000000	97.019409	116.6752
2140.000000	97.124298	116.6586
2180.000000	97.331993	116.5481
2200.000000	97.430634	116.4315
2240.000000	97.623154	116.1093
2270.000000	97.755981	115.7932
2300.000000	97.879211	115.3989
2330.000000	97.994164	114.9451
2360.000000	98.096008	114.4435
2400.000000	98.215485	113.6922
2430.000000	98.287460	113.0949
2470.000000	98.361252	112.2721
2500.000000	98.401352	111.6210
2540.000000	98.431458	110.7493
2580.000000	98.435570	109.8670
2620.000000	98.417564	109.0238
2650.000000	98.384933	108.4251
2690.000000	98.324188	107.6598
2720.000000	98.262848	107.1591
2760.000000	98.169846	106.5601
2800.000000	98.051079	106.0722
2850.000000	97.893707	105.6179
2900.000000	97.715446	105.3737
2950.000000	97.528107	105.3034
3000.000000	97.334732	105.4137
3040.000000	97.177040	105.6372
3070.000000	97.057487	105.8970
3110.000000	96.899620	106.2537
3150.000000	96.739784	106.7383
3200.000000	96.534203	107.4471
3250.000000	96.316116	108.3700
3300.000000	96.095154	109.5804
3350.000000	95.880936	111.1031
3400.000000	95.673935	113.0502
3450.000000	95.516113	115.5141
3500.000000	95.455124	118.4413
3550.000000	95.527969	121.4970
3600.000000	95.739212	124.2013
3650.000000	96.048050	126.1992
3700.000000	96.378098	127.3856
3750.000000	96.692215	127.8585
3820.000000	97.055275	127.8950
3870.000000	97.273125	127.6397
3950.000000	97.564987	127.0006
4000.000000	97.735550	126.4596
4060.000000	97.930435	125.6632
4120.000000	98.125603	124.5704
4180.000000	98.312103	123.0630
4250.000000	98.493225	120.6612
4310.000000	98.593384	117.9419
4370.000000	98.586700	114.6045
4440.000000	98.388542	110.0981
4500.000000	97.981453	106.1469
4550.000000	97.466690	103.3078
4620.000000	96.506149	100.9370
4680.000000	95.587234	101.0299
4750.000000	94.618492	103.5877
4820.000000	93.934677	107.7837
4870.000000	93.639427	111.1029
4940.000000	93.421768	115.3089
5000.000000	93.342155	118.2461
5080.000000	93.285362	121.3604
5150.000000	93.231262	123.5557
5220.000000	93.150620	125.4995
5300.000000	93.037674	127.6264
5380.000000	92.889580	129.8785
5450.000000	92.758835	131.9333
5520.000000	92.621674	134.1245
5600.000000	92.481155	136.8630
5700.000000	92.351280	140.4867
5800.000000	92.289070	144.4252
5900.000000	92.306168	148.4172
6000.000000	92.397446	152.3094
6080.000000	92.529510	155.2354
6150.000000	92.663162	157.7283
6220.000000	92.814484	159.9197
6300.000000	93.035416	162.2635
6400.000000	93.245537	164.9948
6500.000000	93.483513	167.4925
6600.000000	93.715027	169.9531
6700.000000	93.957199	172.3309
6800.000000	94.226112	174.7574
6900.000000	94.528252	177.0735
7000.000000	94.864090	179.1853
7100.000000	95.242546	-178.8492
7200.000000	95.656876	-177.2202
7300.000000	96.109138	-176.1093
7400.000000	96.574562	-175.5465
7500.000000	97.044533	-175.5838
7620.000000	97.598343	-176.7219
7750.000000	98.010254	-179.3374
7880.000000	98.200607	177.5051
8000.000000	98.179993	174.5199
8120.000000	97.972229	171.8844
8250.000000	97.586952	169.8610
8380.000000	97.103088	168.9017
8500.000000	96.625046	168.9582
8620.000000	96.164268	169.8695
8750.000000	95.732178	171.4994
8850.000000	95.436829	172.7149
9000.000000	94.983215	175.6261
9120.000000	94.762207	178.1644
9250.000000	94.609390	-179.3260
9380.000000	94.516487	-177.2844
9500.000000	94.472084	-175.8220
9620.000000	94.407303	-175.0586
9750.000000	94.281334	-174.9746
9880.000000	94.010872	-175.5078
10000.000000	93.593872	-176.1147
10150.000000	92.847931	-176.3486
10300.000000	91.927582	-175.2584
10440.000000	90.985352	-172.8701
10600.000000	89.934326	-168.5490
10750.000000	89.017670	-163.2977
10900.000000	88.218880	-157.0915
11060.000000	87.503853	-149.7860
11200.000000	86.987167	-143.1823
11380.000000	86.461525	-134.4282
11500.000000	86.223648	-128.5527
11720.000000	85.963135	-118.0400
11800.000000	85.919365	-114.3303
12060.000000	85.958656	-102.7189
12200.000000	86.113586	-97.3040
12410.000000	86.475098	-89.9195
12500.000000	86.657715	-87.3301
12650.000000	86.941330	-83.5773
12800.000000	87.297112	-80.5455
13150.000000	88.165718	-75.5880
13200.000000	88.291763	-75.1015
13400.000000	88.821701	-74.2896
13600.000000	89.399971	-74.6992
13800.000000	89.938339	-76.6586
14000.000000	90.442566	-80.3837
14300.000000	90.935524	-88.2583
14500.000000	91.093468	-94.6314
14750.000000	91.087616	-103.1592
15000.000000	90.957787	-111.1412
15250.000000	90.931740	-118.5789
15500.000000	91.242340	-126.4578
15750.000000	92.141182	-136.3341
16000.000000	93.243286	-153.9587
16250.000000	93.472290	-177.8751
16500.000000	92.923912	158.0389
16750.000000	91.757248	134.0290
17000.000000	90.331123	113.2683
17250.000000	89.358009	92.2295
17500.000000	88.617783	65.7155
17750.000000	87.225098	31.8254
18000.000000	84.648087	-3.8754
18250.000000	81.549126	-37.8636
18500.000000	78.591896	-72.6518
18750.000000	75.810280	-112.3261
19000.000000	73.177094	-159.7034
19250.000000	70.635780	143.2427
19500.000000	68.148109	73.5804
19750.000000	65.279869	-11.2380
