* Measurement data measured by REW V5.20.4
* Source: Input device not selected, no input selected, L, volume: no control
* Format: 256k Log Swept Sine, 1 sweep at 0,0 dBFS with no timing reference
* Dated: 2023-nov-17 21:22:05
* REW Settings:
*  C-weighting compensation: Off
*  Target level: 75.0 dB
* Note: Stock tips M + stock cable 3.5mm  Red o-ring nozzle + Sony composite foam 4x5mm (taobao) in nozzle Left
* Measurement: Simgot EA1000 red + comp4x5
* Smoothing: 1/48 octave
* Frequency Step: 1/48 octave
* Start Frequency: 20.300 Hz
*
* Freq(Hz)	SPL(dB)	Phase(degrees)
20.299999	85.898	23.3512
20.600000	85.905	22.8166
20.900000	85.905	22.2534
21.200001	85.897	21.6775
21.400000	85.892	21.3079
21.799999	85.883	20.6360
22.000000	85.881	20.3388
22.400000	85.891	19.7917
22.700001	85.910	19.3594
23.000000	85.927	18.8535
23.299999	85.930	18.2877
23.600000	85.909	17.7355
24.000000	85.845	17.1873
24.299999	85.790	17.0193
24.700001	85.745	17.0791
25.000000	85.756	17.1456
25.400000	85.824	16.9219
25.799999	85.904	16.1133
26.200001	85.938	14.8687
26.500000	85.926	13.9159
26.900000	85.885	12.9352
27.200001	85.874	12.4875
27.600000	85.929	12.0956
28.000000	86.052	11.5384
28.500000	86.193	10.2936
29.000000	86.193	8.8753
29.500000	86.048	8.0734
30.000000	85.885	8.1451
30.400000	85.822	8.4113
30.700001	85.818	8.4393
31.100000	85.833	8.0872
31.500000	85.836	7.4197
32.000000	85.810	6.5757
32.500000	85.784	6.0214
33.000000	85.784	5.6399
33.500000	85.791	5.1883
34.000000	85.776	4.6290
34.500000	85.742	4.0783
35.000000	85.714	3.5780
35.500000	85.704	3.0764
36.000000	85.700	2.5597
36.500000	85.686	2.0882
37.000000	85.662	1.6992
37.500000	85.638	1.3431
38.200001	85.615	0.7560
38.700001	85.605	0.2580
39.500000	85.583	-0.5188
40.000000	85.560	-0.9257
40.599998	85.522	-1.3525
41.200001	85.484	-1.7904
41.799999	85.459	-2.3019
42.500000	85.451	-3.0053
43.099998	85.443	-3.6271
43.700001	85.414	-4.1257
44.400002	85.367	-4.4789
45.000000	85.340	-4.7128
45.500000	85.327	-4.9376
46.200001	85.307	-5.2170
46.799999	85.290	-5.4157
47.500000	85.260	-5.8830
48.200001	85.199	-6.6316
48.700001	85.167	-7.1313
49.400002	85.204	-7.7457
50.000000	85.271	-8.3968
50.799999	85.246	-9.1085
51.500000	85.123	-9.0312
52.200001	85.036	-8.7916
53.000000	84.996	-9.2203
53.799999	84.949	-9.8723
54.500000	84.922	-10.1197
55.200001	84.905	-10.3567
56.000000	84.858	-10.8622
57.000000	84.789	-11.5862
58.000000	84.740	-12.1216
59.000000	84.692	-12.4079
60.000000	84.640	-12.8613
60.799999	84.586	-13.3163
61.500000	84.539	-13.5994
62.200001	84.500	-13.7879
63.000000	84.462	-14.0144
64.000000	84.419	-14.4003
65.000000	84.374	-14.8226
66.000000	84.325	-15.1913
67.000000	84.276	-15.5565
68.000000	84.226	-15.9382
69.000000	84.172	-16.2876
70.000000	84.119	-16.6286
71.000000	84.073	-16.9857
72.000000	84.032	-17.3577
73.000000	83.981	-17.7043
74.000000	83.922	-18.0004
75.000000	83.868	-18.2885
76.199997	83.814	-18.6622
77.500000	83.758	-18.9986
78.800003	83.716	-19.2990
80.000000	83.656	-19.7375
81.199997	83.583	-20.0607
82.500000	83.527	-20.3822
83.800003	83.470	-20.6974
85.000000	83.414	-20.9564
86.199997	83.355	-21.2033
87.500000	83.292	-21.5060
88.500000	83.244	-21.7128
90.000000	83.180	-22.0008
91.199997	83.116	-22.2467
92.500000	83.047	-22.4909
93.800003	82.984	-22.7193
95.000000	82.929	-22.9136
96.199997	82.875	-23.1334
97.500000	82.812	-23.3618
98.800003	82.742	-23.5285
100.000000	82.686	-23.7015
101.500000	82.624	-23.9462
103.000000	82.553	-24.1250
104.400002	82.488	-24.2968
106.000000	82.419	-24.5120
107.500000	82.352	-24.6910
109.000000	82.293	-24.8675
110.599998	82.228	-25.0479
112.000000	82.172	-25.2078
113.800003	82.101	-25.3911
115.000000	82.052	-25.4872
117.199997	81.967	-25.6877
118.000000	81.937	-25.7634
120.599998	81.830	-25.9684
122.000000	81.778	-26.0812
124.099998	81.691	-26.2143
125.000000	81.653	-26.2607
126.500000	81.591	-26.3430
128.000000	81.530	-26.4452
131.500000	81.391	-26.6470
132.000000	81.371	-26.6716
134.000000	81.288	-26.7879
136.000000	81.204	-26.8676
138.000000	81.123	-26.9550
140.000000	81.038	-26.9949
143.000000	80.918	-27.0600
145.000000	80.838	-27.1001
147.500000	80.732	-27.1329
150.000000	80.630	-27.1291
152.500000	80.529	-27.1539
155.000000	80.432	-27.1175
157.500000	80.334	-27.0167
160.000000	80.234	-26.8732
162.500000	80.142	-26.6738
165.000000	80.046	-26.2788
167.500000	79.973	-25.7655
170.000000	79.929	-25.1890
172.500000	79.926	-24.7066
175.000000	79.942	-24.4009
177.500000	79.969	-24.3296
180.000000	79.975	-24.4717
182.500000	79.963	-24.6878
185.000000	79.932	-24.8899
187.500000	79.891	-25.0467
190.000000	79.845	-25.2032
192.500000	79.790	-25.3061
195.000000	79.729	-25.3346
197.500000	79.666	-25.3650
200.000000	79.607	-25.3618
203.000000	79.533	-25.3661
206.000000	79.464	-25.3122
209.000000	79.397	-25.2400
212.000000	79.327	-25.1758
214.000000	79.281	-25.1143
218.000000	79.194	-24.9938
220.000000	79.151	-24.9477
224.000000	79.065	-24.8015
227.000000	79.001	-24.6859
230.000000	78.940	-24.5683
233.000000	78.879	-24.4562
236.000000	78.819	-24.3193
240.000000	78.742	-24.1204
243.000000	78.686	-23.9830
247.000000	78.616	-23.7765
250.000000	78.563	-23.6200
254.000000	78.492	-23.4013
258.000000	78.428	-23.1830
262.000000	78.364	-22.9528
265.000000	78.318	-22.7581
269.000000	78.259	-22.5292
272.000000	78.216	-22.3835
276.000000	78.162	-22.1601
280.000000	78.109	-21.9363
285.000000	78.043	-21.6706
290.000000	77.984	-21.4121
295.000000	77.920	-21.1052
300.000000	77.861	-20.8375
304.000000	77.821	-20.6032
307.000000	77.787	-20.4149
311.000000	77.743	-20.2050
315.000000	77.701	-20.0104
320.000000	77.650	-19.7398
325.000000	77.601	-19.4815
330.000000	77.552	-19.1989
335.000000	77.502	-18.9674
340.000000	77.455	-18.7030
345.000000	77.408	-18.4144
350.000000	77.363	-18.1241
355.000000	77.319	-17.8687
360.000000	77.275	-17.6089
365.000000	77.233	-17.3287
370.000000	77.193	-17.0410
375.000000	77.154	-16.7548
382.000000	77.100	-16.3666
387.000000	77.064	-16.0781
395.000000	77.009	-15.6280
400.000000	76.977	-15.3479
406.000000	76.940	-15.0207
412.000000	76.904	-14.6722
418.000000	76.869	-14.3316
425.000000	76.831	-13.9325
431.000000	76.802	-13.5893
437.000000	76.773	-13.2542
444.000000	76.744	-12.8726
450.000000	76.721	-12.5439
455.000000	76.703	-12.2543
462.000000	76.675	-11.8533
468.000000	76.653	-11.5055
475.000000	76.632	-11.1190
482.000000	76.609	-10.7299
487.000000	76.591	-10.4563
494.000000	76.568	-10.0711
500.000000	76.549	-9.7288
508.000000	76.523	-9.2812
515.000000	76.500	-8.9058
522.000000	76.481	-8.5211
530.000000	76.463	-8.0615
538.000000	76.444	-7.6241
545.000000	76.427	-7.2454
552.000000	76.413	-6.8644
560.000000	76.398	-6.4282
570.000000	76.383	-5.8867
580.000000	76.368	-5.3535
590.000000	76.354	-4.8249
600.000000	76.342	-4.2941
608.000000	76.338	-3.8705
615.000000	76.341	-3.5016
622.000000	76.346	-3.1346
630.000000	76.352	-2.7150
640.000000	76.362	-2.1861
650.000000	76.370	-1.6513
660.000000	76.379	-1.1149
670.000000	76.391	-0.5849
680.000000	76.402	-0.0404
690.000000	76.413	0.4809
700.000000	76.426	1.0282
710.000000	76.440	1.5837
720.000000	76.452	2.1339
730.000000	76.467	2.6879
740.000000	76.487	3.2573
750.000000	76.508	3.8370
762.000000	76.539	4.5077
775.000000	76.571	5.2341
788.000000	76.608	6.0003
800.000000	76.650	6.6633
812.000000	76.699	7.2934
825.000000	76.765	7.8959
838.000000	76.835	8.2276
850.000000	76.820	8.0925
862.000000	76.655	8.7479
875.000000	76.639	10.8247
885.000000	76.738	11.9846
900.000000	76.893	13.0597
912.000000	76.995	13.5839
925.000000	77.039	14.0807
938.000000	77.074	15.1123
950.000000	77.158	16.1125
962.000000	77.252	16.9432
975.000000	77.344	17.7469
988.000000	77.434	18.5108
1000.000000	77.519	19.1848
1015.000000	77.630	19.9870
1030.000000	77.745	20.7203
1044.000000	77.860	21.3530
1060.000000	77.997	22.0262
1075.000000	78.127	22.5931
1090.000000	78.249	23.0930
1106.000000	78.373	23.5547
1120.000000	78.484	23.9349
1138.000000	78.628	24.3003
1150.000000	78.721	24.4793
1172.000000	78.889	24.7443
1180.000000	78.948	24.8377
1206.000000	79.137	24.9879
1220.000000	79.243	24.9956
1241.000000	79.402	24.9914
1250.000000	79.467	24.9933
1265.000000	79.573	24.9693
1280.000000	79.674	24.8580
1315.000000	79.892	24.6181
1320.000000	79.921	24.5896
1340.000000	80.031	24.4603
1360.000000	80.146	24.2768
1380.000000	80.272	24.1009
1400.000000	80.398	23.9313
1430.000000	80.575	23.7227
1450.000000	80.693	23.5469
1475.000000	80.832	23.3597
1500.000000	80.965	23.2100
1525.000000	81.091	23.0606
1550.000000	81.217	22.8936
1575.000000	81.335	22.7559
1600.000000	81.451	22.6367
1625.000000	81.564	22.5130
1650.000000	81.680	22.4010
1675.000000	81.796	22.2714
1700.000000	81.912	22.1341
1725.000000	82.022	22.0300
1750.000000	82.127	21.9209
1775.000000	82.233	21.7902
1800.000000	82.343	21.6617
1825.000000	82.453	21.5096
1850.000000	82.562	21.3567
1875.000000	82.669	21.2161
1900.000000	82.778	21.0421
1925.000000	82.893	20.8497
1950.000000	83.018	20.6575
1975.000000	83.144	20.4478
2000.000000	83.271	20.2078
2030.000000	83.424	19.9033
2060.000000	83.581	19.5521
2090.000000	83.735	19.1472
2120.000000	83.885	18.7090
2140.000000	83.983	18.3978
2180.000000	84.181	17.6498
2200.000000	84.272	17.2382
2240.000000	84.438	16.4295
2270.000000	84.550	15.7678
2300.000000	84.661	15.0663
2330.000000	84.759	14.3780
2360.000000	84.850	13.6976
2400.000000	84.962	12.8059
2430.000000	85.039	12.1013
2470.000000	85.112	11.2121
2500.000000	85.156	10.5835
2540.000000	85.211	9.6899
2580.000000	85.261	8.8416
2620.000000	85.303	8.0051
2650.000000	85.328	7.3931
2690.000000	85.358	6.5891
2720.000000	85.380	5.9909
2760.000000	85.399	5.1910
2800.000000	85.404	4.4743
2850.000000	85.404	3.5706
2900.000000	85.406	2.7038
2950.000000	85.396	1.8841
3000.000000	85.380	1.1211
3040.000000	85.367	0.5154
3070.000000	85.356	0.0878
3110.000000	85.346	-0.4643
3150.000000	85.330	-1.0406
3200.000000	85.302	-1.6594
3250.000000	85.268	-2.3029
3300.000000	85.235	-2.9181
3350.000000	85.197	-3.5059
3400.000000	85.151	-4.0784
3450.000000	85.097	-4.5934
3500.000000	85.036	-5.0897
3550.000000	84.969	-5.4990
3600.000000	84.900	-5.8437
3650.000000	84.837	-6.1480
3700.000000	84.772	-6.3926
3750.000000	84.706	-6.5685
3820.000000	84.622	-6.7912
3870.000000	84.573	-6.9086
3950.000000	84.510	-6.9983
4000.000000	84.481	-7.0522
4060.000000	84.459	-7.1439
4120.000000	84.440	-7.2843
4180.000000	84.421	-7.4628
4250.000000	84.398	-7.7265
4310.000000	84.382	-7.9855
4370.000000	84.373	-8.2648
4440.000000	84.354	-8.6389
4500.000000	84.328	-8.9382
4550.000000	84.311	-9.2361
4620.000000	84.280	-9.6508
4680.000000	84.244	-10.0115
4750.000000	84.198	-10.4496
4820.000000	84.146	-10.8904
4870.000000	84.103	-11.2223
4940.000000	84.027	-11.6723
5000.000000	83.951	-12.0394
5080.000000	83.845	-12.5436
5150.000000	83.742	-12.9551
5220.000000	83.630	-13.3461
5300.000000	83.489	-13.7552
5380.000000	83.335	-14.1034
5450.000000	83.191	-14.3395
5520.000000	83.028	-14.5618
5600.000000	82.812	-14.6225
5700.000000	82.544	-14.6013
5800.000000	82.279	-14.3697
5900.000000	82.012	-13.9458
6000.000000	81.749	-13.3254
6080.000000	81.535	-12.6436
6150.000000	81.341	-11.7088
6220.000000	81.218	-10.3018
6300.000000	81.220	-9.3223
6400.000000	81.109	-8.9611
6500.000000	80.954	-8.1120
6600.000000	80.828	-7.0508
6700.000000	80.734	-5.9219
6800.000000	80.668	-4.7768
6900.000000	80.607	-3.6327
7000.000000	80.538	-2.4945
7100.000000	80.495	-1.3480
7200.000000	80.491	-0.2517
7300.000000	80.522	0.7471
7400.000000	80.577	1.6681
7500.000000	80.665	2.5219
7620.000000	80.831	3.4020
7750.000000	81.112	4.0357
7880.000000	81.494	4.1253
8000.000000	81.907	3.5543
8120.000000	82.367	2.1349
8250.000000	82.882	-0.5443
8380.000000	83.356	-4.6924
8500.000000	83.673	-9.9493
8620.000000	83.787	-16.3568
8750.000000	83.622	-23.9135
8850.000000	83.258	-29.4847
9000.000000	82.385	-36.4591
9120.000000	81.502	-40.3952
9250.000000	80.467	-42.9723
9380.000000	79.425	-44.0161
9500.000000	78.501	-43.8588
9620.000000	77.630	-42.8270
9750.000000	76.744	-40.9407
9880.000000	75.918	-38.4374
10000.000000	75.224	-35.6812
10150.000000	74.450	-31.7967
10300.000000	73.769	-27.5139
10440.000000	73.211	-23.2591
10600.000000	72.662	-18.1623
10750.000000	72.233	-13.2089
10900.000000	71.878	-8.1645
11060.000000	71.575	-2.7002
11200.000000	71.371	2.1090
11380.000000	71.206	8.2278
11500.000000	71.155	12.2658
11720.000000	71.173	19.5010
11800.000000	71.216	22.0554
12060.000000	71.499	30.0185
12200.000000	71.742	33.9958
12410.000000	72.218	39.3385
12500.000000	72.461	41.3335
12650.000000	72.899	44.2333
12800.000000	73.344	46.7180
13150.000000	74.915	52.8409
13200.000000	75.256	53.1348
13400.000000	76.622	51.3902
13600.000000	77.754	45.6409
13800.000000	78.542	37.0815
14000.000000	78.824	26.8633
14300.000000	78.152	13.7220
14500.000000	77.323	8.4437
14750.000000	76.270	5.3640
15000.000000	75.414	4.8877
15250.000000	74.834	5.7462
15500.000000	74.555	6.9850
15750.000000	74.553	7.8482
16000.000000	74.736	7.7100
16250.000000	75.023	5.9496
16500.000000	75.268	1.9112
16750.000000	75.182	-4.0524
17000.000000	74.709	-10.2471
17250.000000	73.888	-15.8098
17500.000000	72.863	-19.7895
17750.000000	71.718	-21.8143
18000.000000	70.533	-22.0263
18250.000000	69.355	-20.9251
18500.000000	68.190	-18.9603
18750.000000	66.987	-16.2055
19000.000000	65.673	-12.3033
19250.000000	64.279	-5.6248
19500.000000	63.438	5.0223
19750.000000	63.894	13.6216
