* Measurement data measured by REW V5.20.13
* Source: Input device not selected, no input selected, R, volume: no control
* Format: 256k Log Swept Sine, 1 sweep at -3.0 dBFS with no timing reference
* Dated: Oct 1, 2023 2:43:58 PM
* REW Settings:
*  C-weighting compensation: Off
*  Target level: 75.0 dB
* Note: ; 
* Measurement: 64 Audio Völur R M20
* Smoothing: 1/24 octave
* Frequency Step: 1/48 octave
* Start Frequency: 20.000 Hz
*
* Freq(Hz)	SPL(dB)	Phase(degrees)
20.000000	104.320	-42.0411
20.299999	104.306	-42.0812
20.600000	104.301	-42.2227
20.900000	104.292	-42.4461
21.200001	104.275	-42.7133
21.400000	104.258	-42.8911
21.799999	104.214	-43.2042
22.000000	104.190	-43.3206
22.400000	104.147	-43.4530
22.700001	104.131	-43.4922
23.000000	104.137	-43.5577
23.299999	104.163	-43.7604
23.600000	104.195	-44.1787
24.000000	104.215	-45.1001
24.299999	104.188	-45.9556
24.700001	104.084	-47.0324
25.000000	103.970	-47.5788
25.400000	103.812	-47.8215
25.799999	103.707	-47.6593
26.200001	103.679	-47.4700
26.500000	103.690	-47.5050
26.900000	103.712	-47.8409
27.200001	103.715	-48.2202
27.600000	103.697	-48.7277
28.000000	103.673	-49.1404
28.500000	103.658	-49.6188
29.000000	103.647	-50.2338
29.500000	103.609	-50.9322
30.000000	103.546	-51.4992
30.400000	103.496	-51.8177
30.700001	103.466	-52.0247
31.100000	103.433	-52.3281
31.500000	103.399	-52.6721
32.000000	103.350	-53.0885
32.500000	103.308	-53.4549
33.000000	103.284	-53.8891
33.500000	103.260	-54.5033
34.000000	103.211	-55.2145
34.500000	103.139	-55.8225
35.000000	103.071	-56.2658
35.500000	103.025	-56.6765
36.000000	102.988	-57.1784
36.500000	102.940	-57.7205
37.000000	102.884	-58.1632
37.500000	102.838	-58.4812
38.200001	102.814	-58.9661
38.700001	102.804	-59.4921
39.500000	102.749	-60.5099
40.000000	102.691	-61.0794
40.599998	102.620	-61.6304
41.200001	102.560	-62.1124
41.799999	102.512	-62.5963
42.500000	102.466	-63.1549
43.099998	102.447	-63.6431
43.700001	102.444	-64.2739
44.400002	102.423	-65.2468
45.000000	102.362	-66.0424
45.500000	102.298	-66.4865
46.200001	102.233	-66.8576
46.799999	102.203	-67.1903
47.500000	102.163	-67.6151
48.200001	102.131	-67.9621
48.700001	102.124	-68.2895
49.400002	102.102	-69.0334
50.000000	102.041	-69.7288
50.799999	101.947	-70.3869
51.500000	101.900	-70.9690
52.200001	101.856	-71.8086
53.000000	101.772	-72.8095
53.799999	101.683	-73.6321
54.500000	101.618	-74.2725
55.200001	101.562	-74.8553
56.000000	101.512	-75.4837
57.000000	101.450	-76.2178
58.000000	101.403	-76.8228
59.000000	101.372	-77.6108
60.000000	101.299	-78.5686
60.799999	101.215	-79.2094
61.500000	101.146	-79.6554
62.200001	101.092	-80.0790
63.000000	101.043	-80.6315
64.000000	100.986	-81.4253
65.000000	100.924	-82.2465
66.000000	100.859	-83.0365
67.000000	100.796	-83.7936
68.000000	100.730	-84.5218
69.000000	100.667	-85.1883
70.000000	100.613	-85.9105
71.000000	100.543	-86.6857
72.000000	100.465	-87.3583
73.000000	100.398	-87.9877
74.000000	100.336	-88.6408
75.000000	100.277	-89.2908
76.199997	100.214	-90.1429
77.500000	100.138	-91.1180
78.800003	100.070	-92.0175
80.000000	100.017	-92.8765
81.199997	99.962	-93.6673
82.500000	99.909	-94.4561
83.800003	99.841	-95.2083
85.000000	99.772	-95.8244
86.199997	99.706	-96.4831
87.500000	99.629	-97.3633
88.500000	99.555	-98.1032
90.000000	99.444	-99.0871
91.199997	99.384	-99.7775
92.500000	99.350	-100.5224
93.800003	99.321	-101.3220
95.000000	99.281	-101.9987
96.199997	99.244	-102.6062
97.500000	99.207	-103.3612
98.800003	99.140	-104.2565
100.000000	99.049	-104.9179
101.500000	98.965	-105.5358
103.000000	98.905	-106.2915
104.400002	98.836	-107.0543
106.000000	98.750	-107.9268
107.500000	98.669	-108.7313
109.000000	98.600	-109.5054
110.599998	98.538	-110.3471
112.000000	98.487	-111.0725
113.800003	98.416	-111.9566
115.000000	98.364	-112.5025
117.199997	98.269	-113.5032
118.000000	98.230	-113.8999
120.599998	98.093	-115.1485
122.000000	98.023	-115.8897
124.099998	97.919	-116.8884
125.000000	97.892	-117.2567
126.500000	97.869	-117.9507
128.000000	97.839	-118.7094
131.500000	97.757	-120.1890
132.000000	97.744	-120.3891
134.000000	97.685	-121.0110
136.000000	97.625	-121.4336
138.000000	97.540	-121.9061
140.000000	97.434	-122.6408
143.000000	97.313	-124.3188
145.000000	97.281	-125.3560
147.500000	97.241	-126.1350
150.000000	97.178	-126.7645
152.500000	97.092	-127.8506
155.000000	97.036	-128.8160
157.500000	96.992	-129.3165
160.000000	96.904	-129.5842
162.500000	96.752	-130.1379
165.000000	96.612	-130.9076
167.500000	96.562	-131.4335
170.000000	96.565	-131.6835
172.500000	96.564	-132.0397
175.000000	96.520	-133.0583
177.500000	96.480	-133.9762
180.000000	96.511	-134.3466
182.500000	96.507	-134.5750
185.000000	96.462	-134.9603
187.500000	96.515	-135.9098
190.000000	96.654	-137.1483
192.500000	96.726	-138.1116
195.000000	96.671	-138.6380
197.500000	96.572	-139.2542
200.000000	96.513	-140.2207
203.000000	96.510	-141.6068
206.000000	96.499	-142.8486
209.000000	96.458	-143.9463
212.000000	96.399	-144.9542
214.000000	96.363	-145.5567
218.000000	96.273	-146.7734
220.000000	96.216	-147.2974
224.000000	96.141	-148.2463
227.000000	96.113	-149.1340
230.000000	96.075	-150.0900
233.000000	96.020	-150.8228
236.000000	95.967	-151.3591
240.000000	95.903	-152.1364
243.000000	95.849	-152.8284
247.000000	95.769	-153.7301
250.000000	95.724	-154.3153
254.000000	95.681	-155.0670
258.000000	95.640	-155.8592
262.000000	95.595	-156.6855
265.000000	95.556	-157.3272
269.000000	95.503	-158.1623
272.000000	95.465	-158.7419
276.000000	95.413	-159.4673
280.000000	95.359	-160.1572
285.000000	95.297	-160.9605
290.000000	95.241	-161.7683
295.000000	95.187	-162.5825
300.000000	95.127	-163.3616
304.000000	95.076	-163.9899
307.000000	95.040	-164.4588
311.000000	94.996	-165.0586
315.000000	94.955	-165.6271
320.000000	94.905	-166.3259
325.000000	94.859	-167.0358
330.000000	94.811	-167.7322
335.000000	94.762	-168.3946
340.000000	94.712	-169.0380
345.000000	94.662	-169.6511
350.000000	94.615	-170.2354
355.000000	94.571	-170.8166
360.000000	94.527	-171.4098
365.000000	94.481	-171.9978
370.000000	94.435	-172.5378
375.000000	94.393	-173.0491
382.000000	94.337	-173.7482
387.000000	94.296	-174.2446
395.000000	94.228	-175.0048
400.000000	94.188	-175.4641
406.000000	94.142	-176.0026
412.000000	94.099	-176.5281
418.000000	94.058	-177.0289
425.000000	94.007	-177.6084
431.000000	93.967	-178.0911
437.000000	93.930	-178.5331
444.000000	93.883	-179.0296
450.000000	93.841	-179.4660
455.000000	93.808	-179.8374
462.000000	93.763	179.6485
468.000000	93.726	179.2273
475.000000	93.683	178.7640
482.000000	93.639	178.3243
487.000000	93.609	178.0220
494.000000	93.567	177.6099
500.000000	93.533	177.2599
508.000000	93.485	176.8077
515.000000	93.445	176.4332
522.000000	93.408	176.0744
530.000000	93.368	175.6838
538.000000	93.326	175.3102
545.000000	93.288	175.0038
552.000000	93.250	174.7226
560.000000	93.210	174.4277
570.000000	93.164	174.0920
580.000000	93.121	173.7597
590.000000	93.084	173.4121
600.000000	93.047	173.0861
608.000000	93.016	172.8633
615.000000	92.990	172.6819
622.000000	92.964	172.4976
630.000000	92.933	172.2822
640.000000	92.897	172.0217
650.000000	92.867	171.7828
660.000000	92.839	171.5862
670.000000	92.811	171.4271
680.000000	92.784	171.2794
690.000000	92.758	171.1507
700.000000	92.733	171.0527
710.000000	92.709	170.9833
720.000000	92.691	170.9344
730.000000	92.678	170.8897
740.000000	92.669	170.8407
750.000000	92.666	170.8011
762.000000	92.666	170.7731
775.000000	92.665	170.7783
788.000000	92.663	170.8319
800.000000	92.666	170.8951
812.000000	92.672	170.9615
825.000000	92.684	171.0367
838.000000	92.706	171.1309
850.000000	92.736	171.2316
862.000000	92.771	171.3248
875.000000	92.820	171.4115
885.000000	92.863	171.4741
900.000000	92.931	171.5694
912.000000	92.987	171.6522
925.000000	93.049	171.7454
938.000000	93.116	171.8271
950.000000	93.180	171.8797
962.000000	93.249	171.9066
975.000000	93.330	171.9104
988.000000	93.415	171.8979
1000.000000	93.496	171.8691
1015.000000	93.604	171.7942
1030.000000	93.717	171.6805
1044.000000	93.827	171.5384
1060.000000	93.958	171.3218
1075.000000	94.082	171.0780
1090.000000	94.205	170.7979
1106.000000	94.335	170.4601
1120.000000	94.445	170.1296
1138.000000	94.581	169.6627
1150.000000	94.669	169.3347
1172.000000	94.824	168.6968
1180.000000	94.881	168.4478
1206.000000	95.065	167.5761
1220.000000	95.162	167.0802
1241.000000	95.305	166.3110
1250.000000	95.363	165.9766
1265.000000	95.454	165.4212
1280.000000	95.542	164.8711
1315.000000	95.737	163.5632
1320.000000	95.764	163.3687
1340.000000	95.871	162.5920
1360.000000	95.973	161.8455
1380.000000	96.071	161.1124
1400.000000	96.166	160.3740
1430.000000	96.303	159.2910
1450.000000	96.391	158.5986
1475.000000	96.498	157.7454
1500.000000	96.604	156.9179
1525.000000	96.710	156.1161
1550.000000	96.820	155.3230
1575.000000	96.933	154.5383
1600.000000	97.047	153.7733
1625.000000	97.164	153.0234
1650.000000	97.287	152.2702
1675.000000	97.415	151.5018
1700.000000	97.546	150.7226
1725.000000	97.681	149.9286
1750.000000	97.817	149.1121
1775.000000	97.958	148.2609
1800.000000	98.106	147.3513
1825.000000	98.258	146.3777
1850.000000	98.412	145.3454
1875.000000	98.565	144.2420
1900.000000	98.712	143.0664
1925.000000	98.854	141.8264
1950.000000	98.991	140.5078
1975.000000	99.122	139.0961
2000.000000	99.245	137.6046
2030.000000	99.376	135.7372
2060.000000	99.485	133.7970
2090.000000	99.572	131.7940
2120.000000	99.639	129.7448
2140.000000	99.671	128.3650
2180.000000	99.703	125.6183
2200.000000	99.700	124.2709
2240.000000	99.660	121.6628
2270.000000	99.603	119.7938
2300.000000	99.529	118.0065
2330.000000	99.439	116.3167
2360.000000	99.335	114.7355
2400.000000	99.177	112.7982
2430.000000	99.048	111.4706
2470.000000	98.867	109.8637
2500.000000	98.730	108.7768
2540.000000	98.545	107.4699
2580.000000	98.358	106.3264
2620.000000	98.169	105.3434
2650.000000	98.028	104.7008
2690.000000	97.845	103.9521
2720.000000	97.712	103.4630
2760.000000	97.541	102.9062
2800.000000	97.379	102.4482
2850.000000	97.190	102.0010
2900.000000	97.018	101.6700
2950.000000	96.860	101.4500
3000.000000	96.715	101.3344
3040.000000	96.606	101.3067
3070.000000	96.528	101.3233
3110.000000	96.431	101.3913
3150.000000	96.345	101.5018
3200.000000	96.257	101.6817
3250.000000	96.190	101.8990
3300.000000	96.137	102.1593
3350.000000	96.097	102.4523
3400.000000	96.066	102.7811
3450.000000	96.045	103.1506
3500.000000	96.038	103.5449
3550.000000	96.048	103.9527
3600.000000	96.074	104.3757
3650.000000	96.119	104.8003
3700.000000	96.183	105.2104
3750.000000	96.267	105.5945
3820.000000	96.412	106.0540
3870.000000	96.533	106.3090
3950.000000	96.759	106.5126
4000.000000	96.921	106.4771
4060.000000	97.132	106.2416
4120.000000	97.353	105.7782
4180.000000	97.571	105.1017
4250.000000	97.803	104.1012
4310.000000	97.982	103.0903
4370.000000	98.150	101.9362
4440.000000	98.336	100.3992
4500.000000	98.489	98.8739
4550.000000	98.609	97.4197
4620.000000	98.751	95.0714
4680.000000	98.835	92.7442
4750.000000	98.861	89.6854
4820.000000	98.770	86.4199
4870.000000	98.616	84.1250
4940.000000	98.275	81.2756
5000.000000	97.885	79.4395
5080.000000	97.293	78.1048
5150.000000	96.774	77.9548
5220.000000	96.297	78.5605
5300.000000	95.823	79.8723
5380.000000	95.423	81.5835
5450.000000	95.119	83.2769
5520.000000	94.851	85.0774
5600.000000	94.582	87.2209
5700.000000	94.291	90.0149
5800.000000	94.044	92.9326
5900.000000	93.827	95.9416
6000.000000	93.635	99.0537
6080.000000	93.497	101.6453
6150.000000	93.389	103.9961
6220.000000	93.293	106.4278
6300.000000	93.202	109.2999
6400.000000	93.123	112.9794
6500.000000	93.091	116.6680
6600.000000	93.091	120.3095
6700.000000	93.110	123.9308
6800.000000	93.149	127.5958
6900.000000	93.211	131.2789
7000.000000	93.302	134.9216
7100.000000	93.421	138.4954
7200.000000	93.567	141.9793
7300.000000	93.729	145.3850
7400.000000	93.906	148.7729
7500.000000	94.115	152.1549
7620.000000	94.425	156.0733
7750.000000	94.838	159.9796
7880.000000	95.346	163.3288
8000.000000	95.903	165.5459
8120.000000	96.504	166.4005
8250.000000	97.085	165.2108
8380.000000	97.396	161.7473
8500.000000	97.279	157.4205
8620.000000	96.721	153.6028
8750.000000	95.709	151.6864
8850.000000	94.771	152.2556
9000.000000	93.331	156.1652
9120.000000	92.282	161.2744
9250.000000	91.303	168.0735
9380.000000	90.483	175.6663
9500.000000	89.848	-176.9152
9620.000000	89.310	-169.2604
9750.000000	88.819	-160.8078
9880.000000	88.411	-152.2669
10000.000000	88.093	-144.3409
10150.000000	87.756	-134.4045
10300.000000	87.469	-124.4713
10440.000000	87.231	-115.2268
10600.000000	86.982	-104.6755
10750.000000	86.757	-94.7317
10900.000000	86.537	-84.6575
11060.000000	86.312	-73.6776
11200.000000	86.130	-63.8036
11380.000000	85.941	-50.7209
11500.000000	85.861	-41.7954
11720.000000	85.834	-25.2345
11800.000000	85.860	-19.2108
12060.000000	86.056	0.3639
12200.000000	86.252	10.9514
12410.000000	86.719	26.5851
12500.000000	86.981	33.0548
12650.000000	87.484	43.4044
12800.000000	88.052	53.1457
13150.000000	89.530	73.2396
13200.000000	89.751	75.7813
13400.000000	90.627	85.0524
13600.000000	91.441	92.8659
13800.000000	92.110	99.3581
14000.000000	92.556	105.0110
14300.000000	92.755	113.7002
14500.000000	92.634	120.7872
14750.000000	92.351	132.1508
15000.000000	92.215	146.6916
15250.000000	92.609	163.3248
15500.000000	93.647	179.1535
15750.000000	94.958	-168.1143
16000.000000	96.246	-157.8340
16250.000000	97.625	-148.7882
16500.000000	99.261	-142.0225
16750.000000	100.924	-140.4866
17000.000000	101.979	-146.0567
17250.000000	101.865	-155.3898
17500.000000	100.589	-161.5688
17750.000000	98.692	-161.4437
18000.000000	96.774	-156.6626
18250.000000	95.133	-149.9287
18500.000000	93.798	-143.5061
18750.000000	92.578	-138.9895
19000.000000	91.130	-136.1940
19250.000000	89.193	-132.8663
19500.000000	86.763	-126.7069
19750.000000	84.141	-118.1227
