* Measurement data measured by REW V5.20.13
* Source: Input device not selected, no input selected, R, volume: no control
* Format: 256k Log Swept Sine, 1 sweep at -3.0 dBFS with no timing reference
* Dated: Oct 1, 2023 2:44:57 PM
* REW Settings:
*  C-weighting compensation: Off
*  Target level: 75.0 dB
* Note: ; 
* Measurement: 64 Audio Völur R M15
* Smoothing: 1/24 octave
* Frequency Step: 1/48 octave
* Start Frequency: 20.000 Hz
*
* Freq(Hz)	SPL(dB)	Phase(degrees)
20.000000	102.870	-31.7762
20.299999	102.855	-32.8167
20.600000	102.786	-33.5182
20.900000	102.705	-33.7371
21.200001	102.662	-33.5721
21.400000	102.668	-33.4246
21.799999	102.737	-33.3373
22.000000	102.781	-33.4945
22.400000	102.830	-34.1906
22.700001	102.811	-34.8009
23.000000	102.751	-35.2153
23.299999	102.684	-35.3314
23.600000	102.642	-35.2259
24.000000	102.656	-35.0455
24.299999	102.708	-35.1614
24.700001	102.781	-35.8286
25.000000	102.803	-36.6256
25.400000	102.766	-37.7822
25.799999	102.676	-38.6978
26.200001	102.584	-39.2519
26.500000	102.537	-39.5220
26.900000	102.512	-39.8767
27.200001	102.509	-40.2356
27.600000	102.507	-40.8539
28.000000	102.492	-41.5380
28.500000	102.454	-42.3383
29.000000	102.408	-43.0334
29.500000	102.355	-43.6329
30.000000	102.298	-44.0983
30.400000	102.261	-44.3782
30.700001	102.243	-44.5827
31.100000	102.230	-44.9497
31.500000	102.211	-45.4833
32.000000	102.152	-46.3043
32.500000	102.045	-47.0232
33.000000	101.929	-47.4185
33.500000	101.853	-47.5687
34.000000	101.841	-47.7727
34.500000	101.872	-48.2896
35.000000	101.910	-49.1841
35.500000	101.921	-50.3463
36.000000	101.888	-51.5481
36.500000	101.817	-52.5304
37.000000	101.743	-53.1300
37.500000	101.706	-53.4151
38.200001	101.735	-53.7715
38.700001	101.783	-54.2754
39.500000	101.809	-55.4783
40.000000	101.772	-56.2384
40.599998	101.688	-56.9280
41.200001	101.598	-57.3270
41.799999	101.535	-57.6260
42.500000	101.487	-58.1647
43.099998	101.435	-58.7990
43.700001	101.374	-59.4385
44.400002	101.314	-60.1992
45.000000	101.264	-60.9439
45.500000	101.211	-61.5362
46.200001	101.145	-62.1425
46.799999	101.131	-62.6054
47.500000	101.129	-63.4580
48.200001	101.068	-64.4235
48.700001	100.998	-64.8534
49.400002	100.938	-65.1061
50.000000	100.942	-65.4520
50.799999	100.943	-66.4173
51.500000	100.894	-67.3857
52.200001	100.826	-68.2450
53.000000	100.744	-69.1340
53.799999	100.663	-69.8347
54.500000	100.616	-70.3079
55.200001	100.593	-70.7875
56.000000	100.578	-71.3740
57.000000	100.565	-72.2148
58.000000	100.521	-73.1881
59.000000	100.448	-74.1113
60.000000	100.361	-75.0972
60.799999	100.273	-75.8491
61.500000	100.203	-76.4173
62.200001	100.151	-76.9795
63.000000	100.107	-77.6863
64.000000	100.059	-78.6404
65.000000	100.002	-79.5676
66.000000	99.943	-80.3448
67.000000	99.897	-81.0724
68.000000	99.845	-81.8818
69.000000	99.778	-82.6771
70.000000	99.713	-83.4790
71.000000	99.643	-84.3138
72.000000	99.574	-85.0411
73.000000	99.532	-85.7132
74.000000	99.506	-86.4856
75.000000	99.471	-87.3386
76.199997	99.409	-88.3685
77.500000	99.327	-89.4109
78.800003	99.243	-90.4445
80.000000	99.151	-91.3437
81.199997	99.066	-91.9680
82.500000	99.023	-92.5128
83.800003	99.001	-93.2484
85.000000	98.960	-94.1458
86.199997	98.886	-95.0247
87.500000	98.820	-95.8824
88.500000	98.781	-96.6350
90.000000	98.715	-97.7700
91.199997	98.655	-98.5149
92.500000	98.593	-99.1752
93.800003	98.529	-99.8016
95.000000	98.475	-100.5464
96.199997	98.402	-101.5788
97.500000	98.286	-102.7956
98.800003	98.155	-103.5875
100.000000	98.121	-103.9069
101.500000	98.164	-104.6806
103.000000	98.156	-105.6595
104.400002	98.102	-106.4270
106.000000	98.017	-107.1941
107.500000	97.941	-107.9255
109.000000	97.870	-108.6993
110.599998	97.807	-109.4256
112.000000	97.775	-110.0756
113.800003	97.726	-111.0653
115.000000	97.683	-111.6975
117.199997	97.615	-112.7693
118.000000	97.590	-113.1415
120.599998	97.497	-114.3129
122.000000	97.423	-115.0449
124.099998	97.300	-115.9933
125.000000	97.279	-116.3895
126.500000	97.274	-117.2328
128.000000	97.262	-118.1446
131.500000	97.139	-119.4510
132.000000	97.119	-119.5792
134.000000	97.046	-120.3167
136.000000	96.954	-121.4094
138.000000	96.862	-122.3161
140.000000	96.810	-123.0661
143.000000	96.710	-124.2086
145.000000	96.630	-124.8725
147.500000	96.534	-125.7058
150.000000	96.447	-126.3142
152.500000	96.425	-126.9972
155.000000	96.391	-127.8359
157.500000	96.336	-128.3142
160.000000	96.275	-129.0094
162.500000	96.185	-130.0398
165.000000	96.104	-130.7175
167.500000	96.041	-130.6758
170.000000	95.936	-130.3899
172.500000	95.817	-129.9927
175.000000	95.938	-130.1445
177.500000	96.214	-131.7661
180.000000	96.379	-133.7091
182.500000	96.377	-134.9757
185.000000	96.289	-135.7768
187.500000	96.226	-136.6790
190.000000	96.242	-137.8169
192.500000	96.283	-139.0656
195.000000	96.285	-140.2140
197.500000	96.238	-141.1138
200.000000	96.167	-141.7216
203.000000	96.088	-142.3639
206.000000	96.030	-143.2502
209.000000	95.988	-144.2394
212.000000	95.946	-145.0468
214.000000	95.918	-145.4974
218.000000	95.856	-146.4178
220.000000	95.814	-147.0078
224.000000	95.718	-148.3124
227.000000	95.672	-149.1611
230.000000	95.637	-149.9356
233.000000	95.590	-150.6830
236.000000	95.541	-151.3799
240.000000	95.486	-152.2580
243.000000	95.453	-152.8848
247.000000	95.405	-153.7340
250.000000	95.365	-154.4143
254.000000	95.313	-155.2551
258.000000	95.267	-155.9980
262.000000	95.218	-156.7489
265.000000	95.185	-157.3365
269.000000	95.141	-158.1664
272.000000	95.100	-158.7596
276.000000	95.047	-159.4664
280.000000	95.004	-160.1582
285.000000	94.953	-161.0024
290.000000	94.904	-161.8143
295.000000	94.859	-162.6290
300.000000	94.807	-163.4251
304.000000	94.757	-164.0464
307.000000	94.720	-164.4966
311.000000	94.676	-165.0401
315.000000	94.638	-165.5508
320.000000	94.586	-166.2297
325.000000	94.534	-166.9148
330.000000	94.487	-167.6272
335.000000	94.442	-168.3152
340.000000	94.402	-168.9509
345.000000	94.361	-169.5659
350.000000	94.316	-170.1261
355.000000	94.269	-170.6349
360.000000	94.223	-171.1436
365.000000	94.181	-171.6596
370.000000	94.142	-172.1799
375.000000	94.102	-172.7116
382.000000	94.048	-173.4611
387.000000	94.012	-173.9702
395.000000	93.959	-174.6866
400.000000	93.927	-175.0966
406.000000	93.892	-175.5972
412.000000	93.856	-176.0938
418.000000	93.816	-176.6136
425.000000	93.772	-177.2553
431.000000	93.738	-177.7764
437.000000	93.704	-178.2561
444.000000	93.662	-178.7877
450.000000	93.623	-179.2408
455.000000	93.587	-179.6127
462.000000	93.538	179.9151
468.000000	93.501	179.5450
475.000000	93.460	179.1131
482.000000	93.420	178.6669
487.000000	93.393	178.3576
494.000000	93.357	177.9349
500.000000	93.324	177.5861
508.000000	93.279	177.1778
515.000000	93.242	176.8675
522.000000	93.206	176.5806
530.000000	93.167	176.2571
538.000000	93.133	175.9115
545.000000	93.106	175.6018
552.000000	93.082	175.3024
560.000000	93.055	174.9529
570.000000	93.017	174.5228
580.000000	92.974	174.1157
590.000000	92.928	173.7303
600.000000	92.884	173.3874
608.000000	92.851	173.1483
615.000000	92.822	172.9502
622.000000	92.795	172.7604
630.000000	92.768	172.5529
640.000000	92.734	172.3152
650.000000	92.701	172.1328
660.000000	92.670	171.9763
670.000000	92.640	171.8151
680.000000	92.609	171.6750
690.000000	92.579	171.5739
700.000000	92.553	171.5043
710.000000	92.533	171.4523
720.000000	92.521	171.3944
730.000000	92.515	171.3294
740.000000	92.514	171.2777
750.000000	92.512	171.2430
762.000000	92.510	171.2390
775.000000	92.507	171.2881
788.000000	92.505	171.3507
800.000000	92.508	171.4149
812.000000	92.519	171.4839
825.000000	92.541	171.5651
838.000000	92.571	171.6550
850.000000	92.605	171.7310
862.000000	92.643	171.8125
875.000000	92.687	171.9229
885.000000	92.722	172.0136
900.000000	92.783	172.1494
912.000000	92.838	172.2401
925.000000	92.903	172.3054
938.000000	92.973	172.3602
950.000000	93.041	172.4111
962.000000	93.111	172.4534
975.000000	93.188	172.4827
988.000000	93.270	172.4830
1000.000000	93.353	172.4564
1015.000000	93.463	172.3865
1030.000000	93.580	172.2632
1044.000000	93.693	172.1085
1060.000000	93.821	171.9014
1075.000000	93.938	171.6765
1090.000000	94.054	171.4161
1106.000000	94.174	171.0977
1120.000000	94.279	170.7874
1138.000000	94.415	170.3394
1150.000000	94.505	170.0112
1172.000000	94.670	169.3571
1180.000000	94.728	169.1057
1206.000000	94.910	168.2557
1220.000000	95.002	167.7870
1241.000000	95.133	167.0720
1250.000000	95.188	166.7572
1265.000000	95.279	166.2190
1280.000000	95.370	165.6653
1315.000000	95.572	164.3578
1320.000000	95.599	164.1740
1340.000000	95.704	163.4460
1360.000000	95.801	162.7233
1380.000000	95.894	162.0116
1400.000000	95.986	161.3121
1430.000000	96.121	160.2738
1450.000000	96.212	159.5938
1475.000000	96.325	158.7714
1500.000000	96.438	157.9650
1525.000000	96.546	157.1744
1550.000000	96.649	156.4257
1575.000000	96.751	155.7086
1600.000000	96.860	154.9840
1625.000000	96.978	154.2480
1650.000000	97.104	153.5103
1675.000000	97.232	152.7758
1700.000000	97.362	152.0353
1725.000000	97.495	151.2738
1750.000000	97.632	150.4788
1775.000000	97.771	149.6436
1800.000000	97.914	148.7722
1825.000000	98.062	147.8456
1850.000000	98.217	146.8341
1875.000000	98.374	145.7492
1900.000000	98.529	144.6064
1925.000000	98.679	143.3846
1950.000000	98.821	142.0718
1975.000000	98.951	140.6907
2000.000000	99.070	139.2481
2030.000000	99.194	137.4244
2060.000000	99.301	135.5117
2090.000000	99.387	133.5321
2120.000000	99.451	131.5145
2140.000000	99.480	130.1662
2180.000000	99.505	127.4830
2200.000000	99.503	126.1587
2240.000000	99.467	123.5915
2270.000000	99.416	121.7539
2300.000000	99.343	120.0005
2330.000000	99.252	118.3547
2360.000000	99.145	116.8185
2400.000000	98.985	114.9279
2430.000000	98.857	113.6412
2470.000000	98.680	112.0890
2500.000000	98.546	111.0309
2540.000000	98.365	109.7692
2580.000000	98.177	108.6870
2620.000000	97.984	107.7665
2650.000000	97.840	107.1627
2690.000000	97.654	106.4620
2720.000000	97.521	106.0157
2760.000000	97.353	105.5182
2800.000000	97.196	105.1167
2850.000000	97.018	104.7352
2900.000000	96.853	104.4803
2950.000000	96.693	104.3607
3000.000000	96.542	104.3457
3040.000000	96.432	104.3832
3070.000000	96.357	104.4414
3110.000000	96.268	104.5489
3150.000000	96.194	104.6715
3200.000000	96.120	104.8533
3250.000000	96.058	105.0883
3300.000000	96.004	105.3784
3350.000000	95.959	105.7171
3400.000000	95.925	106.0970
3450.000000	95.905	106.5153
3500.000000	95.900	106.9655
3550.000000	95.916	107.4296
3600.000000	95.952	107.8952
3650.000000	96.007	108.3668
3700.000000	96.078	108.8274
3750.000000	96.166	109.2554
3820.000000	96.315	109.7804
3870.000000	96.438	110.0756
3950.000000	96.667	110.3505
4000.000000	96.833	110.3516
4060.000000	97.048	110.1503
4120.000000	97.270	109.7341
4180.000000	97.486	109.1068
4250.000000	97.719	108.1648
4310.000000	97.901	107.2065
4370.000000	98.076	106.1020
4440.000000	98.275	104.6074
4500.000000	98.440	103.1091
4550.000000	98.568	101.6750
4620.000000	98.721	99.3409
4680.000000	98.811	97.0030
4750.000000	98.835	93.9282
4820.000000	98.732	90.6634
4870.000000	98.567	88.3918
4940.000000	98.208	85.6345
5000.000000	97.801	83.9458
5080.000000	97.192	82.8735
5150.000000	96.669	82.9525
5220.000000	96.200	83.7570
5300.000000	95.742	85.2769
5380.000000	95.365	87.1654
5450.000000	95.093	88.9747
5520.000000	94.862	90.8802
5600.000000	94.629	93.1517
5700.000000	94.377	96.1140
5800.000000	94.166	99.2061
5900.000000	93.989	102.3973
6000.000000	93.843	105.7027
6080.000000	93.756	108.4238
6150.000000	93.700	110.8530
6220.000000	93.662	113.3142
6300.000000	93.643	116.1225
6400.000000	93.657	119.5569
6500.000000	93.702	122.8619
6600.000000	93.757	126.0556
6700.000000	93.808	129.2508
6800.000000	93.866	132.5748
6900.000000	93.953	135.9991
7000.000000	94.082	139.4203
7100.000000	94.251	142.7617
7200.000000	94.455	145.9514
7300.000000	94.688	148.9553
7400.000000	94.951	151.7887
7500.000000	95.255	154.4142
7620.000000	95.679	157.0835
7750.000000	96.194	159.1060
7880.000000	96.735	159.8879
8000.000000	97.194	159.0805
8120.000000	97.496	156.5552
8250.000000	97.480	152.2607
8380.000000	96.989	147.7274
8500.000000	96.123	144.9318
8620.000000	94.986	144.4769
8750.000000	93.639	146.8348
8850.000000	92.629	150.3972
9000.000000	91.268	157.8350
9120.000000	90.349	164.9750
9250.000000	89.521	173.3756
9380.000000	88.847	-177.8693
9500.000000	88.334	-169.6402
9620.000000	87.907	-161.3476
9750.000000	87.525	-152.3387
9880.000000	87.215	-143.3421
10000.000000	86.977	-135.0615
10150.000000	86.729	-124.7427
10300.000000	86.524	-114.4832
10440.000000	86.355	-104.9685
10600.000000	86.170	-94.1271
10750.000000	85.998	-83.9335
10900.000000	85.828	-73.6271
11060.000000	85.655	-62.4022
11200.000000	85.521	-52.3174
11380.000000	85.396	-38.9669
11500.000000	85.358	-29.8706
11720.000000	85.398	-13.0172
11800.000000	85.446	-6.8884
12060.000000	85.704	13.0670
12200.000000	85.943	23.8693
12410.000000	86.488	39.7691
12500.000000	86.785	46.3334
12650.000000	87.347	56.8202
12800.000000	87.978	66.6719
13150.000000	89.623	86.9154
13200.000000	89.868	89.4642
13400.000000	90.836	98.7258
13600.000000	91.724	106.4695
13800.000000	92.450	112.8482
14000.000000	92.944	118.3951
14300.000000	93.226	127.0009
14500.000000	93.183	134.0620
14750.000000	93.034	145.3599
15000.000000	93.082	159.6819
15250.000000	93.702	175.7682
15500.000000	94.968	-169.4181
15750.000000	96.496	-158.1855
16000.000000	98.028	-150.1527
16250.000000	99.607	-145.0434
16500.000000	101.069	-144.7517
16750.000000	101.862	-150.4460
17000.000000	101.524	-158.3929
17250.000000	100.144	-162.5190
17500.000000	98.253	-160.6747
17750.000000	96.376	-154.5565
18000.000000	94.762	-146.4644
18250.000000	93.434	-138.0171
18500.000000	92.336	-130.6397
18750.000000	91.273	-125.5358
19000.000000	89.906	-122.1647
19250.000000	88.005	-117.9933
19500.000000	85.614	-110.7866
19750.000000	83.072	-101.2597
