* Measurement data measured by REW V5.20.9
* Source: Input device not selected, no input selected, L, volume: no control
* Format: 512k Log Swept Sine, 1 sweep at -12.0 dBFS with no timing reference
* Dated: Dec 3, 2023 6:56:49 PM
* REW Settings:
*  C-weighting compensation: Off
*  Target level: 75.0 dB
* Note: ; 
* Measurement: 7a sg3 L
* Smoothing: 1/24 octave
* Frequency Step: 1/48 octave
* Start Frequency: 20.000 Hz
*
* Freq(Hz)	SPL(dB)	Phase(degrees)
20.000000	113.398	-174.4944
20.299999	113.375	-175.3691
20.600000	113.352	-176.2359
20.900000	113.329	-177.0970
21.200001	113.308	-177.9595
21.400000	113.294	-178.5396
21.799999	113.267	-179.7129
22.000000	113.253	179.6970
22.400000	113.221	178.5261
22.700001	113.195	177.6768
23.000000	113.168	176.8707
23.299999	113.143	176.1135
23.600000	113.123	175.3984
24.000000	113.105	174.4855
24.299999	113.098	173.8065
24.700001	113.093	172.8865
25.000000	113.087	172.1868
25.400000	113.074	171.2621
25.799999	113.053	170.3802
26.200001	113.028	169.5590
26.500000	113.008	168.9765
26.900000	112.982	168.2250
27.200001	112.962	167.6681
27.600000	112.933	166.9301
28.000000	112.899	166.2058
28.500000	112.855	165.3283
29.000000	112.813	164.4572
29.500000	112.774	163.5493
30.000000	112.732	162.5870
30.400000	112.694	161.7931
30.700001	112.663	161.1958
31.100000	112.617	160.4128
31.500000	112.569	159.6617
32.000000	112.509	158.7962
32.500000	112.459	158.0204
33.000000	112.425	157.2809
33.500000	112.402	156.4973
34.000000	112.375	155.6625
34.500000	112.334	154.8889
35.000000	112.292	154.2827
35.500000	112.273	153.7924
36.000000	112.283	153.2229
36.500000	112.295	152.4415
37.000000	112.281	151.5133
37.500000	112.233	150.6134
38.200001	112.141	149.5696
38.700001	112.074	148.9316
39.500000	111.967	148.0239
40.000000	111.909	147.5411
40.599998	111.865	146.9377
41.200001	111.837	146.1129
41.799999	111.791	145.0478
42.500000	111.689	143.7563
43.099998	111.574	142.8483
43.700001	111.470	142.1772
44.400002	111.395	141.4778
45.000000	111.355	140.6942
45.500000	111.304	139.9352
46.200001	111.197	139.0944
46.799999	111.126	138.7663
47.500000	111.120	138.3993
48.200001	111.131	137.6035
48.700001	111.105	136.9254
49.400002	111.031	136.2160
50.000000	110.978	135.8129
50.799999	110.929	135.2344
51.500000	110.880	134.6432
52.200001	110.826	134.0311
53.000000	110.757	133.2827
53.799999	110.674	132.6347
54.500000	110.622	132.2671
55.200001	110.623	131.8961
56.000000	110.664	131.0656
57.000000	110.634	129.3941
58.000000	110.444	128.3569
59.000000	110.326	128.4817
60.000000	110.344	127.9550
60.799999	110.278	126.9033
61.500000	110.154	126.1782
62.200001	110.036	125.6759
63.000000	109.925	125.0421
64.000000	109.786	124.2013
65.000000	109.680	123.5070
66.000000	109.623	122.7297
67.000000	109.570	121.8406
68.000000	109.509	121.1044
69.000000	109.468	120.3779
70.000000	109.396	119.4371
71.000000	109.271	118.7021
72.000000	109.168	118.2162
73.000000	109.095	117.5948
74.000000	109.018	116.9106
75.000000	108.953	116.3706
76.199997	108.914	115.6977
77.500000	108.850	114.8130
78.800003	108.740	114.1483
80.000000	108.634	113.7116
81.199997	108.538	113.2439
82.500000	108.436	112.5184
83.800003	108.305	111.7308
85.000000	108.192	111.4087
86.199997	108.177	111.0602
87.500000	108.132	110.0812
88.500000	108.053	109.5725
90.000000	107.988	108.7278
91.199997	107.887	107.7796
92.500000	107.762	107.1131
93.800003	107.683	106.4596
95.000000	107.611	105.8788
96.199997	107.566	105.4500
97.500000	107.549	104.8466
98.800003	107.506	103.9531
100.000000	107.407	103.1590
101.500000	107.265	102.5074
103.000000	107.154	101.9715
104.400002	107.081	101.4321
106.000000	107.013	100.7301
107.500000	106.946	100.0577
109.000000	106.865	99.3908
110.599998	106.764	98.7126
112.000000	106.677	98.1307
113.800003	106.584	97.3218
115.000000	106.522	96.7282
117.199997	106.404	95.8984
118.000000	106.369	95.6709
120.599998	106.265	94.9127
122.000000	106.205	94.4564
124.099998	106.107	93.7008
125.000000	106.063	93.3616
126.500000	105.990	92.7956
128.000000	105.916	92.2452
131.500000	105.754	91.1405
132.000000	105.733	90.9938
134.000000	105.654	90.3882
136.000000	105.572	89.7396
138.000000	105.484	89.0871
140.000000	105.399	88.4426
143.000000	105.284	87.4438
145.000000	105.207	86.7686
147.500000	105.102	86.0225
150.000000	105.007	85.3729
152.500000	104.925	84.6642
155.000000	104.840	83.9165
157.500000	104.752	83.2673
160.000000	104.672	82.6227
162.500000	104.594	81.8957
165.000000	104.510	81.1580
167.500000	104.425	80.5171
170.000000	104.346	79.9029
172.500000	104.272	79.2646
175.000000	104.196	78.6261
177.500000	104.118	78.0599
180.000000	104.043	77.5081
182.500000	103.969	76.9376
185.000000	103.900	76.3777
187.500000	103.833	75.8158
190.000000	103.763	75.2600
192.500000	103.699	74.7019
195.000000	103.634	74.1579
197.500000	103.568	73.6815
200.000000	103.509	73.2121
203.000000	103.439	72.5602
206.000000	103.368	71.8919
209.000000	103.303	71.2608
212.000000	103.238	70.6816
214.000000	103.194	70.3042
218.000000	103.105	69.5580
220.000000	103.064	69.2084
224.000000	102.989	68.5281
227.000000	102.935	67.9900
230.000000	102.878	67.4460
233.000000	102.818	66.9103
236.000000	102.759	66.3807
240.000000	102.691	65.6706
243.000000	102.640	65.1543
247.000000	102.573	64.5224
250.000000	102.527	64.0933
254.000000	102.463	63.5316
258.000000	102.395	62.9024
262.000000	102.329	62.2364
265.000000	102.285	61.7807
269.000000	102.230	61.2177
272.000000	102.188	60.7995
276.000000	102.134	60.2399
280.000000	102.086	59.7114
285.000000	102.028	59.0750
290.000000	101.967	58.4400
295.000000	101.905	57.8197
300.000000	101.848	57.2464
304.000000	101.806	56.7769
307.000000	101.775	56.4236
311.000000	101.732	55.9763
315.000000	101.691	55.5613
320.000000	101.643	55.0434
325.000000	101.597	54.4974
330.000000	101.553	53.9552
335.000000	101.509	53.4247
340.000000	101.467	52.9180
345.000000	101.430	52.4460
350.000000	101.392	51.9919
355.000000	101.353	51.5352
360.000000	101.314	51.0769
365.000000	101.279	50.6435
370.000000	101.247	50.2424
375.000000	101.216	49.8572
382.000000	101.170	49.3054
387.000000	101.143	48.9007
395.000000	101.103	48.2918
400.000000	101.079	47.9299
406.000000	101.052	47.4748
412.000000	101.023	47.0038
418.000000	100.994	46.5790
425.000000	100.961	46.1257
431.000000	100.933	45.7410
437.000000	100.906	45.3713
444.000000	100.875	44.9604
450.000000	100.850	44.6191
455.000000	100.832	44.3616
462.000000	100.810	44.0514
468.000000	100.794	43.7899
475.000000	100.775	43.4421
482.000000	100.761	43.0825
487.000000	100.752	42.8344
494.000000	100.735	42.4975
500.000000	100.721	42.2139
508.000000	100.704	41.8494
515.000000	100.687	41.5542
522.000000	100.667	41.2718
530.000000	100.644	40.9493
538.000000	100.628	40.6614
545.000000	100.618	40.4483
552.000000	100.606	40.2361
560.000000	100.588	39.9834
570.000000	100.567	39.6894
580.000000	100.546	39.4283
590.000000	100.526	39.1855
600.000000	100.514	38.9736
608.000000	100.505	38.8284
615.000000	100.496	38.7250
622.000000	100.489	38.6347
630.000000	100.483	38.5394
640.000000	100.471	38.4355
650.000000	100.464	38.3555
660.000000	100.466	38.3099
670.000000	100.472	38.2945
680.000000	100.480	38.3123
690.000000	100.489	38.3541
700.000000	100.502	38.3995
710.000000	100.521	38.4339
720.000000	100.548	38.4818
730.000000	100.582	38.5508
740.000000	100.623	38.6006
750.000000	100.664	38.5946
762.000000	100.704	38.5718
775.000000	100.748	38.6098
788.000000	100.801	38.6855
800.000000	100.855	38.7554
812.000000	100.910	38.8274
825.000000	100.975	38.9224
838.000000	101.041	39.0272
850.000000	101.104	39.1088
862.000000	101.172	39.1601
875.000000	101.252	39.2035
885.000000	101.314	39.2379
900.000000	101.407	39.3199
912.000000	101.486	39.4289
925.000000	101.578	39.5778
938.000000	101.677	39.7329
950.000000	101.774	39.8488
962.000000	101.877	39.9203
975.000000	101.995	39.9500
988.000000	102.119	39.9484
1000.000000	102.237	39.9368
1015.000000	102.389	39.8951
1030.000000	102.544	39.8179
1044.000000	102.693	39.7168
1060.000000	102.866	39.5499
1075.000000	103.027	39.2907
1090.000000	103.190	38.9306
1106.000000	103.364	38.5070
1120.000000	103.514	38.1349
1138.000000	103.704	37.6289
1150.000000	103.828	37.2513
1172.000000	104.050	36.4656
1180.000000	104.129	36.1522
1206.000000	104.377	35.0515
1220.000000	104.507	34.4438
1241.000000	104.693	33.5155
1250.000000	104.767	33.1017
1265.000000	104.884	32.3826
1280.000000	104.995	31.6429
1315.000000	105.240	29.9538
1320.000000	105.274	29.7167
1340.000000	105.408	28.7698
1360.000000	105.535	27.8369
1380.000000	105.656	26.9185
1400.000000	105.773	26.0024
1430.000000	105.938	24.6448
1450.000000	106.042	23.7473
1475.000000	106.174	22.6306
1500.000000	106.305	21.5326
1525.000000	106.432	20.4838
1550.000000	106.556	19.4761
1575.000000	106.681	18.4875
1600.000000	106.806	17.5088
1625.000000	106.933	16.5292
1650.000000	107.065	15.5327
1675.000000	107.201	14.5121
1700.000000	107.335	13.4828
1725.000000	107.468	12.4507
1750.000000	107.602	11.4052
1775.000000	107.737	10.3279
1800.000000	107.873	9.2173
1825.000000	108.011	8.0843
1850.000000	108.152	6.9202
1875.000000	108.292	5.7206
1900.000000	108.430	4.4928
1925.000000	108.565	3.2371
1950.000000	108.699	1.9564
1975.000000	108.832	0.6516
2000.000000	108.962	-0.7056
2030.000000	109.116	-2.4271
2060.000000	109.268	-4.2166
2090.000000	109.411	-6.0536
2120.000000	109.543	-7.9431
2140.000000	109.625	-9.2367
2180.000000	109.776	-11.9074
2200.000000	109.845	-13.2809
2240.000000	109.968	-16.0775
2270.000000	110.045	-18.1963
2300.000000	110.106	-20.3181
2330.000000	110.153	-22.4384
2360.000000	110.186	-24.5659
2400.000000	110.207	-27.4101
2430.000000	110.204	-29.5190
2470.000000	110.180	-32.2623
2500.000000	110.148	-34.2781
2540.000000	110.086	-36.9237
2580.000000	110.004	-39.4828
2620.000000	109.906	-41.9214
2650.000000	109.823	-43.6846
2690.000000	109.697	-45.9564
2720.000000	109.594	-47.5842
2760.000000	109.452	-49.6434
2800.000000	109.307	-51.5963
2850.000000	109.118	-53.8953
2900.000000	108.924	-55.9724
2950.000000	108.723	-57.8369
3000.000000	108.522	-59.5353
3040.000000	108.364	-60.7869
3070.000000	108.248	-61.6610
3110.000000	108.093	-62.7307
3150.000000	107.937	-63.6794
3200.000000	107.741	-64.6819
3250.000000	107.549	-65.4750
3300.000000	107.370	-66.0529
3350.000000	107.212	-66.3683
3400.000000	107.088	-66.3802
3450.000000	107.014	-66.1402
3500.000000	107.011	-65.7456
3550.000000	107.095	-65.3547
3600.000000	107.262	-65.2184
3650.000000	107.490	-65.5631
3700.000000	107.742	-66.4772
3750.000000	107.984	-67.9185
3820.000000	108.266	-70.6068
3870.000000	108.419	-72.8363
3950.000000	108.583	-76.6349
4000.000000	108.639	-79.0614
4060.000000	108.663	-81.9662
4120.000000	108.649	-84.8231
4180.000000	108.611	-87.5997
4250.000000	108.545	-90.7579
4310.000000	108.470	-93.4307
4370.000000	108.376	-96.0665
4440.000000	108.240	-99.1252
4500.000000	108.096	-101.7561
4550.000000	107.953	-103.9439
4620.000000	107.712	-106.9500
4680.000000	107.465	-109.3964
4750.000000	107.129	-111.9836
4820.000000	106.748	-114.1779
4870.000000	106.456	-115.4521
4940.000000	106.031	-116.7866
5000.000000	105.666	-117.4924
5080.000000	105.203	-117.7554
5150.000000	104.846	-117.3159
5220.000000	104.562	-116.2856
5300.000000	104.381	-114.5481
5380.000000	104.410	-112.6069
5450.000000	104.621	-111.2896
5520.000000	104.958	-110.9033
5600.000000	105.375	-112.0084
5700.000000	105.735	-115.3008
5800.000000	105.804	-119.1875
5900.000000	105.653	-122.2409
6000.000000	105.421	-124.0372
6080.000000	105.250	-124.7128
6150.000000	105.135	-124.8923
6220.000000	105.064	-124.8011
6300.000000	105.046	-124.5096
6400.000000	105.121	-124.1418
6500.000000	105.299	-124.0362
6600.000000	105.559	-124.3351
6700.000000	105.879	-125.1846
6800.000000	106.241	-126.7598
6900.000000	106.605	-129.2156
7000.000000	106.911	-132.5999
7100.000000	107.084	-136.7872
7200.000000	107.059	-141.3122
7300.000000	106.821	-145.3763
7400.000000	106.418	-148.1234
7500.000000	105.963	-149.0343
7620.000000	105.576	-147.8759
7750.000000	105.587	-145.2413
7880.000000	106.067	-143.1033
8000.000000	106.767	-142.6383
8120.000000	107.566	-143.8179
8250.000000	108.456	-146.7093
8380.000000	109.356	-151.0118
8500.000000	110.186	-156.2133
8620.000000	110.987	-162.7276
8750.000000	111.768	-171.4544
8850.000000	112.255	-179.4053
9000.000000	112.696	166.8850
9120.000000	112.735	154.9301
9250.000000	112.430	141.7640
9380.000000	111.780	129.0928
9500.000000	110.908	118.3676
9620.000000	109.812	108.9850
9750.000000	108.425	100.7390
9880.000000	106.910	94.7634
10000.000000	105.485	91.2688
10150.000000	103.783	89.2977
10300.000000	102.268	89.3646
10440.000000	101.079	90.6873
10600.000000	100.006	93.1183
10750.000000	99.267	95.8052
10900.000000	98.761	98.4894
11060.000000	98.446	101.0483
11200.000000	98.330	102.8899
11380.000000	98.355	104.5524
11500.000000	98.465	105.1068
11720.000000	98.826	104.7644
11800.000000	98.999	104.1346
12060.000000	99.620	99.7589
12200.000000	99.917	95.8004
12410.000000	100.185	88.0560
12500.000000	100.206	84.2746
12650.000000	100.095	77.7098
12800.000000	99.798	71.2424
13150.000000	98.586	58.6638
13200.000000	98.381	57.2548
13400.000000	97.550	52.5794
13600.000000	96.762	49.1835
13800.000000	96.062	46.7123
14000.000000	95.490	44.9259
14300.000000	94.964	42.9072
14500.000000	94.863	41.5884
14750.000000	95.035	39.4716
15000.000000	95.536	36.1534
15250.000000	96.307	30.7141
15500.000000	97.158	22.5712
15750.000000	97.922	12.3781
16000.000000	98.720	1.2906
16250.000000	99.777	-11.4238
16500.000000	100.939	-28.4397
16750.000000	101.656	-51.2644
17000.000000	101.465	-77.0849
17250.000000	100.376	-100.6685
17500.000000	98.794	-119.4658
17750.000000	97.151	-134.0189
18000.000000	95.713	-145.1973
18250.000000	94.759	-153.1357
18500.000000	94.957	-159.5098
18750.000000	96.424	-170.5021
19000.000000	97.999	169.0125
19250.000000	99.068	141.5125
19500.000000	99.723	110.1785
19750.000000	100.019	75.2750
20000.000000	99.842	36.8201
