* Measurement data measured by REW V5.20.9
* Source: Input device not selected, no input selected, L, volume: no control
* Format: 512k Log Swept Sine, 1 sweep at -12.0 dBFS with no timing reference
* Dated: Dec 1, 2023 11:29:31 PM
* REW Settings:
*  C-weighting compensation: Off
*  Target level: 75.0 dB
* Note: ; 
* Measurement: aroma feiwan R
* Smoothing: 1/24 octave
* Frequency Step: 1/48 octave
* Start Frequency: 20.000 Hz
*
* Freq(Hz)	SPL(dB)	Phase(degrees)
20.000000	113.620	-154.7178
20.299999	113.660	-155.8521
20.600000	113.677	-157.0609
20.900000	113.666	-158.2705
21.200001	113.631	-159.3931
21.400000	113.599	-160.0530
21.799999	113.533	-161.1443
22.000000	113.508	-161.5886
22.400000	113.487	-162.3615
22.700001	113.501	-162.9472
23.000000	113.532	-163.6300
23.299999	113.568	-164.4371
23.600000	113.597	-165.3457
24.000000	113.617	-166.6264
24.299999	113.615	-167.5512
24.700001	113.601	-168.6552
25.000000	113.592	-169.3776
25.400000	113.593	-170.2495
25.799999	113.610	-171.1164
26.200001	113.633	-172.0624
26.500000	113.645	-172.8357
26.900000	113.644	-173.9158
27.200001	113.627	-174.7091
27.600000	113.583	-175.6641
28.000000	113.529	-176.4345
28.500000	113.472	-177.1399
29.000000	113.453	-177.7188
29.500000	113.469	-178.3877
30.000000	113.496	-179.2680
30.400000	113.509	179.9082
30.700001	113.509	179.2675
31.100000	113.499	178.4423
31.500000	113.484	177.6813
32.000000	113.472	176.8115
32.500000	113.471	175.9721
33.000000	113.476	175.1016
33.500000	113.478	174.1937
34.000000	113.470	173.3040
34.500000	113.456	172.4991
35.000000	113.448	171.7766
35.500000	113.454	171.0402
36.000000	113.460	170.1880
36.500000	113.446	169.2328
37.000000	113.400	168.3210
37.500000	113.334	167.6006
38.200001	113.257	166.9282
38.700001	113.230	166.5321
39.500000	113.221	165.7677
40.000000	113.220	165.1834
40.599998	113.213	164.3885
41.200001	113.189	163.5476
41.799999	113.148	162.7948
42.500000	113.108	162.1099
43.099998	113.103	161.5056
43.700001	113.101	160.7094
44.400002	113.062	159.7145
45.000000	113.014	159.0831
45.500000	112.996	158.6924
46.200001	113.016	158.0486
46.799999	113.042	157.2641
47.500000	113.053	156.2144
48.200001	113.046	155.1250
48.700001	113.028	154.3243
49.400002	112.973	153.2552
50.000000	112.907	152.4799
50.799999	112.814	151.6192
51.500000	112.730	150.9711
52.200001	112.650	150.4295
53.000000	112.580	149.8652
53.799999	112.538	149.2572
54.500000	112.529	148.5924
55.200001	112.527	147.6472
56.000000	112.479	146.3657
57.000000	112.357	145.2855
58.000000	112.307	144.8450
59.000000	112.338	144.1769
60.000000	112.329	143.1742
60.799999	112.281	142.5710
61.500000	112.255	142.1763
62.200001	112.242	141.6219
63.000000	112.194	140.7816
64.000000	112.082	139.9398
65.000000	111.996	139.3732
66.000000	111.949	138.7487
67.000000	111.922	138.0078
68.000000	111.901	137.1938
69.000000	111.883	136.3181
70.000000	111.844	135.3901
71.000000	111.783	134.6638
72.000000	111.745	134.0784
73.000000	111.713	133.3695
74.000000	111.667	132.7024
75.000000	111.639	132.0620
76.199997	111.600	131.0171
77.500000	111.506	129.9821
78.800003	111.428	129.1451
80.000000	111.366	128.3483
81.199997	111.309	127.5597
82.500000	111.244	126.6881
83.800003	111.180	125.9476
85.000000	111.141	125.2768
86.199997	111.109	124.5319
87.500000	111.070	123.6265
88.500000	111.027	122.9303
90.000000	110.961	122.0064
91.199997	110.914	121.2603
92.500000	110.855	120.4279
93.800003	110.786	119.6331
95.000000	110.722	118.9353
96.199997	110.663	118.2644
97.500000	110.609	117.5378
98.800003	110.558	116.7776
100.000000	110.509	116.0775
101.500000	110.442	115.2470
103.000000	110.376	114.4534
104.400002	110.316	113.7064
106.000000	110.246	112.8225
107.500000	110.179	112.0146
109.000000	110.119	111.2556
110.599998	110.058	110.4454
112.000000	109.999	109.7622
113.800003	109.922	108.9784
115.000000	109.877	108.4368
117.199997	109.780	107.4073
118.000000	109.746	107.0618
120.599998	109.658	105.8812
122.000000	109.615	105.1825
124.099998	109.556	104.0613
125.000000	109.523	103.5055
126.500000	109.427	102.6134
128.000000	109.294	102.0852
131.500000	109.101	101.5804
132.000000	109.085	101.4435
134.000000	109.013	100.6993
136.000000	108.904	99.8529
138.000000	108.765	99.0787
140.000000	108.655	98.2586
143.000000	108.635	96.2712
145.000000	108.668	94.9224
147.500000	108.705	94.0225
150.000000	108.676	93.5049
152.500000	108.558	92.6650
155.000000	108.441	91.6443
157.500000	108.377	90.7681
160.000000	108.310	90.0128
162.500000	108.214	89.2822
165.000000	108.126	88.4061
167.500000	108.046	87.4454
170.000000	107.977	86.5850
172.500000	107.928	85.7248
175.000000	107.860	84.9195
177.500000	107.780	84.2636
180.000000	107.713	83.4894
182.500000	107.629	82.6252
185.000000	107.571	81.9354
187.500000	107.509	81.1276
190.000000	107.431	80.4305
192.500000	107.359	79.7801
195.000000	107.289	79.1248
197.500000	107.223	78.4429
200.000000	107.156	77.7339
203.000000	107.075	76.9470
206.000000	107.000	76.1132
209.000000	106.918	75.3176
212.000000	106.851	74.4971
214.000000	106.808	73.9448
218.000000	106.737	73.0968
220.000000	106.702	72.8320
224.000000	106.624	72.1784
227.000000	106.546	71.3373
230.000000	106.461	70.5347
233.000000	106.389	69.8373
236.000000	106.322	69.1497
240.000000	106.239	68.3547
243.000000	106.186	67.8029
247.000000	106.102	67.0531
250.000000	106.032	66.5436
254.000000	105.974	65.8375
258.000000	105.931	65.1425
262.000000	105.859	64.2336
265.000000	105.786	63.5243
269.000000	105.677	62.6724
272.000000	105.628	61.9520
276.000000	105.618	61.3961
280.000000	105.552	61.2109
285.000000	105.437	60.1521
290.000000	105.378	59.0078
295.000000	105.319	58.3877
300.000000	105.249	58.0530
304.000000	105.185	57.7939
307.000000	105.142	57.5403
311.000000	105.093	57.1287
315.000000	105.048	56.6490
320.000000	104.995	56.0071
325.000000	104.952	55.4187
330.000000	104.924	54.9195
335.000000	104.894	54.4014
340.000000	104.863	53.8339
345.000000	104.830	53.2122
350.000000	104.804	52.7029
355.000000	104.778	52.3154
360.000000	104.801	51.7999
365.000000	104.758	50.7929
370.000000	104.689	50.4242
375.000000	104.691	50.1801
382.000000	104.720	49.3543
387.000000	104.722	48.5412
395.000000	104.667	47.2812
400.000000	104.636	46.7442
406.000000	104.609	46.1696
412.000000	104.591	45.4732
418.000000	104.588	44.6987
425.000000	104.568	43.8232
431.000000	104.541	43.1256
437.000000	104.505	42.4174
444.000000	104.467	41.5140
450.000000	104.434	40.7774
455.000000	104.411	40.1543
462.000000	104.377	39.2134
468.000000	104.325	38.3992
475.000000	104.245	37.6288
482.000000	104.178	37.0684
487.000000	104.140	36.6765
494.000000	104.091	36.0643
500.000000	104.053	35.5518
508.000000	103.989	34.7891
515.000000	103.934	34.1657
522.000000	103.887	33.6530
530.000000	103.868	33.1104
538.000000	103.846	32.0252
545.000000	103.764	31.3773
552.000000	103.670	31.1099
560.000000	103.587	30.6712
570.000000	103.481	29.9442
580.000000	103.394	29.4082
590.000000	103.301	28.8377
600.000000	103.209	28.3004
608.000000	103.138	27.9385
615.000000	103.073	27.6158
622.000000	103.012	27.3299
630.000000	102.947	26.9976
640.000000	102.857	26.6106
650.000000	102.776	26.2996
660.000000	102.690	26.0635
670.000000	102.595	25.8353
680.000000	102.517	25.6125
690.000000	102.440	25.4554
700.000000	102.360	25.3699
710.000000	102.287	25.3675
720.000000	102.208	25.4264
730.000000	102.126	25.4594
740.000000	102.054	25.4156
750.000000	101.980	25.4538
762.000000	101.904	25.6536
775.000000	101.825	25.8882
788.000000	101.749	26.1627
800.000000	101.689	26.4374
812.000000	101.634	26.7443
825.000000	101.583	27.1232
838.000000	101.536	27.5720
850.000000	101.499	28.0124
862.000000	101.470	28.4534
875.000000	101.445	28.9720
885.000000	101.427	29.4093
900.000000	101.412	30.0607
912.000000	101.408	30.5482
925.000000	101.408	31.0821
938.000000	101.419	31.7044
950.000000	101.438	32.3211
962.000000	101.462	32.8877
975.000000	101.497	33.4787
988.000000	101.539	34.0737
1000.000000	101.581	34.6142
1015.000000	101.641	35.2722
1030.000000	101.710	35.8978
1044.000000	101.781	36.4558
1060.000000	101.868	37.0569
1075.000000	101.959	37.6067
1090.000000	102.057	38.1123
1106.000000	102.166	38.5957
1120.000000	102.264	39.0189
1138.000000	102.390	39.5485
1150.000000	102.477	39.8830
1172.000000	102.640	40.4732
1180.000000	102.698	40.6736
1206.000000	102.892	41.2742
1220.000000	102.999	41.5640
1241.000000	103.166	41.9757
1250.000000	103.241	42.1447
1265.000000	103.368	42.4177
1280.000000	103.496	42.6784
1315.000000	103.801	43.2413
1320.000000	103.845	43.3148
1340.000000	104.025	43.5881
1360.000000	104.210	43.8405
1380.000000	104.401	44.0766
1400.000000	104.597	44.2867
1430.000000	104.901	44.5057
1450.000000	105.109	44.5899
1475.000000	105.377	44.6467
1500.000000	105.655	44.6318
1525.000000	105.936	44.5208
1550.000000	106.221	44.3456
1575.000000	106.510	44.1121
1600.000000	106.802	43.7486
1625.000000	107.098	43.3065
1650.000000	107.404	42.7785
1675.000000	107.711	42.1401
1700.000000	108.014	41.3989
1725.000000	108.310	40.6063
1750.000000	108.609	39.7173
1775.000000	108.906	38.6922
1800.000000	109.197	37.5615
1825.000000	109.480	36.3340
1850.000000	109.760	35.0053
1875.000000	110.033	33.5722
1900.000000	110.294	32.0422
1925.000000	110.542	30.4155
1950.000000	110.777	28.6997
1975.000000	111.000	26.9147
2000.000000	111.206	25.0734
2030.000000	111.431	22.7878
2060.000000	111.635	20.4174
2090.000000	111.817	17.9633
2120.000000	111.978	15.4489
2140.000000	112.071	13.7546
2180.000000	112.225	10.3514
2200.000000	112.283	8.6513
2240.000000	112.363	5.2947
2270.000000	112.393	2.8280
2300.000000	112.403	0.4008
2330.000000	112.394	-1.9932
2360.000000	112.363	-4.3453
2400.000000	112.283	-7.3991
2430.000000	112.194	-9.5875
2470.000000	112.044	-12.3033
2500.000000	111.914	-14.1711
2540.000000	111.727	-16.4275
2580.000000	111.533	-18.4107
2620.000000	111.335	-20.1190
2650.000000	111.186	-21.2275
2690.000000	110.986	-22.5217
2720.000000	110.838	-23.3806
2760.000000	110.646	-24.3973
2800.000000	110.460	-25.2659
2850.000000	110.240	-26.0894
2900.000000	110.036	-26.5823
2950.000000	109.857	-26.7367
3000.000000	109.717	-26.6117
3040.000000	109.638	-26.3200
3070.000000	109.603	-26.0007
3110.000000	109.596	-25.4903
3150.000000	109.642	-24.9655
3200.000000	109.774	-24.4467
3250.000000	109.970	-24.2201
3300.000000	110.204	-24.3292
3350.000000	110.453	-24.7576
3400.000000	110.705	-25.4571
3450.000000	110.960	-26.3975
3500.000000	111.218	-27.5624
3550.000000	111.475	-28.9382
3600.000000	111.728	-30.5170
3650.000000	111.974	-32.2927
3700.000000	112.208	-34.2469
3750.000000	112.431	-36.3713
3820.000000	112.721	-39.6458
3870.000000	112.911	-42.2072
3950.000000	113.186	-46.6830
4000.000000	113.328	-49.7341
4060.000000	113.447	-53.6569
4120.000000	113.493	-57.8342
4180.000000	113.447	-62.2024
4250.000000	113.252	-67.2958
4310.000000	112.950	-71.2990
4370.000000	112.533	-74.5421
4440.000000	111.959	-76.8845
4500.000000	111.474	-77.4991
4550.000000	111.144	-77.1543
4620.000000	110.877	-75.8756
4680.000000	110.850	-74.6656
4750.000000	111.007	-73.8307
4820.000000	111.270	-74.0397
4870.000000	111.468	-74.8772
4940.000000	111.696	-76.8672
5000.000000	111.806	-79.1180
5080.000000	111.788	-82.4581
5150.000000	111.594	-85.1747
5220.000000	111.230	-87.0622
5300.000000	110.661	-87.2565
5380.000000	110.121	-84.4777
5450.000000	109.973	-79.7693
5520.000000	110.362	-74.4436
5600.000000	111.375	-70.2194
5700.000000	112.867	-69.9772
5800.000000	114.087	-74.1758
5900.000000	114.929	-80.2601
6000.000000	115.499	-86.6090
6080.000000	115.847	-91.4567
6150.000000	116.114	-95.4957
6220.000000	116.369	-99.4034
6300.000000	116.666	-103.8384
6400.000000	117.055	-109.6019
6500.000000	117.457	-115.9264
6600.000000	117.833	-123.1212
6700.000000	118.111	-131.3557
6800.000000	118.205	-140.4727
6900.000000	118.059	-149.9731
7000.000000	117.677	-159.2465
7100.000000	117.103	-167.8553
7200.000000	116.384	-175.6520
7300.000000	115.527	177.4678
7400.000000	114.529	171.9063
7500.000000	113.454	168.0504
7620.000000	112.226	165.5099
7750.000000	111.113	164.3632
7880.000000	110.242	163.8649
8000.000000	109.605	163.4818
8120.000000	109.082	162.9986
8250.000000	108.618	162.3392
8380.000000	108.240	161.5033
8500.000000	107.965	160.4421
8620.000000	107.756	158.9189
8750.000000	107.571	156.4465
8850.000000	107.408	153.7557
9000.000000	106.978	148.4692
9120.000000	106.336	144.0790
9250.000000	105.293	141.1295
9380.000000	104.069	141.7673
9500.000000	103.103	145.4453
9620.000000	102.560	150.6233
9750.000000	102.493	156.1771
9880.000000	102.819	160.5382
10000.000000	103.316	163.0761
10150.000000	104.052	164.2087
10300.000000	104.805	163.3251
10440.000000	105.442	160.9555
10600.000000	106.019	156.9002
10750.000000	106.387	152.4445
10900.000000	106.607	148.0173
11060.000000	106.735	143.7742
11200.000000	106.813	140.5787
11380.000000	106.935	137.0649
11500.000000	107.053	134.9921
11720.000000	107.398	131.6240
11800.000000	107.576	130.4674
12060.000000	108.394	126.5538
12200.000000	109.024	124.1381
12410.000000	110.307	119.5065
12500.000000	110.997	116.8370
12650.000000	112.310	110.7740
12800.000000	113.709	101.6893
13150.000000	115.768	65.1480
13200.000000	115.778	58.7916
13400.000000	115.038	35.0883
13600.000000	113.447	17.7846
13800.000000	111.709	6.8520
14000.000000	110.322	-0.2290
14300.000000	109.249	-8.5188
14500.000000	109.136	-15.0584
14750.000000	109.360	-26.4441
15000.000000	109.612	-41.7692
15250.000000	109.648	-60.7288
15500.000000	109.142	-82.5910
15750.000000	107.868	-103.5724
16000.000000	106.146	-120.4800
16250.000000	104.536	-134.2615
16500.000000	103.296	-147.5942
16750.000000	102.331	-162.5864
17000.000000	101.372	179.8683
17250.000000	100.138	160.3906
17500.000000	98.450	140.9359
17750.000000	96.326	123.6500
18000.000000	93.968	109.3323
18250.000000	91.646	97.3766
18500.000000	89.562	86.6226
18750.000000	87.772	75.8807
19000.000000	86.176	64.2927
19250.000000	84.578	51.9777
19500.000000	82.775	41.0240
19750.000000	80.957	35.9034
20000.000000	81.002	37.2693
