* Measurement data measured by REW V5.20.9
* Source: Input device not selected, no input selected, R, volume: no control
* Format: 512k Log Swept Sine, 1 sweep at -12.0 dBFS with no timing reference
* Dated: Sep 8, 2023 12:17:49 PM
* REW Settings:
*  C-weighting compensation: Off
*  Target level: 75.0 dB
* Note: ; 
* Measurement: b3s2 R
* Smoothing: 1/24 octave
* Frequency Step: 1/48 octave
* Start Frequency: 20.000 Hz
*
* Freq(Hz)	SPL(dB)	Phase(degrees)
20.000000	103.272	28.0779
20.299999	103.299	27.2542
20.600000	103.333	26.4818
20.900000	103.373	25.7181
21.200001	103.410	24.9247
21.400000	103.428	24.3864
21.799999	103.440	23.3722
22.000000	103.436	22.9467
22.400000	103.428	22.3495
22.700001	103.447	22.0846
23.000000	103.507	21.8128
23.299999	103.602	21.3042
23.600000	103.704	20.4048
24.000000	103.790	18.5484
24.299999	103.771	16.8699
24.700001	103.612	14.7771
25.000000	103.417	13.7242
25.400000	103.138	13.3053
25.799999	102.958	13.7715
26.200001	102.943	14.3680
26.500000	103.011	14.4476
26.900000	103.129	13.8511
27.200001	103.186	13.0188
27.600000	103.196	11.7869
28.000000	103.159	10.7991
28.500000	103.126	9.9850
29.000000	103.145	9.1925
29.500000	103.168	8.0885
30.000000	103.129	6.8839
30.400000	103.055	6.1550
30.700001	102.995	5.8220
31.100000	102.935	5.5825
31.500000	102.908	5.3943
32.000000	102.897	4.9899
32.500000	102.873	4.3903
33.000000	102.820	3.8126
33.500000	102.763	3.4009
34.000000	102.732	3.0739
34.500000	102.734	2.6285
35.000000	102.745	1.9539
35.500000	102.743	1.1031
36.000000	102.717	0.2225
36.500000	102.677	-0.5685
37.000000	102.638	-1.2339
37.500000	102.610	-1.8180
38.200001	102.582	-2.6213
38.700001	102.558	-3.2025
39.500000	102.499	-4.0038
40.000000	102.460	-4.3823
40.599998	102.422	-4.7825
41.200001	102.387	-5.2164
41.799999	102.343	-5.6858
42.500000	102.282	-6.2097
43.099998	102.229	-6.6157
43.700001	102.186	-7.0241
44.400002	102.148	-7.6042
45.000000	102.112	-8.2343
45.500000	102.071	-8.8008
46.200001	102.003	-9.5766
46.799999	101.941	-10.2717
47.500000	101.834	-11.1021
48.200001	101.684	-11.5256
48.700001	101.601	-11.4118
49.400002	101.598	-11.1138
50.000000	101.669	-11.3660
50.799999	101.713	-12.4957
51.500000	101.660	-13.4977
52.200001	101.580	-14.1809
53.000000	101.488	-14.7573
53.799999	101.386	-15.0809
54.500000	101.317	-15.0869
55.200001	101.292	-15.0479
56.000000	101.298	-15.2352
57.000000	101.292	-15.9033
58.000000	101.220	-16.7268
59.000000	101.108	-17.2140
60.000000	101.026	-17.4447
60.799999	100.976	-17.6465
61.500000	100.933	-17.8062
62.200001	100.896	-17.9448
63.000000	100.860	-18.1395
64.000000	100.818	-18.4717
65.000000	100.773	-19.0095
66.000000	100.688	-19.7096
67.000000	100.566	-20.2208
68.000000	100.451	-20.5008
69.000000	100.344	-20.6162
70.000000	100.250	-20.4515
71.000000	100.218	-20.0331
72.000000	100.272	-19.9276
73.000000	100.321	-20.6154
74.000000	100.265	-21.6768
75.000000	100.128	-22.3826
76.199997	99.991	-22.7235
77.500000	99.881	-23.1353
78.800003	99.756	-23.2949
80.000000	99.692	-23.1708
81.199997	99.662	-23.2524
82.500000	99.614	-23.4900
83.800003	99.557	-23.7443
85.000000	99.501	-24.0162
86.199997	99.433	-24.3428
87.500000	99.329	-24.6365
88.500000	99.238	-24.7158
90.000000	99.116	-24.6733
91.199997	99.038	-24.6775
92.500000	98.958	-24.7615
93.800003	98.886	-24.8190
95.000000	98.840	-24.9342
96.199997	98.787	-25.2447
97.500000	98.688	-25.5112
98.800003	98.597	-25.4777
100.000000	98.551	-25.4495
101.500000	98.500	-25.6143
103.000000	98.422	-25.7661
104.400002	98.339	-25.7877
106.000000	98.249	-25.7310
107.500000	98.177	-25.7136
109.000000	98.109	-25.7464
110.599998	98.031	-25.8273
112.000000	97.944	-25.9041
113.800003	97.813	-25.9370
115.000000	97.737	-25.9146
117.199997	97.696	-25.9222
118.000000	97.707	-25.9884
120.599998	97.741	-26.2471
122.000000	97.679	-26.1213
124.099998	97.546	-25.4500
125.000000	97.487	-25.2457
126.500000	97.381	-25.1077
128.000000	97.283	-25.1354
131.500000	97.118	-25.1875
132.000000	97.099	-25.1611
134.000000	97.027	-25.0088
136.000000	96.962	-24.8953
138.000000	96.907	-24.8564
140.000000	96.860	-24.7823
143.000000	96.788	-24.4279
145.000000	96.741	-24.0420
147.500000	96.702	-23.6481
150.000000	96.645	-23.5117
152.500000	96.551	-23.3914
155.000000	96.451	-23.2380
157.500000	96.377	-23.1602
160.000000	96.327	-23.0238
162.500000	96.286	-22.7017
165.000000	96.228	-22.2667
167.500000	96.160	-21.8967
170.000000	96.124	-21.7100
172.500000	96.117	-21.5493
175.000000	96.107	-21.2362
177.500000	96.064	-20.8741
180.000000	96.002	-20.6120
182.500000	95.956	-20.4496
185.000000	95.927	-20.2325
187.500000	95.892	-19.9290
190.000000	95.841	-19.6483
192.500000	95.789	-19.4414
195.000000	95.754	-19.2819
197.500000	95.732	-19.1321
200.000000	95.711	-18.9448
203.000000	95.689	-18.6478
206.000000	95.676	-18.3006
209.000000	95.664	-17.9102
212.000000	95.641	-17.5089
214.000000	95.622	-17.2556
218.000000	95.599	-16.8486
220.000000	95.594	-16.6775
224.000000	95.575	-16.3435
227.000000	95.549	-16.1705
230.000000	95.522	-16.0130
233.000000	95.508	-15.8117
236.000000	95.501	-15.6171
240.000000	95.490	-15.3380
243.000000	95.482	-15.1457
247.000000	95.479	-14.8898
250.000000	95.482	-14.6350
254.000000	95.478	-14.2960
258.000000	95.468	-14.0156
262.000000	95.455	-13.6366
265.000000	95.451	-13.3516
269.000000	95.441	-13.1348
272.000000	95.434	-12.9957
276.000000	95.435	-12.8132
280.000000	95.439	-12.6586
285.000000	95.444	-12.5183
290.000000	95.447	-12.3862
295.000000	95.459	-12.2431
300.000000	95.472	-12.0253
304.000000	95.474	-11.8199
307.000000	95.470	-11.6840
311.000000	95.462	-11.5371
315.000000	95.461	-11.3877
320.000000	95.473	-11.1396
325.000000	95.479	-10.8916
330.000000	95.476	-10.7294
335.000000	95.490	-10.5596
340.000000	95.506	-10.4388
345.000000	95.519	-10.4474
350.000000	95.534	-10.4642
355.000000	95.548	-10.4432
360.000000	95.559	-10.3970
365.000000	95.566	-10.3190
370.000000	95.572	-10.2229
375.000000	95.582	-10.1360
382.000000	95.599	-10.0324
387.000000	95.606	-9.9436
395.000000	95.612	-9.7769
400.000000	95.613	-9.6835
406.000000	95.610	-9.5830
412.000000	95.612	-9.5263
418.000000	95.621	-9.5212
425.000000	95.633	-9.5157
431.000000	95.645	-9.4963
437.000000	95.658	-9.4686
444.000000	95.667	-9.4188
450.000000	95.670	-9.3762
455.000000	95.671	-9.3555
462.000000	95.670	-9.3434
468.000000	95.670	-9.3074
475.000000	95.670	-9.2203
482.000000	95.665	-9.1234
487.000000	95.659	-9.0638
494.000000	95.652	-8.9884
500.000000	95.651	-8.9294
508.000000	95.651	-8.8766
515.000000	95.655	-8.8538
522.000000	95.661	-8.8502
530.000000	95.670	-8.8853
538.000000	95.678	-8.9242
545.000000	95.680	-8.9351
552.000000	95.681	-8.9130
560.000000	95.682	-8.8314
570.000000	95.681	-8.6996
580.000000	95.672	-8.5804
590.000000	95.654	-8.4731
600.000000	95.636	-8.3459
608.000000	95.627	-8.2662
615.000000	95.623	-8.2190
622.000000	95.623	-8.1596
630.000000	95.627	-8.0851
640.000000	95.634	-8.0062
650.000000	95.639	-7.9183
660.000000	95.641	-7.8403
670.000000	95.644	-7.7623
680.000000	95.645	-7.6495
690.000000	95.647	-7.5001
700.000000	95.649	-7.3143
710.000000	95.648	-7.1157
720.000000	95.648	-6.9197
730.000000	95.647	-6.7258
740.000000	95.647	-6.5349
750.000000	95.651	-6.3373
762.000000	95.660	-6.0992
775.000000	95.678	-5.8165
788.000000	95.705	-5.4825
800.000000	95.730	-5.2099
812.000000	95.753	-4.9650
825.000000	95.776	-4.6640
838.000000	95.803	-4.3017
850.000000	95.834	-3.9058
862.000000	95.870	-3.4924
875.000000	95.913	-3.0789
885.000000	95.948	-2.7927
900.000000	96.003	-2.4158
912.000000	96.053	-2.1313
925.000000	96.118	-1.7958
938.000000	96.194	-1.4202
950.000000	96.271	-1.0624
962.000000	96.350	-0.7357
975.000000	96.440	-0.4513
988.000000	96.541	-0.2378
1000.000000	96.637	-0.0795
1015.000000	96.756	0.1146
1030.000000	96.879	0.3301
1044.000000	96.996	0.5193
1060.000000	97.128	0.6572
1075.000000	97.253	0.6953
1090.000000	97.382	0.6326
1106.000000	97.518	0.4702
1120.000000	97.635	0.2952
1138.000000	97.785	0.0791
1150.000000	97.886	-0.0643
1172.000000	98.069	-0.4468
1180.000000	98.133	-0.6419
1206.000000	98.343	-1.4087
1220.000000	98.455	-1.8881
1241.000000	98.608	-2.6746
1250.000000	98.665	-2.9972
1265.000000	98.750	-3.4817
1280.000000	98.825	-3.9322
1315.000000	98.980	-5.0663
1320.000000	99.001	-5.2404
1340.000000	99.085	-5.9697
1360.000000	99.166	-6.7567
1380.000000	99.245	-7.5442
1400.000000	99.321	-8.2461
1430.000000	99.417	-9.1533
1450.000000	99.476	-9.7621
1475.000000	99.550	-10.5392
1500.000000	99.621	-11.3198
1525.000000	99.691	-12.0511
1550.000000	99.751	-12.6913
1575.000000	99.802	-13.2492
1600.000000	99.855	-13.7750
1625.000000	99.914	-14.3292
1650.000000	99.979	-14.9204
1675.000000	100.046	-15.5222
1700.000000	100.111	-16.0643
1725.000000	100.174	-16.5159
1750.000000	100.235	-16.9384
1775.000000	100.303	-17.3946
1800.000000	100.382	-17.8958
1825.000000	100.468	-18.4257
1850.000000	100.556	-18.9496
1875.000000	100.644	-19.4455
1900.000000	100.724	-19.9241
1925.000000	100.797	-20.3911
1950.000000	100.870	-20.8473
1975.000000	100.947	-21.3135
2000.000000	101.034	-21.8129
2030.000000	101.153	-22.4681
2060.000000	101.282	-23.1580
2090.000000	101.418	-23.8404
2120.000000	101.555	-24.5041
2140.000000	101.646	-24.9498
2180.000000	101.828	-25.8824
2200.000000	101.920	-26.3936
2240.000000	102.113	-27.5363
2270.000000	102.259	-28.4436
2300.000000	102.405	-29.3609
2330.000000	102.548	-30.2896
2360.000000	102.686	-31.2278
2400.000000	102.866	-32.5319
2430.000000	103.007	-33.5920
2470.000000	103.206	-35.1332
2500.000000	103.361	-36.3905
2540.000000	103.571	-38.1699
2580.000000	103.766	-39.9953
2620.000000	103.942	-41.8524
2650.000000	104.067	-43.2910
2690.000000	104.228	-45.3023
2720.000000	104.348	-46.8978
2760.000000	104.503	-49.1346
2800.000000	104.641	-51.4358
2850.000000	104.777	-54.3625
2900.000000	104.870	-57.3512
2950.000000	104.928	-60.3838
3000.000000	104.975	-63.4519
3040.000000	105.008	-65.9329
3070.000000	105.027	-67.8026
3110.000000	105.040	-70.2627
3150.000000	105.032	-72.6502
3200.000000	104.985	-75.5270
3250.000000	104.908	-78.3086
3300.000000	104.813	-81.0189
3350.000000	104.709	-83.6412
3400.000000	104.605	-86.1338
3450.000000	104.492	-88.4902
3500.000000	104.365	-90.7229
3550.000000	104.229	-92.8427
3600.000000	104.087	-94.8907
3650.000000	103.949	-96.8937
3700.000000	103.822	-98.8351
3750.000000	103.708	-100.7219
3820.000000	103.550	-103.2888
3870.000000	103.431	-105.0333
3950.000000	103.225	-107.6666
4000.000000	103.099	-109.2375
4060.000000	102.958	-111.0665
4120.000000	102.825	-112.8726
4180.000000	102.695	-114.6503
4250.000000	102.542	-116.6885
4310.000000	102.410	-118.4205
4370.000000	102.274	-120.1139
4440.000000	102.111	-122.0214
4500.000000	101.971	-123.6357
4550.000000	101.857	-124.9940
4620.000000	101.702	-126.9136
4680.000000	101.572	-128.5374
4750.000000	101.412	-130.3350
4820.000000	101.230	-131.9919
4870.000000	101.092	-133.1057
4940.000000	100.897	-134.5734
5000.000000	100.735	-135.7148
5080.000000	100.531	-137.0322
5150.000000	100.369	-138.0178
5220.000000	100.229	-138.8897
5300.000000	100.098	-139.7601
5380.000000	100.001	-140.5211
5450.000000	99.953	-141.1843
5520.000000	99.959	-141.9182
5600.000000	100.051	-143.0032
5700.000000	100.278	-145.2186
5800.000000	100.544	-148.9408
5900.000000	100.687	-154.4093
6000.000000	100.536	-161.1469
6080.000000	100.148	-166.6215
6150.000000	99.628	-170.8550
6220.000000	98.987	-174.2231
6300.000000	98.166	-176.8508
6400.000000	97.100	-178.3531
6500.000000	96.085	-178.1163
6600.000000	95.176	-176.4703
6700.000000	94.411	-173.8840
6800.000000	93.829	-170.8905
6900.000000	93.427	-167.8047
7000.000000	93.169	-164.8010
7100.000000	93.009	-161.9487
7200.000000	92.910	-159.2333
7300.000000	92.859	-156.6713
7400.000000	92.845	-154.3044
7500.000000	92.866	-152.0778
7620.000000	92.946	-149.5247
7750.000000	93.102	-146.8694
7880.000000	93.324	-144.2783
8000.000000	93.594	-141.9160
8120.000000	93.936	-139.5944
8250.000000	94.410	-137.2438
8380.000000	95.017	-135.1788
8500.000000	95.702	-133.6136
8620.000000	96.515	-132.5034
8750.000000	97.541	-131.9874
8850.000000	98.430	-132.2072
9000.000000	99.926	-133.9023
9120.000000	101.248	-136.8824
9250.000000	102.736	-142.3660
9380.000000	104.134	-150.8361
9500.000000	105.158	-161.4880
9620.000000	105.758	-174.1942
9750.000000	105.843	171.5031
9880.000000	105.414	158.7418
10000.000000	104.732	149.3710
10150.000000	103.756	140.8323
10300.000000	102.860	134.8322
10440.000000	102.184	130.5372
10600.000000	101.611	126.2689
10750.000000	101.224	122.3310
10900.000000	100.914	118.1752
11060.000000	100.602	113.4081
11200.000000	100.311	109.0389
11380.000000	99.898	103.4196
11500.000000	99.600	99.7662
11720.000000	99.023	93.2211
11800.000000	98.805	90.8345
12060.000000	98.012	82.7303
12200.000000	97.480	78.2267
12410.000000	96.503	71.9647
12500.000000	96.025	69.6490
12650.000000	95.174	66.4667
12800.000000	94.295	64.2811
13150.000000	92.385	63.0394
13200.000000	92.149	63.2130
13400.000000	91.325	64.4323
13600.000000	90.683	66.0590
13800.000000	90.209	67.7473
14000.000000	89.891	69.4031
14300.000000	89.679	71.6726
14500.000000	89.727	72.9492
14750.000000	90.024	73.9552
15000.000000	90.562	73.5975
15250.000000	91.276	71.2422
15500.000000	92.062	66.4476
15750.000000	92.760	59.0674
16000.000000	93.195	49.6980
16250.000000	93.268	39.6199
16500.000000	93.008	30.2864
16750.000000	92.544	22.6301
17000.000000	92.055	16.8287
17250.000000	91.727	12.5616
17500.000000	91.713	8.9637
17750.000000	92.016	4.3832
18000.000000	92.378	-2.2572
18250.000000	92.611	-9.8867
18500.000000	92.877	-17.3619
18750.000000	93.344	-25.9603
19000.000000	93.819	-37.4099
19250.000000	94.037	-51.1597
19500.000000	93.980	-65.6981
19750.000000	93.778	-80.6061
20000.000000	93.507	-96.6472
