* Measurement data measured by REW V5.20.5
* Source: C:\Users\Recode\Documents\iem data\calc\z1r\ssr\bazul L.txt
* Format: Comma/Tab/Space delimited data
* Dated: Sep 14, 2023 1:16:54 AM
* REW Settings:
*  C-weighting compensation: Off
*  Target level: 75.0 dB
* Note: ; Measurement imported from C:\Users\Recode\Documents\iem data\calc\z1r\ssr\bazul L.txt Format: Comma/Tab/Space delimited data 480 values loaded, 20 Hz to 19,753 Hz log spaced 
* Measurement: bazul L
* Smoothing: 1/24 octave
* Frequency Step: 1/48 octave
* Start Frequency: 20.000 Hz
*
* Freq(Hz)	SPL(dB)	Phase(degrees)
20.000000	96.774	-155.8577
20.299999	96.787	-156.1229
20.600000	96.803	-156.4577
20.900000	96.818	-156.7725
21.200001	96.832	-157.0559
21.400000	96.842	-157.2272
21.799999	96.863	-157.5326
22.000000	96.876	-157.6698
22.400000	96.906	-157.9219
22.700001	96.933	-158.1017
23.000000	96.963	-158.2836
23.299999	96.998	-158.4767
23.600000	97.035	-158.6896
24.000000	97.086	-159.0137
24.299999	97.125	-159.2908
24.700001	97.174	-159.7043
25.000000	97.206	-160.0414
25.400000	97.243	-160.5138
25.799999	97.271	-160.9946
26.200001	97.291	-161.4663
26.500000	97.302	-161.8060
26.900000	97.311	-162.2341
27.200001	97.316	-162.5355
27.600000	97.320	-162.9118
28.000000	97.322	-163.2615
28.500000	97.324	-163.6648
29.000000	97.324	-164.0323
29.500000	97.323	-164.3628
30.000000	97.324	-164.6570
30.400000	97.326	-164.8685
30.700001	97.329	-165.0159
31.100000	97.335	-165.2026
31.500000	97.345	-165.3852
32.000000	97.361	-165.6210
32.500000	97.381	-165.8797
33.000000	97.402	-166.1725
33.500000	97.419	-166.5015
34.000000	97.431	-166.8565
34.500000	97.434	-167.2159
35.000000	97.428	-167.5505
35.500000	97.414	-167.8311
36.000000	97.397	-168.0374
36.500000	97.382	-168.1643
37.000000	97.374	-168.2246
37.500000	97.376	-168.2459
38.200001	97.397	-168.2727
38.700001	97.422	-168.3298
39.500000	97.469	-168.5196
40.000000	97.498	-168.6961
40.599998	97.528	-168.9511
41.200001	97.551	-169.2289
41.799999	97.569	-169.5111
42.500000	97.582	-169.8297
43.099998	97.588	-170.0851
43.700001	97.591	-170.3168
44.400002	97.591	-170.5482
45.000000	97.590	-170.7073
45.500000	97.590	-170.8120
46.200001	97.595	-170.9294
46.799999	97.606	-171.0251
47.500000	97.622	-171.1620
48.200001	97.640	-171.3438
48.700001	97.650	-171.4977
49.400002	97.658	-171.7247
50.000000	97.660	-171.9065
50.799999	97.660	-172.1116
51.500000	97.662	-172.2667
52.200001	97.668	-172.4261
53.000000	97.676	-172.6375
53.799999	97.680	-172.8737
54.500000	97.679	-173.0783
55.200001	97.678	-173.2701
56.000000	97.678	-173.4878
57.000000	97.679	-173.7930
58.000000	97.671	-174.1270
59.000000	97.652	-174.4172
60.000000	97.630	-174.6094
60.799999	97.619	-174.7082
61.500000	97.615	-174.7847
62.200001	97.615	-174.8689
63.000000	97.616	-174.9712
64.000000	97.618	-175.0789
65.000000	97.626	-175.1530
66.000000	97.643	-175.2281
67.000000	97.668	-175.3438
68.000000	97.695	-175.5108
69.000000	97.720	-175.7264
70.000000	97.740	-175.9835
71.000000	97.752	-176.2583
72.000000	97.757	-176.5201
73.000000	97.758	-176.7548
74.000000	97.756	-176.9648
75.000000	97.754	-177.1536
76.199997	97.751	-177.3551
77.500000	97.750	-177.5491
78.800003	97.750	-177.7201
80.000000	97.756	-177.8629
81.199997	97.767	-178.0155
82.500000	97.782	-178.2168
83.800003	97.795	-178.4408
85.000000	97.807	-178.6355
86.199997	97.826	-178.8271
87.500000	97.853	-179.1096
88.500000	97.868	-179.4331
90.000000	97.852	-179.9992
91.199997	97.802	179.7045
92.500000	97.745	179.6680
93.800003	97.712	179.7927
95.000000	97.705	179.8798
96.199997	97.702	179.8853
97.500000	97.696	179.8429
98.800003	97.687	179.8066
100.000000	97.683	179.7834
101.500000	97.687	179.7190
103.000000	97.693	179.5808
104.400002	97.693	179.4120
106.000000	97.687	179.2296
107.500000	97.682	179.0894
109.000000	97.680	178.9565
110.599998	97.678	178.7936
112.000000	97.675	178.6420
113.800003	97.666	178.4712
115.000000	97.662	178.3729
117.199997	97.658	178.1747
118.000000	97.657	178.0870
120.599998	97.645	177.7713
122.000000	97.637	177.6057
124.099998	97.626	177.3532
125.000000	97.620	177.2352
126.500000	97.608	177.0351
128.000000	97.592	176.8676
131.500000	97.556	176.6705
132.000000	97.553	176.6545
134.000000	97.548	176.5916
136.000000	97.548	176.4892
138.000000	97.540	176.3517
140.000000	97.525	176.2528
143.000000	97.509	176.1968
145.000000	97.505	176.1291
147.500000	97.496	175.9969
150.000000	97.482	175.8366
152.500000	97.463	175.6545
155.000000	97.437	175.4737
157.500000	97.408	175.3475
160.000000	97.385	175.2880
162.500000	97.375	175.2392
165.000000	97.372	175.1361
167.500000	97.363	174.9786
170.000000	97.345	174.8267
172.500000	97.324	174.7066
175.000000	97.305	174.5988
177.500000	97.288	174.4936
180.000000	97.273	174.3716
182.500000	97.251	174.2270
185.000000	97.222	174.1284
187.500000	97.193	174.0768
190.000000	97.163	174.0266
192.500000	97.130	174.0324
195.000000	97.109	174.0952
197.500000	97.102	174.1104
200.000000	97.098	174.0358
203.000000	97.092	173.8540
206.000000	97.076	173.5479
209.000000	97.034	173.2479
212.000000	96.981	173.1746
214.000000	96.959	173.2275
218.000000	96.940	173.3403
220.000000	96.931	173.3535
224.000000	96.893	173.3100
227.000000	96.844	173.3024
230.000000	96.791	173.3691
233.000000	96.746	173.4791
236.000000	96.711	173.5949
240.000000	96.675	173.7158
243.000000	96.648	173.7546
247.000000	96.603	173.7982
250.000000	96.568	173.9268
254.000000	96.547	174.2394
258.000000	96.566	174.5739
262.000000	96.613	174.8970
265.000000	96.659	175.0858
269.000000	96.712	175.1639
272.000000	96.729	175.1121
276.000000	96.732	174.9949
280.000000	96.738	174.8768
285.000000	96.761	174.6475
290.000000	96.766	174.2481
295.000000	96.730	173.8609
300.000000	96.673	173.6026
304.000000	96.621	173.5169
307.000000	96.585	173.5217
311.000000	96.548	173.5831
315.000000	96.523	173.6536
320.000000	96.499	173.6800
325.000000	96.472	173.6382
330.000000	96.439	173.5805
335.000000	96.400	173.5463
340.000000	96.355	173.5490
345.000000	96.307	173.5905
350.000000	96.265	173.6765
355.000000	96.236	173.7732
360.000000	96.212	173.8524
365.000000	96.187	173.9292
370.000000	96.160	174.0109
375.000000	96.132	174.1072
382.000000	96.092	174.2740
387.000000	96.063	174.4012
395.000000	96.017	174.6055
400.000000	95.989	174.7422
406.000000	95.957	174.9142
412.000000	95.927	175.0873
418.000000	95.896	175.2656
425.000000	95.859	175.5007
431.000000	95.828	175.7173
437.000000	95.799	175.9316
444.000000	95.766	176.1831
450.000000	95.740	176.4044
455.000000	95.717	176.5951
462.000000	95.686	176.8738
468.000000	95.661	177.1190
475.000000	95.630	177.4068
482.000000	95.600	177.6971
487.000000	95.580	177.9116
494.000000	95.553	178.2302
500.000000	95.532	178.5200
508.000000	95.507	178.9225
515.000000	95.490	179.2834
522.000000	95.477	179.6520
530.000000	95.463	-179.9199
538.000000	95.453	-179.5013
545.000000	95.445	-179.1580
552.000000	95.437	-178.8387
560.000000	95.428	-178.4822
570.000000	95.414	-178.0032
580.000000	95.399	-177.4852
590.000000	95.383	-176.9032
600.000000	95.375	-176.2348
608.000000	95.381	-175.6647
615.000000	95.400	-175.1875
622.000000	95.429	-174.7728
630.000000	95.466	-174.4030
640.000000	95.507	-174.0725
650.000000	95.536	-173.8127
660.000000	95.551	-173.5600
670.000000	95.554	-173.2745
680.000000	95.548	-172.9319
690.000000	95.540	-172.5298
700.000000	95.535	-172.0853
710.000000	95.534	-171.6126
720.000000	95.536	-171.1176
730.000000	95.543	-170.6140
740.000000	95.554	-170.1060
750.000000	95.567	-169.5835
762.000000	95.585	-168.9354
775.000000	95.608	-168.2218
788.000000	95.636	-167.4968
800.000000	95.665	-166.8181
812.000000	95.700	-166.1384
825.000000	95.745	-165.4062
838.000000	95.795	-164.6791
850.000000	95.847	-164.0069
862.000000	95.906	-163.3428
875.000000	95.976	-162.6387
885.000000	96.032	-162.1042
900.000000	96.121	-161.3045
912.000000	96.195	-160.6728
925.000000	96.279	-160.0091
938.000000	96.369	-159.3736
950.000000	96.456	-158.8120
962.000000	96.548	-158.2753
975.000000	96.650	-157.7274
988.000000	96.757	-157.2147
1000.000000	96.859	-156.7747
1015.000000	96.988	-156.2686
1030.000000	97.119	-155.8016
1044.000000	97.244	-155.4072
1060.000000	97.386	-155.0151
1075.000000	97.518	-154.6972
1090.000000	97.647	-154.4224
1106.000000	97.784	-154.1782
1120.000000	97.903	-154.0027
1138.000000	98.055	-153.8218
1150.000000	98.154	-153.7287
1172.000000	98.331	-153.6102
1180.000000	98.393	-153.5803
1206.000000	98.587	-153.5182
1220.000000	98.685	-153.5039
1241.000000	98.827	-153.4993
1250.000000	98.885	-153.5039
1265.000000	98.980	-153.5232
1280.000000	99.074	-153.5548
1315.000000	99.283	-153.6429
1320.000000	99.312	-153.6560
1340.000000	99.423	-153.7079
1360.000000	99.529	-153.7566
1380.000000	99.632	-153.8060
1400.000000	99.733	-153.8571
1430.000000	99.879	-153.9307
1450.000000	99.975	-153.9744
1475.000000	100.096	-154.0298
1500.000000	100.214	-154.0891
1525.000000	100.329	-154.1426
1550.000000	100.442	-154.1914
1575.000000	100.555	-154.2457
1600.000000	100.668	-154.3056
1625.000000	100.780	-154.3691
1650.000000	100.891	-154.4408
1675.000000	101.001	-154.5237
1700.000000	101.111	-154.6206
1725.000000	101.222	-154.7348
1750.000000	101.333	-154.8630
1775.000000	101.444	-155.0042
1800.000000	101.553	-155.1629
1825.000000	101.660	-155.3401
1850.000000	101.764	-155.5331
1875.000000	101.865	-155.7459
1900.000000	101.965	-155.9833
1925.000000	102.064	-156.2439
1950.000000	102.162	-156.5261
1975.000000	102.258	-156.8266
2000.000000	102.352	-157.1414
2030.000000	102.461	-157.5437
2060.000000	102.565	-157.9779
2090.000000	102.664	-158.4352
2120.000000	102.757	-158.9100
2140.000000	102.816	-159.2386
2180.000000	102.926	-159.9237
2200.000000	102.977	-160.2759
2240.000000	103.069	-160.9967
2270.000000	103.131	-161.5497
2300.000000	103.186	-162.1117
2330.000000	103.234	-162.6801
2360.000000	103.276	-163.2509
2400.000000	103.321	-164.0064
2430.000000	103.344	-164.5666
2470.000000	103.364	-165.2982
2500.000000	103.371	-165.8292
2540.000000	103.372	-166.5121
2580.000000	103.363	-167.1587
2620.000000	103.345	-167.7576
2650.000000	103.326	-168.1721
2690.000000	103.294	-168.6716
2720.000000	103.268	-169.0002
2760.000000	103.230	-169.3828
2800.000000	103.192	-169.7221
2850.000000	103.141	-170.1038
2900.000000	103.087	-170.4426
2950.000000	103.027	-170.7376
3000.000000	102.965	-170.9741
3040.000000	102.915	-171.1171
3070.000000	102.877	-171.1982
3110.000000	102.827	-171.2713
3150.000000	102.776	-171.3039
3200.000000	102.711	-171.2915
3250.000000	102.647	-171.2205
3300.000000	102.584	-171.0933
3350.000000	102.525	-170.9206
3400.000000	102.469	-170.7050
3450.000000	102.415	-170.4478
3500.000000	102.367	-170.1561
3550.000000	102.323	-169.8352
3600.000000	102.284	-169.4861
3650.000000	102.250	-169.1109
3700.000000	102.220	-168.7139
3750.000000	102.198	-168.3027
3820.000000	102.177	-167.7099
3870.000000	102.168	-167.2730
3950.000000	102.166	-166.5572
4000.000000	102.173	-166.1072
4060.000000	102.192	-165.5785
4120.000000	102.222	-165.0718
4180.000000	102.261	-164.5930
4250.000000	102.319	-164.0865
4310.000000	102.380	-163.7174
4370.000000	102.452	-163.4302
4440.000000	102.544	-163.2215
4500.000000	102.628	-163.1670
4550.000000	102.700	-163.2253
4620.000000	102.796	-163.4768
4680.000000	102.867	-163.8502
4750.000000	102.928	-164.4470
4820.000000	102.959	-165.1719
4870.000000	102.958	-165.7373
4940.000000	102.926	-166.5422
5000.000000	102.871	-167.1988
5080.000000	102.762	-167.9704
5150.000000	102.640	-168.5104
5220.000000	102.499	-168.9007
5300.000000	102.319	-169.1466
5380.000000	102.127	-169.1579
5450.000000	101.951	-168.9603
5520.000000	101.773	-168.5668
5600.000000	101.576	-167.8873
5700.000000	101.347	-166.7198
5800.000000	101.149	-165.2260
5900.000000	100.991	-163.4423
6000.000000	100.882	-161.4292
6080.000000	100.835	-159.7003
6150.000000	100.829	-158.1352
6220.000000	100.857	-156.5567
6300.000000	100.933	-154.7887
6400.000000	101.098	-152.7250
6500.000000	101.337	-150.9610
6600.000000	101.639	-149.6759
6700.000000	101.981	-149.0673
6800.000000	102.327	-149.3120
6900.000000	102.627	-150.5138
7000.000000	102.821	-152.6264
7100.000000	102.849	-155.3749
7200.000000	102.670	-158.2542
7300.000000	102.277	-160.6111
7400.000000	101.699	-161.7827
7500.000000	101.010	-161.2699
7620.000000	100.206	-158.3046
7750.000000	99.610	-152.9843
7880.000000	99.463	-147.2408
8000.000000	99.643	-143.2588
8120.000000	99.891	-141.3444
8250.000000	99.996	-141.1708
8380.000000	99.822	-141.7126
8500.000000	99.432	-141.7863
8620.000000	98.900	-140.9257
8750.000000	98.251	-138.9451
8850.000000	97.731	-136.8146
9000.000000	96.926	-132.7506
9120.000000	96.272	-128.7417
9250.000000	95.575	-123.6548
9380.000000	94.913	-117.9022
9500.000000	94.344	-112.1047
9620.000000	93.822	-105.9275
9750.000000	93.311	-98.8848
9880.000000	92.857	-91.5461
10000.000000	92.483	-84.5587
10150.000000	92.075	-75.5908
10300.000000	91.735	-66.4102
10440.000000	91.477	-57.6930
10600.000000	91.249	-47.6095
10750.000000	91.097	-38.0513
10900.000000	91.013	-28.3553
11060.000000	91.023	-17.9002
11200.000000	91.134	-8.8717
11380.000000	91.392	2.2751
11500.000000	91.620	9.3734
11720.000000	92.138	21.6729
11800.000000	92.359	25.8710
12060.000000	93.165	38.3543
12200.000000	93.631	44.1661
12410.000000	94.316	51.4542
12500.000000	94.580	54.0454
12650.000000	94.951	57.6864
12800.000000	95.196	60.6765
13150.000000	95.283	66.8507
13200.000000	95.246	67.8159
13400.000000	94.977	72.2910
13600.000000	94.598	77.9418
13800.000000	94.201	84.8392
14000.000000	93.869	92.8689
14300.000000	93.629	106.3191
14500.000000	93.726	115.6755
14750.000000	94.211	126.9231
15000.000000	95.049	136.1140
15250.000000	96.030	141.2863
15500.000000	96.775	141.2993
15750.000000	96.843	136.8739
16000.000000	95.906	131.6142
16250.000000	93.934	130.9271
16500.000000	91.229	138.2494
16750.000000	88.246	154.2510
17000.000000	85.734	177.7283
17250.000000	84.815	-157.5187
17500.000000	85.077	-140.0766
17750.000000	84.981	-129.1909
18000.000000	84.210	-117.9384
18250.000000	83.213	-103.4933
18500.000000	82.393	-86.9418
18750.000000	81.916	-69.8547
19000.000000	81.793	-53.1825
19250.000000	81.969	-37.6903
19500.000000	82.333	-24.5905
19750.000000	82.640	-16.7148
