* Measurement data measured by REW V5.20.9
* Source: Input device not selected, no input selected, R, volume: no control
* Format: 512k Log Swept Sine, 1 sweep at -12.0 dBFS with no timing reference
* Dated: Jul 5, 2023 7:34:20 PM
* REW Settings:
*  C-weighting compensation: Off
*  Target level: 75.0 dB
* Note: ; 
* Measurement: diva R
* Smoothing: 1/24 octave
* Frequency Step: 1/48 octave
* Start Frequency: 20.000 Hz
*
* Freq(Hz)	SPL(dB)	Phase(degrees)
20.000000	102.408	-170.4071
20.299999	102.320	-171.2527
20.600000	102.231	-171.2374
20.900000	102.244	-170.5358
21.200001	102.424	-169.8634
21.400000	102.597	-169.8891
21.799999	102.932	-171.2754
22.000000	103.024	-172.4935
22.400000	102.971	-175.0213
22.700001	102.764	-175.9742
23.000000	102.546	-175.5264
23.299999	102.491	-174.1532
23.600000	102.656	-172.8714
24.000000	103.102	-172.9647
24.299999	103.387	-174.9707
24.700001	103.453	-179.4504
25.000000	103.200	177.2411
25.400000	102.531	174.9272
25.799999	101.815	176.1539
26.200001	101.534	179.5817
26.500000	101.706	-178.2861
26.900000	102.204	-177.8518
27.200001	102.532	-179.4835
27.600000	102.718	176.8482
28.000000	102.608	173.3290
28.500000	102.259	171.0981
29.000000	102.065	171.2606
29.500000	102.237	171.7714
30.000000	102.564	170.4974
30.400000	102.677	168.1721
30.700001	102.598	166.3353
31.100000	102.300	164.9756
31.500000	101.941	165.4894
32.000000	101.735	167.6807
32.500000	101.797	168.7591
33.000000	101.677	168.1132
33.500000	101.212	168.7852
34.000000	100.950	172.4018
34.500000	101.413	174.8015
35.000000	102.054	171.1984
35.500000	102.086	162.6718
36.000000	101.414	154.9209
36.500000	100.727	150.5551
37.000000	100.922	144.5374
37.500000	101.594	129.3160
38.200001	101.562	86.2269
38.700001	100.482	38.8578
39.500000	99.016	-59.2156
40.000000	99.642	-117.9320
40.599998	100.447	-168.7296
41.200001	100.287	165.6084
41.799999	100.118	159.0567
42.500000	101.059	158.2750
43.099998	101.688	154.1966
43.700001	101.642	151.6433
44.400002	101.730	154.3259
45.000000	102.403	155.8463
45.500000	102.839	153.7079
46.200001	102.778	148.8825
46.799999	102.295	146.7130
47.500000	101.709	146.4699
48.200001	101.239	147.4600
48.700001	101.048	148.8740
49.400002	101.164	150.5328
50.000000	101.448	149.8756
50.799999	101.583	146.7987
51.500000	101.462	144.8068
52.200001	101.351	143.9056
53.000000	101.227	143.3744
53.799999	101.086	144.0810
54.500000	101.132	145.2773
55.200001	101.282	145.4561
56.000000	101.334	144.4935
57.000000	101.271	143.0924
58.000000	101.148	140.8112
59.000000	100.825	139.2202
60.000000	100.748	139.9554
60.799999	101.060	140.1146
61.500000	101.359	138.9504
62.200001	101.505	137.6357
63.000000	101.646	137.5075
64.000000	102.105	137.3011
65.000000	102.282	133.9934
66.000000	101.786	132.0479
67.000000	101.277	133.3268
68.000000	101.042	134.2338
69.000000	100.866	134.0833
70.000000	100.734	133.2139
71.000000	100.647	131.9571
72.000000	100.642	130.4486
73.000000	100.621	128.5777
74.000000	100.479	127.3226
75.000000	100.324	127.4050
76.199997	100.276	128.2175
77.500000	100.315	128.3971
78.800003	100.310	127.5421
80.000000	100.228	126.3832
81.199997	100.152	125.5098
82.500000	100.161	124.6500
83.800003	100.206	123.5716
85.000000	100.200	122.4742
86.199997	100.130	121.7231
87.500000	100.068	121.2325
88.500000	100.035	120.7388
90.000000	99.964	119.8260
91.199997	99.908	119.2172
92.500000	99.884	118.5420
93.800003	99.860	117.7516
95.000000	99.823	117.1317
96.199997	99.783	116.6711
97.500000	99.734	116.3564
98.800003	99.714	116.2101
100.000000	99.730	115.6967
101.500000	99.686	114.3998
103.000000	99.571	113.0991
104.400002	99.474	112.2642
106.000000	99.453	111.6200
107.500000	99.476	111.0419
109.000000	99.474	110.4277
110.599998	99.418	109.7501
112.000000	99.352	109.0419
113.800003	99.266	107.8214
115.000000	99.210	107.0651
117.199997	99.163	106.1866
118.000000	99.158	105.9814
120.599998	99.131	105.3018
122.000000	99.096	104.6910
124.099998	99.029	103.7789
125.000000	99.039	103.4180
126.500000	99.082	102.5298
128.000000	99.087	101.5348
131.500000	98.989	100.2355
132.000000	98.978	100.0989
134.000000	98.928	99.4205
136.000000	98.839	98.7118
138.000000	98.754	98.1931
140.000000	98.728	97.3824
143.000000	98.698	95.5078
145.000000	98.676	94.4931
147.500000	98.602	93.8727
150.000000	98.564	94.0679
152.500000	98.732	93.3452
155.000000	98.775	90.0316
157.500000	98.369	88.1555
160.000000	98.036	90.2762
162.500000	98.233	92.6230
165.000000	98.641	91.9976
167.500000	98.849	89.0252
170.000000	98.732	85.3193
172.500000	98.343	82.6044
175.000000	97.903	81.6985
177.500000	97.667	82.5998
180.000000	97.673	83.8816
182.500000	97.864	84.8773
185.000000	98.046	84.5902
187.500000	98.132	83.4022
190.000000	98.117	81.7331
192.500000	98.071	80.4741
195.000000	98.001	79.4546
197.500000	97.919	78.6133
200.000000	97.906	77.9537
203.000000	97.899	77.5476
206.000000	97.802	77.0150
209.000000	97.701	75.7966
212.000000	97.694	74.9309
214.000000	97.695	74.7355
218.000000	97.690	74.1570
220.000000	97.716	73.5437
224.000000	97.705	72.3912
227.000000	97.621	71.6534
230.000000	97.552	70.9956
233.000000	97.510	70.5225
236.000000	97.476	69.9808
240.000000	97.441	69.1298
243.000000	97.417	68.5657
247.000000	97.407	67.6872
250.000000	97.416	66.9885
254.000000	97.429	66.0916
258.000000	97.416	65.2084
262.000000	97.395	64.3196
265.000000	97.381	63.6719
269.000000	97.344	63.0386
272.000000	97.302	62.6295
276.000000	97.249	61.9865
280.000000	97.227	61.2805
285.000000	97.233	60.4068
290.000000	97.245	59.7097
295.000000	97.251	58.9031
300.000000	97.230	57.9418
304.000000	97.198	57.2469
307.000000	97.170	56.7820
311.000000	97.122	56.1566
315.000000	97.071	55.5188
320.000000	97.018	54.7024
325.000000	97.005	53.9449
330.000000	97.043	53.4026
335.000000	97.077	53.0507
340.000000	97.040	52.4899
345.000000	96.970	51.5278
350.000000	96.965	50.8962
355.000000	96.902	50.4056
360.000000	96.846	49.7214
365.000000	96.870	49.1961
370.000000	96.924	48.5986
375.000000	96.899	47.7496
382.000000	96.853	47.5035
387.000000	96.889	47.2447
395.000000	96.849	46.1959
400.000000	96.803	45.6161
406.000000	96.768	44.8954
412.000000	96.745	44.3046
418.000000	96.730	43.8016
425.000000	96.708	43.3134
431.000000	96.698	43.0110
437.000000	96.700	42.5990
444.000000	96.675	42.0291
450.000000	96.663	41.6528
455.000000	96.665	41.2260
462.000000	96.651	40.4908
468.000000	96.642	39.9532
475.000000	96.635	39.4067
482.000000	96.614	38.9281
487.000000	96.596	38.6829
494.000000	96.587	38.5369
500.000000	96.602	38.4446
508.000000	96.610	38.1698
515.000000	96.612	37.8112
522.000000	96.627	37.2926
530.000000	96.628	36.6165
538.000000	96.617	36.0013
545.000000	96.618	35.4934
552.000000	96.624	35.0488
560.000000	96.628	34.6970
570.000000	96.634	34.3308
580.000000	96.643	33.9470
590.000000	96.643	33.6538
600.000000	96.642	33.3657
608.000000	96.647	33.0458
615.000000	96.655	32.7136
622.000000	96.664	32.3739
630.000000	96.673	32.0309
640.000000	96.678	31.6784
650.000000	96.682	31.3970
660.000000	96.690	31.2072
670.000000	96.710	31.0831
680.000000	96.734	30.8834
690.000000	96.756	30.6169
700.000000	96.783	30.3223
710.000000	96.826	29.9866
720.000000	96.869	29.6568
730.000000	96.904	29.4122
740.000000	96.928	29.2577
750.000000	96.945	29.1809
762.000000	96.961	29.1708
775.000000	96.989	29.2131
788.000000	97.026	29.2053
800.000000	97.066	29.0712
812.000000	97.116	28.8422
825.000000	97.183	28.5883
838.000000	97.256	28.4129
850.000000	97.318	28.3389
862.000000	97.371	28.3555
875.000000	97.422	28.4487
885.000000	97.464	28.5360
900.000000	97.540	28.6153
912.000000	97.615	28.5990
925.000000	97.712	28.4989
938.000000	97.822	28.2927
950.000000	97.926	28.0462
962.000000	98.032	27.8120
975.000000	98.144	27.6193
988.000000	98.251	27.5173
1000.000000	98.349	27.4679
1015.000000	98.474	27.3792
1030.000000	98.612	27.1905
1044.000000	98.758	26.8470
1060.000000	98.940	26.2394
1075.000000	99.116	25.5275
1090.000000	99.285	24.8083
1106.000000	99.450	24.1165
1120.000000	99.579	23.5822
1138.000000	99.729	22.9491
1150.000000	99.821	22.4843
1172.000000	99.992	21.4274
1180.000000	100.058	20.9818
1206.000000	100.290	19.3958
1220.000000	100.420	18.5023
1241.000000	100.600	17.1859
1250.000000	100.670	16.6350
1265.000000	100.777	15.7324
1280.000000	100.872	14.8554
1315.000000	101.063	12.8566
1320.000000	101.088	12.5612
1340.000000	101.186	11.3359
1360.000000	101.283	10.0696
1380.000000	101.379	8.8168
1400.000000	101.470	7.6035
1430.000000	101.598	5.8095
1450.000000	101.670	4.6167
1475.000000	101.746	3.1401
1500.000000	101.814	1.7465
1525.000000	101.880	0.4575
1550.000000	101.945	-0.8083
1575.000000	102.012	-2.1272
1600.000000	102.081	-3.4879
1625.000000	102.147	-4.8322
1650.000000	102.204	-6.1021
1675.000000	102.247	-7.2854
1700.000000	102.280	-8.4190
1725.000000	102.307	-9.5511
1750.000000	102.339	-10.6802
1775.000000	102.382	-11.7767
1800.000000	102.437	-12.8530
1825.000000	102.500	-13.9417
1850.000000	102.567	-15.0370
1875.000000	102.633	-16.1205
1900.000000	102.693	-17.1881
1925.000000	102.747	-18.2494
1950.000000	102.797	-19.3329
1975.000000	102.847	-20.4652
2000.000000	102.896	-21.6310
2030.000000	102.948	-23.0089
2060.000000	102.983	-24.2805
2090.000000	103.003	-25.4023
2120.000000	103.016	-26.4175
2140.000000	103.025	-27.0854
2180.000000	103.066	-28.4788
2200.000000	103.100	-29.2120
2240.000000	103.192	-30.7172
2270.000000	103.272	-31.8317
2300.000000	103.356	-32.9022
2330.000000	103.444	-33.9038
2360.000000	103.531	-34.8220
2400.000000	103.640	-35.9510
2430.000000	103.721	-36.7852
2470.000000	103.835	-37.9510
2500.000000	103.933	-38.9005
2540.000000	104.089	-40.2855
2580.000000	104.279	-41.8352
2620.000000	104.495	-43.5518
2650.000000	104.661	-44.9474
2690.000000	104.869	-46.9448
2720.000000	105.006	-48.5551
2760.000000	105.154	-50.8720
2800.000000	105.267	-53.3684
2850.000000	105.373	-56.6918
2900.000000	105.454	-60.1497
2950.000000	105.511	-63.5714
3000.000000	105.527	-66.7697
3040.000000	105.495	-69.0850
3070.000000	105.448	-70.6801
3110.000000	105.359	-72.6395
3150.000000	105.253	-74.4664
3200.000000	105.126	-76.6552
3250.000000	105.025	-78.8013
3300.000000	104.960	-80.9414
3350.000000	104.924	-83.0638
3400.000000	104.899	-85.1107
3450.000000	104.868	-86.9810
3500.000000	104.822	-88.6172
3550.000000	104.761	-90.0499
3600.000000	104.698	-91.3386
3650.000000	104.650	-92.5646
3700.000000	104.636	-93.8291
3750.000000	104.667	-95.1938
3820.000000	104.775	-97.2953
3870.000000	104.878	-98.9406
3950.000000	105.047	-101.8795
4000.000000	105.136	-103.9351
4060.000000	105.218	-106.6021
4120.000000	105.266	-109.4828
4180.000000	105.284	-112.5775
4250.000000	105.283	-116.4425
4310.000000	105.276	-119.9396
4370.000000	105.257	-123.5424
4440.000000	105.183	-127.7539
4500.000000	105.046	-131.2542
4550.000000	104.872	-134.0366
4620.000000	104.538	-137.6777
4680.000000	104.186	-140.5463
4750.000000	103.739	-143.6113
4820.000000	103.293	-146.3745
4870.000000	102.991	-148.1544
4940.000000	102.599	-150.3701
5000.000000	102.285	-151.9905
5080.000000	101.871	-153.7290
5150.000000	101.485	-154.8555
5220.000000	101.069	-155.6157
5300.000000	100.568	-156.0952
5380.000000	100.079	-156.2439
5450.000000	99.699	-156.1724
5520.000000	99.390	-155.9557
5600.000000	99.125	-155.5522
5700.000000	98.921	-154.8838
5800.000000	98.837	-154.5387
5900.000000	98.727	-155.0791
6000.000000	98.454	-155.9008
6080.000000	98.097	-156.0870
6150.000000	97.765	-155.3433
6220.000000	97.531	-154.0261
6300.000000	97.410	-152.4698
6400.000000	97.410	-150.8333
6500.000000	97.504	-149.5231
6600.000000	97.643	-148.4712
6700.000000	97.796	-147.6383
6800.000000	97.956	-147.0012
6900.000000	98.137	-146.5544
7000.000000	98.359	-146.3374
7100.000000	98.639	-146.4355
7200.000000	98.978	-146.9192
7300.000000	99.367	-147.8552
7400.000000	99.786	-149.2855
7500.000000	100.209	-151.2123
7620.000000	100.682	-154.1858
7750.000000	101.113	-158.1960
7880.000000	101.422	-163.0172
8000.000000	101.578	-168.1147
8120.000000	101.605	-173.6345
8250.000000	101.484	-179.6923
8380.000000	101.206	174.5859
8500.000000	100.821	169.9241
8620.000000	100.334	166.0190
8750.000000	99.727	162.7220
8850.000000	99.232	160.8342
9000.000000	98.490	158.9236
9120.000000	97.935	158.0552
9250.000000	97.406	157.6683
9380.000000	96.964	157.7596
9500.000000	96.631	158.1826
9620.000000	96.359	158.8611
9750.000000	96.122	159.8052
9880.000000	95.942	160.9092
10000.000000	95.835	162.0171
10150.000000	95.794	163.3950
10300.000000	95.856	164.5850
10440.000000	95.985	165.4319
10600.000000	96.190	166.1901
10750.000000	96.442	166.9027
10900.000000	96.784	167.6641
11060.000000	97.277	168.2902
11200.000000	97.813	168.4232
11380.000000	98.634	167.7703
11500.000000	99.256	166.6903
11720.000000	100.515	162.9561
11800.000000	100.992	160.9067
12060.000000	102.471	151.3079
12200.000000	103.134	144.3318
12410.000000	103.828	132.0371
12500.000000	104.004	126.3529
12650.000000	104.149	116.6698
12800.000000	104.135	106.8906
13150.000000	103.485	83.8618
13200.000000	103.313	80.6584
13400.000000	102.440	68.5413
13600.000000	101.326	57.9424
13800.000000	100.083	49.1873
14000.000000	98.815	41.9689
14300.000000	96.942	32.8167
14500.000000	95.695	27.4009
14750.000000	94.101	21.4457
15000.000000	92.441	16.8253
15250.000000	90.736	14.0620
15500.000000	89.042	13.5912
15750.000000	87.381	17.2563
16000.000000	86.611	26.6509
16250.000000	87.747	33.3428
16500.000000	90.006	30.3134
16750.000000	91.702	10.5142
17000.000000	91.174	-19.4796
17250.000000	88.441	-40.1891
17500.000000	84.766	-47.1533
17750.000000	81.482	-47.1000
18000.000000	79.154	-46.1848
18250.000000	77.465	-47.5005
18500.000000	75.847	-51.2273
18750.000000	73.960	-55.8096
19000.000000	71.706	-58.5031
19250.000000	69.337	-59.2754
19500.000000	67.067	-60.6866
19750.000000	64.693	-62.7161
20000.000000	61.986	-64.1344
