* Measurement data measured by REW V5.20.9
* Source: Microphone (USB Audio Device), MICROPHONE (Master Volume), R, volume: 0.250
* Format: 512k Log Swept Sine, 1 sweep at -12.0 dBFS with no timing reference
* Dated: Oct 30, 2022 11:10:13 AM
* REW Settings:
*  C-weighting compensation: Off
*  Target level: 75.0 dB
* Note: ; 
* Measurement: gaea L
* Smoothing: 1/12 octave
* Frequency Step: 1/48 octave
* Start Frequency: 20.000 Hz
*
* Freq(Hz)	SPL(dB)	Phase(degrees)
20.000000	119.145	-164.4906
20.299999	119.170	-165.2148
20.600000	119.190	-166.0132
20.900000	119.198	-166.8614
21.200001	119.192	-167.7046
21.400000	119.182	-168.2305
21.799999	119.158	-169.1698
22.000000	119.149	-169.5847
22.400000	119.149	-170.3530
22.700001	119.165	-170.9428
23.000000	119.191	-171.6012
23.299999	119.218	-172.3391
23.600000	119.239	-173.1321
24.000000	119.252	-174.2028
24.299999	119.252	-174.9543
24.700001	119.250	-175.8462
25.000000	119.253	-176.4459
25.400000	119.268	-177.2092
25.799999	119.291	-177.9983
26.200001	119.309	-178.8336
26.500000	119.315	-179.4670
26.900000	119.312	179.7252
27.200001	119.303	179.1706
27.600000	119.292	178.5009
28.000000	119.285	177.8740
28.500000	119.283	177.0747
29.000000	119.281	176.2073
29.500000	119.273	175.2805
30.000000	119.256	174.3310
30.400000	119.239	173.5727
30.700001	119.225	173.0086
31.100000	119.206	172.2646
31.500000	119.188	171.5311
32.000000	119.168	170.6295
32.500000	119.152	169.7461
33.000000	119.137	168.8848
33.500000	119.124	168.0521
34.000000	119.111	167.2534
34.500000	119.098	166.4917
35.000000	119.082	165.7697
35.500000	119.065	165.0871
36.000000	119.045	164.4368
36.500000	119.022	163.8117
37.000000	118.996	163.2156
37.500000	118.969	162.6575
38.200001	118.942	161.9053
38.700001	118.935	161.3139
39.500000	118.926	160.1438
40.000000	118.909	159.3073
40.599998	118.874	158.3025
41.200001	118.834	157.3644
41.799999	118.800	156.4821
42.500000	118.770	155.4761
43.099998	118.747	154.6227
43.700001	118.723	153.7952
44.400002	118.693	152.8981
45.000000	118.668	152.2129
45.500000	118.652	151.6927
46.200001	118.638	150.9832
46.799999	118.629	150.3373
47.500000	118.609	149.5408
48.200001	118.575	148.7633
48.700001	118.547	148.2418
49.400002	118.508	147.5367
50.000000	118.475	146.9209
50.799999	118.427	146.0665
51.500000	118.379	145.3049
52.200001	118.328	144.5522
53.000000	118.271	143.7135
53.799999	118.220	142.8707
54.500000	118.180	142.1033
55.200001	118.139	141.3241
56.000000	118.094	140.4554
57.000000	118.045	139.3930
58.000000	117.995	138.3556
59.000000	117.943	137.4091
60.000000	117.894	136.5383
60.799999	117.856	135.8647
61.500000	117.820	135.2935
62.200001	117.784	134.7350
63.000000	117.747	134.0820
64.000000	117.700	133.1831
65.000000	117.643	132.1960
66.000000	117.572	131.2174
67.000000	117.501	130.3062
68.000000	117.438	129.4332
69.000000	117.383	128.5628
70.000000	117.332	127.6870
71.000000	117.281	126.7948
72.000000	117.224	125.8753
73.000000	117.153	124.9731
74.000000	117.073	124.1682
75.000000	116.998	123.4728
76.199997	116.929	122.6716
77.500000	116.866	121.7458
78.800003	116.802	120.7852
80.000000	116.735	119.8894
81.199997	116.655	119.0246
82.500000	116.561	118.1658
83.800003	116.475	117.3140
85.000000	116.398	116.4690
86.199997	116.318	115.6118
87.500000	116.230	114.7418
88.500000	116.166	114.1246
90.000000	116.076	113.2454
91.199997	116.007	112.5454
92.500000	115.936	111.7613
93.800003	115.871	110.9176
95.000000	115.812	110.0943
96.199997	115.749	109.2986
97.500000	115.683	108.5313
98.800003	115.621	107.8326
100.000000	115.559	107.2028
101.500000	115.468	106.4259
103.000000	115.366	105.6503
104.400002	115.271	104.9138
106.000000	115.168	104.0688
107.500000	115.078	103.3014
109.000000	114.992	102.5804
110.599998	114.904	101.8502
112.000000	114.828	101.2119
113.800003	114.730	100.3597
115.000000	114.664	99.7722
117.199997	114.538	98.6967
118.000000	114.490	98.3170
120.599998	114.336	97.1314
122.000000	114.257	96.5146
124.099998	114.148	95.6090
125.000000	114.104	95.2281
126.500000	114.030	94.6057
128.000000	113.954	94.0021
131.500000	113.771	92.6166
132.000000	113.745	92.4169
134.000000	113.641	91.6345
136.000000	113.542	90.9035
138.000000	113.451	90.2114
140.000000	113.359	89.5354
143.000000	113.213	88.5736
145.000000	113.116	87.9588
147.500000	113.002	87.1597
150.000000	112.893	86.3276
152.500000	112.783	85.5537
155.000000	112.671	84.8501
157.500000	112.563	84.1482
160.000000	112.461	83.4452
162.500000	112.365	82.7779
165.000000	112.268	82.1505
167.500000	112.171	81.5627
170.000000	112.073	81.0227
172.500000	111.973	80.5168
175.000000	111.871	80.0050
177.500000	111.775	79.4708
180.000000	111.689	78.9351
182.500000	111.610	78.4000
185.000000	111.529	77.8476
187.500000	111.446	77.2975
190.000000	111.363	76.7847
192.500000	111.285	76.3024
195.000000	111.211	75.8163
197.500000	111.137	75.3186
200.000000	111.066	74.8309
203.000000	110.983	74.2869
206.000000	110.905	73.7942
209.000000	110.831	73.3385
212.000000	110.759	72.9083
214.000000	110.712	72.6344
218.000000	110.618	72.1050
220.000000	110.574	71.8379
224.000000	110.492	71.2682
227.000000	110.436	70.8123
230.000000	110.382	70.3737
233.000000	110.329	69.9859
236.000000	110.281	69.6372
240.000000	110.222	69.1789
243.000000	110.178	68.8319
247.000000	110.117	68.3757
250.000000	110.071	68.0284
254.000000	110.009	67.5795
258.000000	109.952	67.2001
262.000000	109.904	66.8435
265.000000	109.875	66.5459
269.000000	109.841	66.1271
272.000000	109.815	65.8152
276.000000	109.780	65.3993
280.000000	109.749	64.9888
285.000000	109.714	64.5125
290.000000	109.678	64.0595
295.000000	109.641	63.6065
300.000000	109.610	63.1523
304.000000	109.593	62.7966
307.000000	109.585	62.5316
311.000000	109.580	62.1661
315.000000	109.581	61.7862
320.000000	109.590	61.3397
325.000000	109.607	60.9505
330.000000	109.621	60.5421
335.000000	109.613	60.0747
340.000000	109.595	59.5963
345.000000	109.584	59.1331
350.000000	109.581	58.6938
355.000000	109.579	58.2687
360.000000	109.575	57.8460
365.000000	109.571	57.4226
370.000000	109.573	56.9822
375.000000	109.583	56.5206
382.000000	109.603	55.9062
387.000000	109.617	55.4937
395.000000	109.638	54.7858
400.000000	109.651	54.3045
406.000000	109.667	53.7137
412.000000	109.688	53.1308
418.000000	109.709	52.5690
425.000000	109.731	51.9307
431.000000	109.749	51.3885
437.000000	109.768	50.8396
444.000000	109.790	50.1821
450.000000	109.809	49.6210
455.000000	109.824	49.1658
462.000000	109.845	48.5392
468.000000	109.861	47.9938
475.000000	109.878	47.3435
482.000000	109.892	46.6936
487.000000	109.899	46.2393
494.000000	109.906	45.6285
500.000000	109.912	45.1199
508.000000	109.920	44.4323
515.000000	109.926	43.8232
522.000000	109.932	43.2346
530.000000	109.938	42.6048
538.000000	109.940	41.9913
545.000000	109.940	41.4415
552.000000	109.940	40.8800
560.000000	109.941	40.2463
570.000000	109.939	39.4957
580.000000	109.935	38.7800
590.000000	109.930	38.0870
600.000000	109.924	37.4289
608.000000	109.916	36.9278
615.000000	109.906	36.4990
622.000000	109.895	36.0751
630.000000	109.880	35.6023
640.000000	109.858	35.0407
650.000000	109.831	34.5072
660.000000	109.805	34.0126
670.000000	109.784	33.5837
680.000000	109.766	33.2041
690.000000	109.745	32.8500
700.000000	109.722	32.5111
710.000000	109.696	32.1920
720.000000	109.669	31.9103
730.000000	109.642	31.6743
740.000000	109.616	31.4820
750.000000	109.591	31.3287
762.000000	109.561	31.1892
775.000000	109.530	31.0889
788.000000	109.504	31.0470
800.000000	109.484	31.0642
812.000000	109.468	31.1253
825.000000	109.455	31.2372
838.000000	109.449	31.4023
850.000000	109.450	31.6014
862.000000	109.458	31.8450
875.000000	109.474	32.1531
885.000000	109.493	32.4167
900.000000	109.530	32.8486
912.000000	109.568	33.2200
925.000000	109.619	33.6514
938.000000	109.681	34.1106
950.000000	109.748	34.5503
962.000000	109.823	35.0030
975.000000	109.915	35.5030
988.000000	110.016	36.0004
1000.000000	110.119	36.4475
1015.000000	110.262	36.9867
1030.000000	110.421	37.5074
1044.000000	110.583	37.9707
1060.000000	110.784	38.4511
1075.000000	110.985	38.8342
1090.000000	111.197	39.1368
1106.000000	111.436	39.3636
1120.000000	111.654	39.4812
1138.000000	111.945	39.5209
1150.000000	112.145	39.4736
1172.000000	112.520	39.2211
1180.000000	112.658	39.0744
1206.000000	113.108	38.4027
1220.000000	113.351	37.9219
1241.000000	113.711	37.0562
1250.000000	113.863	36.6366
1265.000000	114.112	35.8741
1280.000000	114.354	35.0311
1315.000000	114.894	32.7520
1320.000000	114.967	32.3925
1340.000000	115.251	30.8786
1360.000000	115.517	29.2584
1380.000000	115.765	27.5537
1400.000000	115.994	25.7817
1430.000000	116.300	23.0149
1450.000000	116.479	21.1096
1475.000000	116.676	18.6891
1500.000000	116.847	16.2548
1525.000000	116.993	13.8302
1550.000000	117.113	11.4355
1575.000000	117.209	9.0911
1600.000000	117.282	6.8115
1625.000000	117.337	4.6064
1650.000000	117.377	2.4852
1675.000000	117.403	0.4591
1700.000000	117.418	-1.4664
1725.000000	117.423	-3.3003
1750.000000	117.420	-5.0521
1775.000000	117.408	-6.7222
1800.000000	117.391	-8.3076
1825.000000	117.369	-9.8107
1850.000000	117.345	-11.2374
1875.000000	117.320	-12.5918
1900.000000	117.297	-13.8779
1925.000000	117.275	-15.1017
1950.000000	117.257	-16.2703
1975.000000	117.243	-17.3906
2000.000000	117.233	-18.4695
2030.000000	117.225	-19.7191
2060.000000	117.223	-20.9271
2090.000000	117.228	-22.0946
2120.000000	117.238	-23.2195
2140.000000	117.248	-23.9479
2180.000000	117.277	-25.3662
2200.000000	117.296	-26.0611
2240.000000	117.342	-27.4331
2270.000000	117.385	-28.4584
2300.000000	117.435	-29.4952
2330.000000	117.490	-30.5585
2360.000000	117.550	-31.6586
2400.000000	117.633	-33.1814
2430.000000	117.699	-34.3609
2470.000000	117.791	-35.9806
2500.000000	117.861	-37.2292
2540.000000	117.954	-38.9411
2580.000000	118.045	-40.7145
2620.000000	118.128	-42.5564
2650.000000	118.183	-43.9782
2690.000000	118.245	-45.9068
2720.000000	118.282	-47.3613
2760.000000	118.317	-49.2908
2800.000000	118.339	-51.1909
2850.000000	118.349	-53.4972
2900.000000	118.349	-55.6954
2950.000000	118.345	-57.7702
3000.000000	118.344	-59.7329
3040.000000	118.348	-61.2440
3070.000000	118.356	-62.3543
3110.000000	118.370	-63.8154
3150.000000	118.391	-65.2672
3200.000000	118.425	-67.0898
3250.000000	118.466	-68.9429
3300.000000	118.510	-70.8336
3350.000000	118.555	-72.7582
3400.000000	118.599	-74.7162
3450.000000	118.640	-76.7074
3500.000000	118.677	-78.7332
3550.000000	118.708	-80.8015
3600.000000	118.732	-82.9132
3650.000000	118.749	-85.0490
3700.000000	118.759	-87.1891
3750.000000	118.763	-89.3278
3820.000000	118.756	-92.3242
3870.000000	118.743	-94.4666
3950.000000	118.710	-97.8988
4000.000000	118.683	-100.0487
4060.000000	118.646	-102.6307
4120.000000	118.601	-105.2074
4180.000000	118.550	-107.7692
4250.000000	118.481	-110.7328
4310.000000	118.411	-113.2536
4370.000000	118.331	-115.7620
4440.000000	118.224	-118.6704
4500.000000	118.121	-121.1385
4550.000000	118.025	-123.1717
4620.000000	117.877	-125.9711
4680.000000	117.736	-128.3165
4750.000000	117.556	-130.9827
4820.000000	117.360	-133.5712
4870.000000	117.210	-135.3663
4940.000000	116.990	-137.7866
5000.000000	116.792	-139.7595
5080.000000	116.518	-142.2222
5150.000000	116.272	-144.2006
5220.000000	116.021	-146.0028
5300.000000	115.735	-147.8459
5380.000000	115.455	-149.4733
5450.000000	115.218	-150.7405
5520.000000	114.991	-151.8853
5600.000000	114.745	-153.0801
5700.000000	114.455	-154.4593
5800.000000	114.183	-155.7623
5900.000000	113.925	-157.0226
6000.000000	113.679	-158.2466
6080.000000	113.487	-159.1879
6150.000000	113.321	-159.9664
6220.000000	113.153	-160.6826
6300.000000	112.960	-161.3935
6400.000000	112.715	-162.0629
6500.000000	112.476	-162.4191
6600.000000	112.263	-162.4324
6700.000000	112.099	-162.1797
6800.000000	111.997	-161.8107
6900.000000	111.957	-161.4656
7000.000000	111.976	-161.2324
7100.000000	112.049	-161.1645
7200.000000	112.172	-161.3261
7300.000000	112.333	-161.8010
7400.000000	112.517	-162.6614
7500.000000	112.703	-163.9468
7620.000000	112.899	-166.0521
7750.000000	113.028	-168.9108
7880.000000	113.010	-171.9380
8000.000000	112.847	-174.0581
8120.000000	112.642	-174.6582
8250.000000	112.630	-173.5728
8380.000000	113.029	-172.0955
8500.000000	113.689	-171.8959
8620.000000	114.445	-173.5555
8750.000000	115.214	-177.4927
8850.000000	115.708	178.2007
9000.000000	116.236	170.2325
9120.000000	116.455	163.0492
9250.000000	116.486	154.9554
9380.000000	116.313	146.9720
9500.000000	115.989	140.0250
9620.000000	115.530	133.7206
9750.000000	114.910	127.8021
9880.000000	114.195	122.9393
10000.000000	113.481	119.4177
10150.000000	112.553	116.2973
10300.000000	111.632	114.5088
10440.000000	110.818	113.9094
10600.000000	109.984	114.2990
10750.000000	109.327	115.4852
10900.000000	108.815	117.2125
11060.000000	108.441	119.3639
11200.000000	108.261	121.2911
11380.000000	108.216	123.5570
11500.000000	108.284	124.8068
11720.000000	108.565	126.3394
11800.000000	108.706	126.6155
12060.000000	109.245	126.3815
12200.000000	109.562	125.5438
12410.000000	110.036	123.4160
12500.000000	110.230	122.2073
12650.000000	110.533	119.8373
12800.000000	110.801	117.0819
13150.000000	111.252	109.6351
13200.000000	111.295	108.5027
13400.000000	111.414	103.9109
13600.000000	111.458	99.3234
13800.000000	111.444	94.8633
14000.000000	111.397	90.6244
14300.000000	111.334	84.7593
14500.000000	111.344	81.1045
14750.000000	111.464	76.5666
15000.000000	111.737	71.6730
15250.000000	112.178	65.8795
15500.000000	112.740	58.4816
15750.000000	113.297	48.7758
16000.000000	113.644	36.6862
16250.000000	113.619	23.9910
16500.000000	113.481	13.8806
16750.000000	114.015	5.1658
17000.000000	115.132	-9.6370
17250.000000	115.769	-34.7210
17500.000000	115.258	-65.0621
17750.000000	113.534	-91.7050
18000.000000	110.851	-109.6860
18250.000000	107.518	-119.0204
18500.000000	103.797	-121.7307
18750.000000	99.908	-120.1595
19000.000000	96.075	-116.7501
19250.000000	92.542	-114.0725
19500.000000	89.504	-115.2138
19750.000000	86.964	-126.1329
20000.000000	84.749	-162.5891
