* Measurement data measured by REW V5.20.5
* Source: Input device not selected, no input selected, L, volume: no control
* Format: 512k Log Swept Sine, 1 sweep at -12.0 dBFS with no timing reference
* Dated: Jun 21, 2023 6:12:13 AM
* REW Settings:
*  C-weighting compensation: Off
*  Target level: 75.0 dB
* Note: ; 
* Measurement: gmupblue R
* Smoothing: 1/24 octave
* Frequency Step: 1/48 octave
* Start Frequency: 20.000 Hz
*
* Freq(Hz)	SPL(dB)	Phase(degrees)
20.000000	112.062	-146.0223
20.299999	112.097	-147.1209
20.600000	112.130	-148.2046
20.900000	112.162	-149.2732
21.200001	112.191	-150.3259
21.400000	112.209	-151.0184
21.799999	112.244	-152.3786
22.000000	112.260	-153.0453
22.400000	112.291	-154.3508
22.700001	112.313	-155.3069
23.000000	112.334	-156.2469
23.299999	112.355	-157.1749
23.600000	112.374	-158.0926
24.000000	112.396	-159.2983
24.299999	112.410	-160.1840
24.700001	112.425	-161.3329
25.000000	112.434	-162.1700
25.400000	112.446	-163.2607
25.799999	112.458	-164.3375
26.200001	112.467	-165.4104
26.500000	112.470	-166.2104
26.900000	112.471	-167.2610
27.200001	112.468	-168.0297
27.600000	112.464	-169.0274
28.000000	112.460	-170.0041
28.500000	112.455	-171.2171
29.000000	112.448	-172.4282
29.500000	112.437	-173.6181
30.000000	112.424	-174.7666
30.400000	112.415	-175.6597
30.700001	112.410	-176.3226
31.100000	112.403	-177.2051
31.500000	112.395	-178.0825
32.000000	112.382	-179.1478
32.500000	112.368	-180.1506
33.000000	112.360	-181.1005
33.500000	112.361	-182.0504
34.000000	112.363	-183.0563
34.500000	112.356	-184.1183
35.000000	112.332	-185.1757
35.500000	112.292	-186.1476
36.000000	112.249	-186.9998
36.500000	112.212	-187.7625
37.000000	112.185	-188.5042
37.500000	112.164	-189.2791
38.200001	112.132	-190.4392
38.700001	112.102	-191.2882
39.500000	112.043	-192.6142
40.000000	112.005	-193.4239
40.599998	111.956	-194.3800
41.200001	111.904	-195.2900
41.799999	111.857	-196.1399
42.500000	111.813	-197.1119
43.099998	111.780	-197.9663
43.700001	111.748	-198.8054
44.400002	111.718	-199.7651
45.000000	111.697	-200.6523
45.500000	111.670	-201.4453
46.200001	111.607	-202.4902
46.799999	111.546	-203.2126
47.500000	111.492	-203.9424
48.200001	111.451	-204.7121
48.700001	111.418	-205.2914
49.400002	111.366	-206.0880
50.000000	111.318	-206.7480
50.799999	111.254	-207.6032
51.500000	111.201	-208.3308
52.200001	111.153	-209.0750
53.000000	111.096	-209.9633
53.799999	111.034	-210.8340
54.500000	110.981	-211.5577
55.200001	110.930	-212.2556
56.000000	110.876	-213.0297
57.000000	110.812	-214.0048
58.000000	110.738	-214.9817
59.000000	110.657	-215.8744
60.000000	110.582	-216.7263
60.799999	110.523	-217.4140
61.500000	110.472	-218.0162
62.200001	110.422	-218.6225
63.000000	110.365	-219.3167
64.000000	110.293	-220.1545
65.000000	110.224	-220.9638
66.000000	110.155	-221.7636
67.000000	110.083	-222.5229
68.000000	110.013	-223.2488
69.000000	109.944	-223.9836
70.000000	109.871	-224.7248
71.000000	109.794	-225.4376
72.000000	109.721	-226.1001
73.000000	109.657	-226.7560
74.000000	109.595	-227.4359
75.000000	109.531	-228.0998
76.199997	109.454	-228.8670
77.500000	109.368	-229.6846
78.800003	109.277	-230.4591
80.000000	109.192	-231.1234
81.199997	109.114	-231.7633
82.500000	109.037	-232.4933
83.800003	108.959	-233.2775
85.000000	108.878	-233.9805
86.199997	108.798	-234.6006
87.500000	108.723	-235.2466
88.500000	108.666	-235.7541
90.000000	108.580	-236.4865
91.199997	108.515	-237.0465
92.500000	108.446	-237.6660
93.800003	108.376	-238.2739
95.000000	108.312	-238.8256
96.199997	108.247	-239.3806
97.500000	108.173	-239.9660
98.800003	108.100	-240.5211
100.000000	108.034	-241.0275
101.500000	107.953	-241.6402
103.000000	107.878	-242.2483
104.400002	107.810	-242.8219
106.000000	107.730	-243.4565
107.500000	107.657	-244.0294
109.000000	107.585	-244.5943
110.599998	107.511	-245.1936
112.000000	107.446	-245.7206
113.800003	107.361	-246.3681
115.000000	107.306	-246.7735
117.199997	107.210	-247.5095
118.000000	107.176	-247.7833
120.599998	107.065	-248.6262
122.000000	107.009	-249.0597
124.099998	106.927	-249.6850
125.000000	106.894	-249.9529
126.500000	106.840	-250.4247
128.000000	106.785	-250.9214
131.500000	106.648	-252.0155
132.000000	106.629	-252.1534
134.000000	106.559	-252.6883
136.000000	106.492	-253.2324
138.000000	106.427	-253.7797
140.000000	106.365	-254.3115
143.000000	106.275	-255.0970
145.000000	106.211	-255.6247
147.500000	106.131	-256.2722
150.000000	106.058	-256.9042
152.500000	105.993	-257.5250
155.000000	105.928	-258.1171
157.500000	105.862	-258.6914
160.000000	105.796	-259.2552
162.500000	105.734	-259.8148
165.000000	105.675	-260.3712
167.500000	105.617	-260.9102
170.000000	105.563	-261.4358
172.500000	105.513	-261.9597
175.000000	105.462	-262.4774
177.500000	105.413	-262.9794
180.000000	105.366	-263.4819
182.500000	105.322	-263.9724
185.000000	105.280	-264.4488
187.500000	105.239	-264.9218
190.000000	105.196	-265.3940
192.500000	105.155	-265.8532
195.000000	105.118	-266.3013
197.500000	105.084	-266.7530
200.000000	105.050	-267.2088
203.000000	105.009	-267.7479
206.000000	104.973	-268.2737
209.000000	104.938	-268.7916
212.000000	104.903	-269.2748
214.000000	104.881	-269.5969
218.000000	104.840	-270.2719
220.000000	104.820	-270.6053
224.000000	104.783	-271.2505
227.000000	104.758	-271.7155
230.000000	104.735	-272.1770
233.000000	104.713	-272.6472
236.000000	104.695	-273.1160
240.000000	104.671	-273.7335
243.000000	104.650	-274.2003
247.000000	104.624	-274.8109
250.000000	104.608	-275.2486
254.000000	104.590	-275.8171
258.000000	104.574	-276.3967
262.000000	104.557	-276.9800
265.000000	104.547	-277.4129
269.000000	104.537	-277.9761
272.000000	104.530	-278.3924
276.000000	104.519	-278.9420
280.000000	104.507	-279.4705
285.000000	104.499	-280.1449
290.000000	104.495	-280.8319
295.000000	104.491	-281.4870
300.000000	104.489	-282.1370
304.000000	104.488	-282.6635
307.000000	104.487	-283.0528
311.000000	104.485	-283.5589
315.000000	104.485	-284.0508
320.000000	104.487	-284.6689
325.000000	104.488	-285.3087
330.000000	104.492	-285.9386
335.000000	104.499	-286.5326
340.000000	104.507	-287.1018
345.000000	104.511	-287.6779
350.000000	104.514	-288.2599
355.000000	104.520	-288.8390
360.000000	104.527	-289.4156
365.000000	104.535	-289.9725
370.000000	104.543	-290.5208
375.000000	104.552	-291.0744
382.000000	104.562	-291.8741
387.000000	104.569	-292.4203
395.000000	104.591	-293.2095
400.000000	104.604	-293.6854
406.000000	104.616	-294.2410
412.000000	104.631	-294.7752
418.000000	104.649	-295.2923
425.000000	104.680	-295.8569
431.000000	104.720	-296.3494
437.000000	104.769	-296.8832
444.000000	104.828	-297.5788
450.000000	104.872	-298.2575
455.000000	104.901	-298.8470
462.000000	104.934	-299.6911
468.000000	104.957	-300.4048
475.000000	104.979	-301.1965
482.000000	104.994	-301.9510
487.000000	105.003	-302.4663
494.000000	105.017	-303.1720
500.000000	105.029	-303.7604
508.000000	105.043	-304.5107
515.000000	105.054	-305.1454
522.000000	105.067	-305.7679
530.000000	105.083	-306.4589
538.000000	105.098	-307.1279
545.000000	105.110	-307.6959
552.000000	105.123	-308.2744
560.000000	105.139	-308.9305
570.000000	105.160	-309.7307
580.000000	105.179	-310.4900
590.000000	105.194	-311.2440
600.000000	105.209	-311.9604
608.000000	105.222	-312.4946
615.000000	105.234	-312.9350
622.000000	105.247	-313.3690
630.000000	105.262	-313.8644
640.000000	105.280	-314.4589
650.000000	105.297	-315.0191
660.000000	105.315	-315.5591
670.000000	105.331	-316.0743
680.000000	105.347	-316.5728
690.000000	105.361	-317.0458
700.000000	105.375	-317.4988
710.000000	105.390	-317.9250
720.000000	105.408	-318.3366
730.000000	105.426	-318.7369
740.000000	105.443	-319.1199
750.000000	105.462	-319.4854
762.000000	105.487	-319.8870
775.000000	105.513	-320.2839
788.000000	105.539	-320.6582
800.000000	105.566	-320.9872
812.000000	105.596	-321.3025
825.000000	105.633	-321.6066
838.000000	105.674	-321.8864
850.000000	105.714	-322.1361
862.000000	105.758	-322.3692
875.000000	105.809	-322.6000
885.000000	105.850	-322.7747
900.000000	105.917	-323.0235
912.000000	105.974	-323.2034
925.000000	106.042	-323.3925
938.000000	106.115	-323.5919
950.000000	106.188	-323.7791
962.000000	106.265	-323.9665
975.000000	106.354	-324.1899
988.000000	106.450	-324.4467
1000.000000	106.542	-324.7069
1015.000000	106.658	-325.0621
1030.000000	106.776	-325.4550
1044.000000	106.888	-325.8588
1060.000000	107.019	-326.3717
1075.000000	107.143	-326.8981
1090.000000	107.266	-327.4677
1106.000000	107.397	-328.1301
1120.000000	107.509	-328.7529
1138.000000	107.647	-329.6080
1150.000000	107.737	-330.2018
1172.000000	107.894	-331.3176
1180.000000	107.949	-331.7374
1206.000000	108.116	-333.1388
1220.000000	108.199	-333.9105
1241.000000	108.315	-335.0795
1250.000000	108.362	-335.5808
1265.000000	108.437	-336.4128
1280.000000	108.507	-337.2448
1315.000000	108.656	-339.1927
1320.000000	108.676	-339.4698
1340.000000	108.749	-340.5708
1360.000000	108.811	-341.6564
1380.000000	108.862	-342.7037
1400.000000	108.907	-343.6582
1430.000000	108.988	-344.9613
1450.000000	109.049	-345.8475
1475.000000	109.120	-347.0048
1500.000000	109.181	-348.1590
1525.000000	109.233	-349.2633
1550.000000	109.280	-350.3097
1575.000000	109.326	-351.2957
1600.000000	109.373	-352.2165
1625.000000	109.424	-353.0739
1650.000000	109.483	-353.8925
1675.000000	109.552	-354.7127
1700.000000	109.625	-355.5725
1725.000000	109.697	-356.4579
1750.000000	109.764	-357.3358
1775.000000	109.832	-358.1918
1800.000000	109.901	-359.0256
1825.000000	109.971	-359.8448
1850.000000	110.043	-360.6548
1875.000000	110.116	-361.4561
1900.000000	110.193	-362.2587
1925.000000	110.273	-363.0690
1950.000000	110.357	-363.8815
1975.000000	110.442	-364.6945
2000.000000	110.530	-365.5140
2030.000000	110.637	-366.5133
2060.000000	110.747	-367.5359
2090.000000	110.860	-368.5903
2120.000000	110.977	-369.6827
2140.000000	111.057	-370.4285
2180.000000	111.216	-371.9577
2200.000000	111.297	-372.7474
2240.000000	111.460	-374.3890
2270.000000	111.583	-375.6763
2300.000000	111.705	-377.0149
2330.000000	111.826	-378.4081
2360.000000	111.944	-379.8574
2400.000000	112.100	-381.8719
2430.000000	112.213	-383.4414
2470.000000	112.358	-385.6064
2500.000000	112.460	-387.2820
2540.000000	112.589	-389.5834
2580.000000	112.708	-391.9574
2620.000000	112.814	-394.3950
2650.000000	112.885	-396.2571
2690.000000	112.968	-398.7673
2720.000000	113.022	-400.6642
2760.000000	113.083	-403.2175
2800.000000	113.126	-405.7946
2850.000000	113.155	-409.0497
2900.000000	113.160	-412.3386
2950.000000	113.140	-415.6111
3000.000000	113.097	-418.8240
3040.000000	113.047	-421.3296
3070.000000	113.001	-423.1611
3110.000000	112.931	-425.5404
3150.000000	112.852	-427.8505
3200.000000	112.742	-430.6345
3250.000000	112.626	-433.2935
3300.000000	112.514	-435.8209
3350.000000	112.409	-438.2289
3400.000000	112.310	-440.5735
3450.000000	112.216	-442.9037
3500.000000	112.122	-445.2364
3550.000000	112.026	-447.5772
3600.000000	111.926	-449.9052
3650.000000	111.822	-452.1987
3700.000000	111.714	-454.4496
3750.000000	111.606	-456.6535
3820.000000	111.458	-459.6765
3870.000000	111.354	-461.8185
3950.000000	111.188	-465.2390
4000.000000	111.084	-467.3881
4060.000000	110.954	-469.9791
4120.000000	110.814	-472.5709
4180.000000	110.663	-475.1558
4250.000000	110.471	-478.1332
4310.000000	110.292	-480.6290
4370.000000	110.098	-483.0482
4440.000000	109.858	-485.7509
4500.000000	109.643	-487.9428
4550.000000	109.460	-489.6710
4620.000000	109.200	-491.9385
4680.000000	108.973	-493.7476
4750.000000	108.703	-495.7077
4820.000000	108.436	-497.4843
4870.000000	108.250	-498.6248
4940.000000	107.997	-500.0562
5000.000000	107.787	-501.1599
5080.000000	107.519	-502.4861
5150.000000	107.299	-503.5008
5220.000000	107.095	-504.3805
5300.000000	106.883	-505.2427
5380.000000	106.693	-505.9865
5450.000000	106.544	-506.5617
5520.000000	106.417	-507.0654
5600.000000	106.300	-507.5551
5700.000000	106.190	-508.0777
5800.000000	106.123	-508.5259
5900.000000	106.102	-508.8866
6000.000000	106.128	-509.1644
6080.000000	106.186	-509.3627
6150.000000	106.265	-509.5395
6220.000000	106.369	-509.7473
6300.000000	106.521	-510.0575
6400.000000	106.750	-510.6201
6500.000000	107.012	-511.4700
6600.000000	107.290	-512.6391
6700.000000	107.565	-514.0829
6800.000000	107.829	-515.6760
6900.000000	108.087	-517.2777
7000.000000	108.363	-518.8351
7100.000000	108.675	-520.4570
7200.000000	109.032	-522.3366
7300.000000	109.416	-524.6285
7400.000000	109.797	-527.3599
7500.000000	110.155	-530.5014
7620.000000	110.527	-534.7272
7750.000000	110.839	-539.5593
7880.000000	111.074	-544.3013
8000.000000	111.258	-548.4852
8120.000000	111.454	-552.5347
8250.000000	111.717	-556.9903
8380.000000	112.047	-561.9220
8500.000000	112.389	-567.3712
8620.000000	112.691	-574.2283
8750.000000	112.802	-583.3516
8850.000000	112.647	-591.0369
9000.000000	111.969	-602.2316
9120.000000	111.082	-609.7369
9250.000000	109.902	-615.6612
9380.000000	108.637	-619.2560
9500.000000	107.496	-620.8491
9620.000000	106.441	-621.1768
9750.000000	105.418	-620.4775
9880.000000	104.527	-618.9832
10000.000000	103.818	-617.0942
10150.000000	103.074	-614.2549
10300.000000	102.479	-611.0850
10440.000000	102.044	-607.9759
10600.000000	101.670	-604.3491
10750.000000	101.423	-600.9315
10900.000000	101.264	-597.5070
11060.000000	101.185	-593.8712
11200.000000	101.186	-590.7281
11380.000000	101.297	-586.7126
11500.000000	101.459	-584.1537
11720.000000	101.947	-580.4003
11800.000000	102.166	-579.5084
12060.000000	102.882	-578.3956
12200.000000	103.219	-578.6771
12410.000000	103.633	-579.8994
12500.000000	103.772	-580.6596
12650.000000	103.943	-582.1724
12800.000000	104.030	-583.8889
13150.000000	103.877	-587.8079
13200.000000	103.816	-588.2634
13400.000000	103.486	-589.5722
13600.000000	103.059	-589.8127
13800.000000	102.616	-588.8344
14000.000000	102.241	-586.8146
14300.000000	101.893	-582.5453
14500.000000	101.851	-579.0356
14750.000000	102.117	-573.8931
15000.000000	102.985	-568.6169
15250.000000	104.640	-566.2213
15500.000000	106.354	-571.8967
15750.000000	106.996	-583.7985
16000.000000	106.899	-592.6929
16250.000000	107.177	-600.1946
16500.000000	107.461	-613.7578
16750.000000	106.613	-631.6898
17000.000000	104.303	-644.1852
17250.000000	101.101	-645.9857
17500.000000	97.855	-638.2775
17750.000000	95.436	-624.3130
18000.000000	94.572	-609.7640
18250.000000	94.774	-600.6350
18500.000000	94.886	-597.3911
18750.000000	94.474	-596.0509
19000.000000	93.671	-593.5497
19250.000000	92.716	-589.2151
19500.000000	91.772	-583.4678
19750.000000	90.895	-576.8461
20000.000000	90.091	-569.6151
