* Measurement data measured by REW V5.20.8
* Source: Line (2- Komplete Audio 2), LINE_IN (Master Volume), R, volume: 1.000
* Format: 256k Log Swept Sine, 1 sweep at -3.0 dBFS with no timing reference
* Dated: Jul 28, 2023 6:05:38 PM
* REW Settings:
*  C-weighting compensation: Off
*  Target level: 75.0 dB
* Note: ; Radon LRadon janus cable R
* Measurement: radon R
* Smoothing: 1/24 octave
* Frequency Step: 1/48 octave
* Start Frequency: 20.000 Hz
*
* Freq(Hz)	SPL(dB)	Phase(degrees)
20.000000	108.264	-143.3790
20.299999	108.315	-144.0182
20.600000	108.365	-144.6716
20.900000	108.412	-145.3358
21.200001	108.456	-146.0045
21.400000	108.482	-146.4488
21.799999	108.530	-147.3220
22.000000	108.552	-147.7459
22.400000	108.591	-148.5586
22.700001	108.619	-149.1337
23.000000	108.647	-149.6796
23.299999	108.676	-150.2007
23.600000	108.708	-150.7046
24.000000	108.755	-151.3670
24.299999	108.793	-151.8701
24.700001	108.847	-152.5659
25.000000	108.888	-153.1138
25.400000	108.939	-153.8808
25.799999	108.983	-154.6814
26.200001	109.019	-155.4979
26.500000	109.039	-156.1073
26.900000	109.058	-156.8976
27.200001	109.067	-157.4636
27.600000	109.075	-158.1734
28.000000	109.080	-158.8285
28.500000	109.087	-159.5784
29.000000	109.099	-160.2741
29.500000	109.116	-160.9459
30.000000	109.138	-161.6218
30.400000	109.158	-162.1772
30.700001	109.172	-162.6044
31.100000	109.188	-163.1860
31.500000	109.202	-163.7752
32.000000	109.215	-164.5097
32.500000	109.222	-165.2274
33.000000	109.225	-165.9185
33.500000	109.227	-166.5808
34.000000	109.228	-167.2174
34.500000	109.228	-167.8327
35.000000	109.228	-168.4294
35.500000	109.229	-169.0086
36.000000	109.230	-169.5719
36.500000	109.232	-170.1239
37.000000	109.236	-170.6720
37.500000	109.240	-171.2236
38.200001	109.244	-172.0075
38.700001	109.243	-172.5705
39.500000	109.234	-173.4502
40.000000	109.225	-173.9709
40.599998	109.211	-174.5545
41.200001	109.198	-175.0915
41.799999	109.187	-175.5897
42.500000	109.181	-176.1440
43.099998	109.180	-176.6203
43.700001	109.182	-177.1165
44.400002	109.183	-177.7272
45.000000	109.179	-178.2652
45.500000	109.171	-178.7085
46.200001	109.157	-179.3013
46.799999	109.143	-179.7775
47.500000	109.128	179.6944
48.200001	109.117	179.1770
48.700001	109.109	178.8053
49.400002	109.099	178.2761
50.000000	109.091	177.8123
50.799999	109.077	177.1773
51.500000	109.062	176.6085
52.200001	109.043	176.0372
53.000000	109.016	175.4012
53.799999	108.986	174.8013
54.500000	108.960	174.3051
55.200001	108.938	173.8200
56.000000	108.917	173.2547
57.000000	108.890	172.5133
58.000000	108.857	171.7541
59.000000	108.820	171.0093
60.000000	108.780	170.2854
60.799999	108.745	169.7202
61.500000	108.711	169.2447
62.200001	108.675	168.7999
63.000000	108.634	168.3412
64.000000	108.588	167.8367
65.000000	108.552	167.3724
66.000000	108.525	166.9014
67.000000	108.503	166.3947
68.000000	108.480	165.8490
69.000000	108.453	165.2735
70.000000	108.420	164.6794
71.000000	108.379	164.0865
72.000000	108.329	163.5229
73.000000	108.276	163.0078
74.000000	108.223	162.5366
75.000000	108.172	162.0882
76.199997	108.112	161.5546
77.500000	108.046	160.9823
78.800003	107.981	160.4340
80.000000	107.923	159.9387
81.199997	107.869	159.4211
82.500000	107.808	158.8238
83.800003	107.739	158.2307
85.000000	107.672	157.7290
86.199997	107.609	157.2641
87.500000	107.547	156.7455
88.500000	107.497	156.3134
90.000000	107.403	155.7007
91.199997	107.321	155.3456
92.500000	107.245	155.0695
93.800003	107.182	154.7858
95.000000	107.125	154.4846
96.199997	107.060	154.1901
97.500000	106.987	153.9321
98.800003	106.921	153.7258
100.000000	106.870	153.5074
101.500000	106.802	153.1456
103.000000	106.718	152.7781
104.400002	106.633	152.5193
106.000000	106.544	152.2932
107.500000	106.466	152.0842
109.000000	106.389	151.9003
110.599998	106.314	151.7439
112.000000	106.257	151.5675
113.800003	106.172	151.2999
115.000000	106.107	151.1960
117.199997	106.013	151.2451
118.000000	105.996	151.2643
120.599998	105.963	150.9393
122.000000	105.928	150.6245
124.099998	105.857	150.1404
125.000000	105.821	149.9167
126.500000	105.748	149.5266
128.000000	105.654	149.1994
131.500000	105.446	148.9455
132.000000	105.424	148.9084
134.000000	105.340	148.6645
136.000000	105.252	148.3557
138.000000	105.166	148.0352
140.000000	105.080	147.6854
143.000000	104.941	147.2042
145.000000	104.846	146.9531
147.500000	104.719	146.7318
150.000000	104.592	146.6921
152.500000	104.470	146.7147
155.000000	104.337	146.8686
157.500000	104.225	147.1486
160.000000	104.136	147.2825
162.500000	104.040	147.2475
165.000000	103.931	147.2141
167.500000	103.825	147.2644
170.000000	103.731	147.3628
172.500000	103.645	147.4664
175.000000	103.561	147.5822
177.500000	103.478	147.7351
180.000000	103.400	147.9198
182.500000	103.327	148.1067
185.000000	103.255	148.3059
187.500000	103.186	148.5382
190.000000	103.123	148.7970
192.500000	103.066	149.0532
195.000000	103.012	149.2912
197.500000	102.960	149.4960
200.000000	102.905	149.6573
203.000000	102.837	149.8252
206.000000	102.772	149.9787
209.000000	102.707	150.1153
212.000000	102.639	150.3319
214.000000	102.599	150.5354
218.000000	102.536	150.9399
220.000000	102.504	151.1112
224.000000	102.435	151.4310
227.000000	102.382	151.6492
230.000000	102.329	151.8674
233.000000	102.280	152.1224
236.000000	102.239	152.4082
240.000000	102.193	152.7736
243.000000	102.157	153.0345
247.000000	102.109	153.3809
250.000000	102.073	153.6485
254.000000	102.034	154.0422
258.000000	102.011	154.4361
262.000000	101.999	154.7684
265.000000	101.992	154.9590
269.000000	101.978	155.1541
272.000000	101.964	155.3171
276.000000	101.951	155.5726
280.000000	101.948	155.8337
285.000000	101.956	156.0785
290.000000	101.954	156.1734
295.000000	101.936	156.2810
300.000000	101.923	156.4195
304.000000	101.914	156.5157
307.000000	101.904	156.5952
311.000000	101.892	156.6955
315.000000	101.880	156.7445
320.000000	101.864	156.7123
325.000000	101.848	156.6605
330.000000	101.838	156.6296
335.000000	101.828	156.6323
340.000000	101.813	156.6683
345.000000	101.794	156.7137
350.000000	101.774	156.7308
355.000000	101.750	156.6980
360.000000	101.719	156.6744
365.000000	101.689	156.6991
370.000000	101.664	156.7274
375.000000	101.640	156.7270
382.000000	101.602	156.6865
387.000000	101.575	156.6491
395.000000	101.535	156.6137
400.000000	101.511	156.6227
406.000000	101.479	156.6438
412.000000	101.440	156.6279
418.000000	101.399	156.6049
425.000000	101.367	156.5852
431.000000	101.338	156.5675
437.000000	101.300	156.5545
444.000000	101.244	156.5641
450.000000	101.194	156.6165
455.000000	101.157	156.6696
462.000000	101.109	156.7220
468.000000	101.072	156.7339
475.000000	101.031	156.6966
482.000000	100.987	156.6496
487.000000	100.951	156.6547
494.000000	100.897	156.7351
500.000000	100.845	156.8404
508.000000	100.772	156.9916
515.000000	100.712	157.0998
522.000000	100.661	157.1698
530.000000	100.608	157.2242
538.000000	100.559	157.2873
545.000000	100.512	157.3717
552.000000	100.460	157.4966
560.000000	100.400	157.6876
570.000000	100.330	157.9308
580.000000	100.261	158.1261
590.000000	100.189	158.3396
600.000000	100.117	158.5916
608.000000	100.053	158.8299
615.000000	99.995	159.0688
622.000000	99.941	159.3203
630.000000	99.885	159.6027
640.000000	99.825	159.9284
650.000000	99.768	160.2070
660.000000	99.705	160.5220
670.000000	99.635	160.9608
680.000000	99.566	161.4883
690.000000	99.507	161.9883
700.000000	99.459	162.4060
710.000000	99.421	162.8099
720.000000	99.397	163.2379
730.000000	99.371	163.5938
740.000000	99.317	163.8513
750.000000	99.235	164.1557
762.000000	99.134	164.7316
775.000000	99.053	165.5583
788.000000	99.008	166.4221
800.000000	98.989	167.1843
812.000000	98.968	167.9373
825.000000	98.936	168.7930
838.000000	98.899	169.6988
850.000000	98.873	170.5086
862.000000	98.856	171.2325
875.000000	98.845	171.9932
885.000000	98.840	172.6258
900.000000	98.843	173.6297
912.000000	98.857	174.3814
925.000000	98.882	175.1112
938.000000	98.917	175.8441
950.000000	98.955	176.5527
962.000000	98.994	177.2549
975.000000	99.041	177.9693
988.000000	99.094	178.6161
1000.000000	99.141	179.1968
1015.000000	99.195	179.9509
1030.000000	99.253	-179.3118
1044.000000	99.309	-178.7126
1060.000000	99.374	-178.1083
1075.000000	99.439	-177.5334
1090.000000	99.503	-176.9726
1106.000000	99.571	-176.4439
1120.000000	99.634	-176.0281
1138.000000	99.717	-175.5196
1150.000000	99.770	-175.2074
1172.000000	99.859	-174.6736
1180.000000	99.888	-174.4852
1206.000000	99.970	-173.8642
1220.000000	100.013	-173.5370
1241.000000	100.080	-173.0921
1250.000000	100.111	-172.9098
1265.000000	100.166	-172.6064
1280.000000	100.222	-172.3032
1315.000000	100.342	-171.5764
1320.000000	100.358	-171.4623
1340.000000	100.423	-170.9989
1360.000000	100.490	-170.5586
1380.000000	100.558	-170.1340
1400.000000	100.616	-169.6752
1430.000000	100.678	-168.8798
1450.000000	100.717	-168.3161
1475.000000	100.779	-167.6594
1500.000000	100.855	-166.9971
1525.000000	100.938	-166.2732
1550.000000	101.031	-165.5505
1575.000000	101.135	-164.8420
1600.000000	101.240	-164.1176
1625.000000	101.344	-163.3427
1650.000000	101.458	-162.5820
1675.000000	101.582	-161.8796
1700.000000	101.709	-161.1664
1725.000000	101.832	-160.4137
1750.000000	101.958	-159.6891
1775.000000	102.094	-159.0057
1800.000000	102.242	-158.3393
1825.000000	102.403	-157.7010
1850.000000	102.578	-157.1080
1875.000000	102.768	-156.5584
1900.000000	102.972	-156.0736
1925.000000	103.181	-155.6613
1950.000000	103.389	-155.2963
1975.000000	103.594	-154.9816
2000.000000	103.799	-154.7573
2030.000000	104.056	-154.6146
2060.000000	104.327	-154.6498
2090.000000	104.605	-154.8851
2120.000000	104.879	-155.3053
2140.000000	105.052	-155.6925
2180.000000	105.373	-156.7371
2200.000000	105.514	-157.3857
2240.000000	105.757	-158.8737
2270.000000	105.899	-160.1064
2300.000000	106.008	-161.3461
2330.000000	106.088	-162.5125
2360.000000	106.142	-163.5575
2400.000000	106.185	-164.6044
2430.000000	106.205	-165.0953
2470.000000	106.239	-165.4559
2500.000000	106.284	-165.6024
2540.000000	106.383	-165.8665
2580.000000	106.516	-166.3684
2620.000000	106.664	-167.1573
2650.000000	106.779	-167.9989
2690.000000	106.918	-169.4184
2720.000000	106.987	-170.6012
2760.000000	107.016	-172.2335
2800.000000	106.976	-173.8708
2850.000000	106.854	-175.7769
2900.000000	106.682	-177.4321
2950.000000	106.466	-178.7129
3000.000000	106.206	-179.5104
3040.000000	105.982	-179.8477
3070.000000	105.813	-179.9289
3110.000000	105.583	-179.8088
3150.000000	105.352	-179.4254
3200.000000	105.077	-178.6272
3250.000000	104.842	-177.5685
3300.000000	104.638	-176.2566
3350.000000	104.482	-174.6155
3400.000000	104.406	-173.0450
3450.000000	104.360	-171.2462
3500.000000	104.328	-169.3123
3550.000000	104.360	-167.5112
3600.000000	104.462	-165.8372
3650.000000	104.632	-164.4817
3700.000000	104.853	-163.6502
3750.000000	105.078	-163.5023
3820.000000	105.276	-164.5719
3870.000000	105.235	-165.8405
3950.000000	104.876	-166.6270
4000.000000	104.701	-166.2354
4060.000000	104.485	-166.1016
4120.000000	104.126	-165.0354
4180.000000	103.780	-162.5490
4250.000000	103.532	-158.6824
4310.000000	103.471	-155.1287
4370.000000	103.536	-151.6598
4440.000000	103.739	-147.8989
4500.000000	104.004	-145.0167
4550.000000	104.281	-142.9258
4620.000000	104.729	-140.5426
4680.000000	105.146	-139.0807
4750.000000	105.651	-138.2035
4820.000000	106.141	-138.3501
4870.000000	106.444	-139.0395
4940.000000	106.748	-140.4850
5000.000000	106.885	-141.5869
5080.000000	107.006	-142.0836
5150.000000	107.229	-141.9954
5220.000000	107.596	-142.5863
5300.000000	108.009	-144.9576
5380.000000	108.208	-148.7651
5450.000000	108.143	-152.4190
5520.000000	107.880	-155.6817
5600.000000	107.407	-158.4146
5700.000000	106.688	-160.0865
5800.000000	105.948	-159.9617
5900.000000	105.266	-158.3961
6000.000000	104.697	-155.7718
6080.000000	104.333	-153.1196
6150.000000	104.080	-150.5114
6220.000000	103.893	-147.7408
6300.000000	103.770	-144.5205
6400.000000	103.757	-140.6444
6500.000000	103.879	-137.1839
6600.000000	104.084	-134.2998
6700.000000	104.320	-132.0047
6800.000000	104.566	-130.2217
6900.000000	104.818	-128.8528
7000.000000	105.065	-127.7908
7100.000000	105.295	-126.9687
7200.000000	105.501	-126.3532
7300.000000	105.691	-125.8535
7400.000000	105.879	-125.5534
7500.000000	106.062	-125.3970
7620.000000	106.357	-125.6074
7750.000000	106.609	-127.3549
7880.000000	106.601	-129.5942
8000.000000	106.440	-131.1943
8120.000000	106.190	-132.2241
8250.000000	105.844	-132.6978
8380.000000	105.462	-132.5506
8500.000000	105.090	-131.8495
8620.000000	104.698	-130.5842
8750.000000	104.276	-128.5982
8850.000000	103.976	-126.6562
9000.000000	103.602	-123.1552
9120.000000	103.389	-119.9504
9250.000000	103.251	-116.2030
9380.000000	103.217	-112.3483
9500.000000	103.300	-108.9121
9620.000000	103.503	-105.8503
9750.000000	103.856	-103.3291
9880.000000	104.310	-102.1359
10000.000000	104.747	-102.7112
10150.000000	105.144	-106.1801
10300.000000	105.120	-112.4134
10440.000000	104.525	-119.0897
10600.000000	103.157	-124.8315
10750.000000	101.412	-126.5094
10900.000000	99.496	-124.4279
11060.000000	97.510	-118.8897
11200.000000	95.923	-111.9974
11380.000000	94.119	-101.1984
11500.000000	93.056	-93.1097
11720.000000	91.401	-76.6210
11800.000000	90.912	-70.1438
12060.000000	89.800	-48.1872
12200.000000	89.474	-36.2216
12410.000000	89.288	-18.4602
12500.000000	89.320	-11.0022
12650.000000	89.530	1.0848
12800.000000	89.931	12.6076
13150.000000	91.476	36.3740
13200.000000	91.751	39.3112
13400.000000	92.926	49.5883
13600.000000	94.106	57.1849
13800.000000	95.082	62.0312
14000.000000	95.656	65.0660
14300.000000	95.707	70.7434
14500.000000	95.471	78.0488
14750.000000	95.473	91.3946
15000.000000	96.272	106.6401
15250.000000	97.862	119.8352
15500.000000	99.694	127.6606
15750.000000	101.022	130.0652
16000.000000	101.651	132.1088
16250.000000	102.322	137.1445
16500.000000	103.438	140.9765
16750.000000	104.314	139.4759
17000.000000	104.183	136.0774
17250.000000	103.522	139.6821
17500.000000	103.962	144.5587
17750.000000	104.169	140.5688
18000.000000	103.145	136.8247
18250.000000	101.607	138.6446
18500.000000	100.208	143.7981
18750.000000	99.135	149.7205
19000.000000	98.331	154.7223
19250.000000	97.630	157.5711
19500.000000	96.805	157.6409
19750.000000	95.708	155.7286
