* Measurement data measured by REW V5.20.5
* Source: Input device not selected, no input selected, L, volume: no control
* Format: 512k Log Swept Sine, 1 sweep at -12.0 dBFS with no timing reference
* Dated: Jun 5, 2023 2:58:24 PM
* REW Settings:
*  C-weighting compensation: Off
*  Target level: 75.0 dB
* Note: ; 
* Measurement: redcp155 L
* Smoothing: 1/24 octave
* Frequency Step: 1/48 octave
* Start Frequency: 20.000 Hz
*
* Freq(Hz)	SPL(dB)	Phase(degrees)
20.000000	110.362	-138.0576
20.299999	110.392	-138.9215
20.600000	110.420	-139.7548
20.900000	110.445	-140.5610
21.200001	110.469	-141.3461
21.400000	110.484	-141.8585
21.799999	110.512	-142.8505
22.000000	110.525	-143.3277
22.400000	110.552	-144.2433
22.700001	110.575	-144.9080
23.000000	110.602	-145.5747
23.299999	110.630	-146.2607
23.600000	110.656	-146.9702
24.000000	110.684	-147.9387
24.299999	110.697	-148.6559
24.700001	110.708	-149.5663
25.000000	110.713	-150.2035
25.400000	110.721	-150.9989
25.799999	110.732	-151.7546
26.200001	110.746	-152.4901
26.500000	110.758	-153.0353
26.900000	110.775	-153.7612
27.200001	110.787	-154.3108
27.600000	110.802	-155.0535
28.000000	110.810	-155.7930
28.500000	110.811	-156.6674
29.000000	110.811	-157.4638
29.500000	110.817	-158.2367
30.000000	110.819	-159.0487
30.400000	110.809	-159.6947
30.700001	110.795	-160.1303
31.100000	110.775	-160.6028
31.500000	110.770	-160.9811
32.000000	110.793	-161.4890
32.500000	110.828	-162.2223
33.000000	110.835	-163.1458
33.500000	110.800	-164.0069
34.000000	110.752	-164.5933
34.500000	110.732	-164.9688
35.000000	110.754	-165.3842
35.500000	110.791	-166.0414
36.000000	110.807	-166.9146
36.500000	110.785	-167.8130
37.000000	110.734	-168.5287
37.500000	110.683	-168.9877
38.200001	110.656	-169.3887
38.700001	110.670	-169.7245
39.500000	110.699	-170.5310
40.000000	110.703	-171.1249
40.599998	110.687	-171.8369
41.200001	110.652	-172.4732
41.799999	110.609	-172.9478
42.500000	110.580	-173.3666
43.099998	110.573	-173.8621
43.700001	110.539	-174.4970
44.400002	110.459	-175.0248
45.000000	110.411	-175.1712
45.500000	110.409	-175.3170
46.200001	110.426	-175.8316
46.799999	110.421	-176.4310
47.500000	110.404	-177.0987
48.200001	110.389	-177.8398
48.700001	110.361	-178.3983
49.400002	110.303	-178.9775
50.000000	110.273	-179.2635
50.799999	110.279	-179.7421
51.500000	110.273	-180.3612
52.200001	110.241	-180.9037
53.000000	110.211	-181.3791
53.799999	110.181	-181.9197
54.500000	110.132	-182.3818
55.200001	110.071	-182.6969
56.000000	110.014	-182.9285
57.000000	109.971	-183.2334
58.000000	109.946	-183.7769
59.000000	109.891	-184.5262
60.000000	109.814	-185.0856
60.799999	109.773	-185.4209
61.500000	109.752	-185.7281
62.200001	109.742	-186.0580
63.000000	109.738	-186.5244
64.000000	109.710	-187.2535
65.000000	109.645	-187.8205
66.000000	109.588	-188.1815
67.000000	109.539	-188.5794
68.000000	109.478	-188.9454
69.000000	109.432	-189.2098
70.000000	109.412	-189.6126
71.000000	109.373	-190.2265
72.000000	109.298	-190.6812
73.000000	109.239	-190.8779
74.000000	109.208	-191.0672
75.000000	109.182	-191.3255
76.199997	109.150	-191.7012
77.500000	109.100	-192.1946
78.800003	109.031	-192.6695
80.000000	108.958	-193.0288
81.199997	108.887	-193.2792
82.500000	108.828	-193.4949
83.800003	108.779	-193.7877
85.000000	108.730	-194.0982
86.199997	108.681	-194.4324
87.500000	108.621	-194.8096
88.500000	108.570	-195.0231
90.000000	108.508	-195.2181
91.199997	108.461	-195.3820
92.500000	108.394	-195.5000
93.800003	108.326	-195.5401
95.000000	108.267	-195.6784
96.199997	108.202	-196.0134
97.500000	108.107	-196.5814
98.800003	107.972	-197.0941
100.000000	107.864	-197.1398
101.500000	107.850	-197.1262
103.000000	107.852	-197.6100
104.400002	107.802	-197.8960
106.000000	107.736	-197.9333
107.500000	107.661	-197.8884
109.000000	107.585	-197.8326
110.599998	107.516	-197.8897
112.000000	107.457	-198.0478
113.800003	107.381	-198.1702
115.000000	107.338	-198.1637
117.199997	107.267	-198.1587
118.000000	107.235	-198.1897
120.599998	107.110	-198.3404
122.000000	107.040	-198.4533
124.099998	106.948	-198.5542
125.000000	106.914	-198.5839
126.500000	106.857	-198.6191
128.000000	106.787	-198.5923
131.500000	106.623	-198.3862
132.000000	106.600	-198.4261
134.000000	106.487	-198.7429
136.000000	106.352	-198.9417
138.000000	106.272	-198.7400
140.000000	106.251	-198.4742
143.000000	106.221	-198.1073
145.000000	106.177	-197.9350
147.500000	106.105	-197.8299
150.000000	106.022	-197.6605
152.500000	105.945	-197.3876
155.000000	105.877	-197.2181
157.500000	105.815	-197.1637
160.000000	105.749	-196.9869
162.500000	105.686	-196.6391
165.000000	105.627	-196.3133
167.500000	105.571	-196.0651
170.000000	105.518	-195.8152
172.500000	105.473	-195.4984
175.000000	105.432	-195.2066
177.500000	105.392	-194.8977
180.000000	105.360	-194.6187
182.500000	105.321	-194.3809
185.000000	105.280	-194.1673
187.500000	105.242	-193.9464
190.000000	105.213	-193.6665
192.500000	105.188	-193.3461
195.000000	105.166	-193.0607
197.500000	105.142	-192.8536
200.000000	105.117	-192.6755
203.000000	105.086	-192.4305
206.000000	105.062	-192.1456
209.000000	105.052	-191.8109
212.000000	105.050	-191.4622
214.000000	105.044	-191.2695
218.000000	105.016	-190.9424
220.000000	105.008	-190.7632
224.000000	105.003	-190.4146
227.000000	104.995	-190.1857
230.000000	104.988	-189.9783
233.000000	104.984	-189.7588
236.000000	104.982	-189.5022
240.000000	104.980	-189.2388
243.000000	104.971	-189.1054
247.000000	104.969	-188.8999
250.000000	104.977	-188.7432
254.000000	104.982	-188.5778
258.000000	104.981	-188.3748
262.000000	104.986	-188.2040
265.000000	104.992	-188.1109
269.000000	105.003	-187.9964
272.000000	105.009	-187.8864
276.000000	105.012	-187.7203
280.000000	105.014	-187.5792
285.000000	105.015	-187.4491
290.000000	105.009	-187.3407
295.000000	105.007	-187.2496
300.000000	105.019	-187.1794
304.000000	105.028	-187.1147
307.000000	105.030	-187.0962
311.000000	105.031	-187.0702
315.000000	105.033	-187.0248
320.000000	105.034	-186.9855
325.000000	105.037	-186.9591
330.000000	105.033	-186.9241
335.000000	105.024	-186.8893
340.000000	105.020	-186.8700
345.000000	105.021	-186.8671
350.000000	105.016	-186.8554
355.000000	105.010	-186.8269
360.000000	104.999	-186.8499
365.000000	104.987	-186.9312
370.000000	104.981	-186.9937
375.000000	104.974	-186.9773
382.000000	104.972	-186.8620
387.000000	104.972	-186.8011
395.000000	104.956	-186.7425
400.000000	104.942	-186.6994
406.000000	104.933	-186.6989
412.000000	104.914	-186.6820
418.000000	104.900	-186.6259
425.000000	104.889	-186.5667
431.000000	104.877	-186.5823
437.000000	104.864	-186.6089
444.000000	104.838	-186.6140
450.000000	104.815	-186.5437
455.000000	104.805	-186.4937
462.000000	104.793	-186.5029
468.000000	104.774	-186.4729
475.000000	104.757	-186.3875
482.000000	104.740	-186.3213
487.000000	104.722	-186.2838
494.000000	104.700	-186.2272
500.000000	104.685	-186.1440
508.000000	104.665	-186.0179
515.000000	104.645	-185.9024
522.000000	104.627	-185.7969
530.000000	104.608	-185.6971
538.000000	104.588	-185.5988
545.000000	104.572	-185.4908
552.000000	104.555	-185.3725
560.000000	104.535	-185.2559
570.000000	104.512	-185.0535
580.000000	104.492	-184.8337
590.000000	104.470	-184.6408
600.000000	104.453	-184.4653
608.000000	104.438	-184.2903
615.000000	104.426	-184.1397
622.000000	104.416	-183.9955
630.000000	104.407	-183.8225
640.000000	104.392	-183.6091
650.000000	104.375	-183.3966
660.000000	104.361	-183.1719
670.000000	104.350	-182.9309
680.000000	104.343	-182.7008
690.000000	104.338	-182.4721
700.000000	104.332	-182.2278
710.000000	104.324	-181.9687
720.000000	104.315	-181.7007
730.000000	104.311	-181.4271
740.000000	104.309	-181.1512
750.000000	104.307	-180.8640
762.000000	104.307	-180.5139
775.000000	104.313	-180.1149
788.000000	104.325	-179.7155
800.000000	104.336	-179.3563
812.000000	104.350	-178.9823
825.000000	104.367	-178.5799
838.000000	104.388	-178.1708
850.000000	104.416	-177.7833
862.000000	104.447	-177.3730
875.000000	104.484	-176.9212
885.000000	104.516	-176.5818
900.000000	104.572	-176.0865
912.000000	104.621	-175.7061
925.000000	104.679	-175.3078
938.000000	104.743	-174.9201
950.000000	104.807	-174.5669
962.000000	104.874	-174.2317
975.000000	104.951	-173.9006
988.000000	105.033	-173.5857
1000.000000	105.112	-173.3282
1015.000000	105.213	-173.0666
1030.000000	105.318	-172.8344
1044.000000	105.421	-172.6509
1060.000000	105.543	-172.5015
1075.000000	105.657	-172.4346
1090.000000	105.770	-172.4127
1106.000000	105.889	-172.4311
1120.000000	105.991	-172.4988
1138.000000	106.118	-172.6278
1150.000000	106.201	-172.7372
1172.000000	106.347	-173.0045
1180.000000	106.398	-173.1199
1206.000000	106.559	-173.5233
1220.000000	106.642	-173.7471
1241.000000	106.763	-174.0914
1250.000000	106.813	-174.2468
1265.000000	106.895	-174.5166
1280.000000	106.974	-174.7943
1315.000000	107.146	-175.4323
1320.000000	107.169	-175.5235
1340.000000	107.263	-175.8878
1360.000000	107.356	-176.2522
1380.000000	107.450	-176.6125
1400.000000	107.545	-176.9675
1430.000000	107.688	-177.5236
1450.000000	107.785	-177.9301
1475.000000	107.909	-178.4775
1500.000000	108.031	-179.0839
1525.000000	108.150	-179.7573
1550.000000	108.260	-180.4773
1575.000000	108.361	-181.2207
1600.000000	108.453	-181.9923
1625.000000	108.538	-182.7692
1650.000000	108.615	-183.5297
1675.000000	108.688	-184.2767
1700.000000	108.756	-185.0053
1725.000000	108.819	-185.7149
1750.000000	108.881	-186.4146
1775.000000	108.944	-187.1039
1800.000000	109.005	-187.7827
1825.000000	109.064	-188.4636
1850.000000	109.122	-189.1482
1875.000000	109.179	-189.8251
1900.000000	109.231	-190.4757
1925.000000	109.282	-191.0875
1950.000000	109.335	-191.6634
1975.000000	109.390	-192.2202
2000.000000	109.449	-192.7677
2030.000000	109.525	-193.4245
2060.000000	109.605	-194.1069
2090.000000	109.688	-194.8165
2120.000000	109.772	-195.5576
2140.000000	109.829	-196.0661
2180.000000	109.947	-197.1009
2200.000000	110.008	-197.6257
2240.000000	110.133	-198.6988
2270.000000	110.226	-199.5334
2300.000000	110.321	-200.4079
2330.000000	110.416	-201.3158
2360.000000	110.511	-202.2520
2400.000000	110.636	-203.5440
2430.000000	110.729	-204.5365
2470.000000	110.852	-205.8873
2500.000000	110.943	-206.9262
2540.000000	111.062	-208.3515
2580.000000	111.177	-209.8182
2620.000000	111.287	-211.3355
2650.000000	111.366	-212.5020
2690.000000	111.468	-214.0721
2720.000000	111.542	-215.2526
2760.000000	111.638	-216.8296
2800.000000	111.732	-218.4196
2850.000000	111.851	-220.4720
2900.000000	111.966	-222.6455
2950.000000	112.069	-224.9211
3000.000000	112.157	-227.2509
3040.000000	112.218	-229.1421
3070.000000	112.258	-230.5693
3110.000000	112.303	-232.4731
3150.000000	112.340	-234.3794
3200.000000	112.375	-236.7686
3250.000000	112.398	-239.1643
3300.000000	112.406	-241.5791
3350.000000	112.404	-243.9942
3400.000000	112.392	-246.3735
3450.000000	112.371	-248.7049
3500.000000	112.341	-250.9993
3550.000000	112.301	-253.2637
3600.000000	112.251	-255.5078
3650.000000	112.194	-257.7462
3700.000000	112.131	-259.9700
3750.000000	112.061	-262.1577
3820.000000	111.951	-265.1577
3870.000000	111.865	-267.2579
3950.000000	111.718	-270.5348
4000.000000	111.623	-272.5314
4060.000000	111.505	-274.8833
4120.000000	111.380	-277.1802
4180.000000	111.250	-279.4028
4250.000000	111.093	-281.8952
4310.000000	110.955	-283.9763
4370.000000	110.813	-286.0158
4440.000000	110.641	-288.3437
4500.000000	110.492	-290.2624
4550.000000	110.369	-291.7938
4620.000000	110.199	-293.8585
4680.000000	110.053	-295.5851
4750.000000	109.882	-297.5686
4820.000000	109.711	-299.5163
4870.000000	109.588	-300.8793
4940.000000	109.413	-302.7377
5000.000000	109.263	-304.2751
5080.000000	109.064	-306.2745
5150.000000	108.888	-307.9962
5220.000000	108.709	-309.6772
5300.000000	108.503	-311.5446
5380.000000	108.298	-313.3393
5450.000000	108.122	-314.8542
5520.000000	107.947	-316.3392
5600.000000	107.748	-318.0211
5700.000000	107.499	-320.0694
5800.000000	107.256	-321.9630
5900.000000	107.016	-323.6940
6000.000000	106.788	-325.2947
6080.000000	106.616	-326.4755
6150.000000	106.472	-327.4296
6220.000000	106.338	-328.3110
6300.000000	106.194	-329.2465
6400.000000	106.027	-330.3260
6500.000000	105.878	-331.3246
6600.000000	105.750	-332.2802
6700.000000	105.639	-333.2058
6800.000000	105.551	-334.0726
6900.000000	105.487	-334.8918
7000.000000	105.446	-335.6998
7100.000000	105.431	-336.5343
7200.000000	105.444	-337.4367
7300.000000	105.476	-338.4457
7400.000000	105.517	-339.5454
7500.000000	105.566	-340.6895
7620.000000	105.647	-342.1383
7750.000000	105.763	-343.8517
7880.000000	105.909	-345.6714
8000.000000	106.075	-347.4218
8120.000000	106.283	-349.2327
8250.000000	106.583	-351.2625
8380.000000	106.997	-353.4944
8500.000000	107.487	-356.0736
8620.000000	108.070	-359.4814
8750.000000	108.772	-364.4473
8850.000000	109.308	-369.4078
9000.000000	109.987	-378.9041
9120.000000	110.326	-388.0510
9250.000000	110.413	-398.8659
9380.000000	110.188	-409.7974
9500.000000	109.725	-419.3631
9620.000000	109.054	-427.9995
9750.000000	108.154	-436.0091
9880.000000	107.146	-442.4973
10000.000000	106.184	-447.1789
10150.000000	105.014	-451.5123
10300.000000	103.928	-454.5558
10440.000000	103.012	-456.5647
10600.000000	102.085	-458.1668
10750.000000	101.327	-459.1897
10900.000000	100.670	-459.9023
11060.000000	100.070	-460.4691
11200.000000	99.619	-460.8605
11380.000000	99.118	-461.2872
11500.000000	98.817	-461.5797
11720.000000	98.311	-462.0359
11800.000000	98.140	-462.0976
12060.000000	97.662	-461.5832
12200.000000	97.497	-460.8397
12410.000000	97.420	-459.3940
12500.000000	97.450	-458.7498
12650.000000	97.579	-457.7306
12800.000000	97.804	-456.8122
13150.000000	98.752	-455.2498
13200.000000	98.942	-455.1403
13400.000000	99.867	-455.0821
13600.000000	101.102	-455.8759
13800.000000	102.726	-458.2576
14000.000000	104.761	-463.7007
14300.000000	107.984	-483.4241
14500.000000	109.264	-507.3581
14750.000000	108.890	-542.0475
15000.000000	106.603	-567.8239
15250.000000	103.641	-581.8571
15500.000000	100.970	-589.0460
15750.000000	98.835	-592.9979
16000.000000	97.161	-595.3563
16250.000000	95.837	-596.9985
16500.000000	94.789	-598.3577
16750.000000	93.975	-599.6624
17000.000000	93.354	-601.1222
17250.000000	92.891	-602.8243
17500.000000	92.565	-604.7792
17750.000000	92.353	-607.1125
18000.000000	92.242	-609.9819
18250.000000	92.221	-613.5605
18500.000000	92.275	-618.0128
18750.000000	92.375	-623.6057
19000.000000	92.469	-630.6465
19250.000000	92.484	-639.3987
19500.000000	92.329	-649.9564
19750.000000	91.912	-662.0400
20000.000000	91.147	-675.0344
