* Measurement data measured by REW V5.20.9
* Source: Input device not selected, no input selected, L, volume: no control
* Format: 512k Log Swept Sine, 1 sweep at -12.0 dBFS with no timing reference
* Dated: Nov 22, 2023 2:31:07 PM
* REW Settings:
*  C-weighting compensation: Off
*  Target level: 75.0 dB
* Note: ; 
* Measurement: ssr azlavivid R
* Smoothing: 1/24 octave
* Frequency Step: 1/48 octave
* Start Frequency: 20.000 Hz
*
* Freq(Hz)	SPL(dB)	Phase(degrees)
20.000000	98.418	-102.1359
20.299999	98.460	-102.9679
20.600000	98.510	-103.4456
20.900000	98.602	-103.6577
21.200001	98.754	-103.8499
21.400000	98.878	-104.1196
21.799999	99.138	-105.0965
22.000000	99.250	-105.7846
22.400000	99.402	-107.3214
22.700001	99.456	-108.3277
23.000000	99.485	-109.0029
23.299999	99.524	-109.3575
23.600000	99.594	-109.5305
24.000000	99.743	-109.7783
24.299999	99.874	-110.1606
24.700001	100.035	-110.9629
25.000000	100.128	-111.6728
25.400000	100.214	-112.5795
25.799999	100.278	-113.3353
26.200001	100.340	-113.9749
26.500000	100.386	-114.4246
26.900000	100.446	-114.9998
27.200001	100.489	-115.3928
27.600000	100.550	-115.8456
28.000000	100.629	-116.2615
28.500000	100.753	-116.8903
29.000000	100.878	-117.7564
29.500000	100.978	-118.7734
30.000000	101.049	-119.7489
30.400000	101.096	-120.4263
30.700001	101.132	-120.8739
31.100000	101.185	-121.4138
31.500000	101.247	-121.9214
32.000000	101.336	-122.5768
32.500000	101.429	-123.3243
33.000000	101.508	-124.1549
33.500000	101.566	-124.9674
34.000000	101.617	-125.6880
34.500000	101.672	-126.3801
35.000000	101.724	-127.1399
35.500000	101.755	-127.9245
36.000000	101.764	-128.5690
36.500000	101.778	-129.0021
37.000000	101.817	-129.3384
37.500000	101.874	-129.7105
38.200001	101.962	-130.2477
38.700001	102.039	-130.5642
39.500000	102.210	-131.2296
40.000000	102.314	-131.8820
40.599998	102.402	-132.7326
41.200001	102.468	-133.4288
41.799999	102.538	-134.0185
42.500000	102.620	-134.7471
43.099998	102.677	-135.3894
43.700001	102.724	-136.0145
44.400002	102.769	-136.7660
45.000000	102.793	-137.4030
45.500000	102.806	-137.8843
46.200001	102.826	-138.5037
46.799999	102.846	-139.0132
47.500000	102.874	-139.5497
48.200001	102.917	-140.0587
48.700001	102.955	-140.4491
49.400002	103.005	-140.9956
50.000000	103.051	-141.4175
50.799999	103.122	-141.9998
51.500000	103.174	-142.5651
52.200001	103.210	-143.0816
53.000000	103.246	-143.5897
53.799999	103.276	-144.0827
54.500000	103.299	-144.5057
55.200001	103.321	-144.9383
56.000000	103.345	-145.4621
57.000000	103.379	-146.1509
58.000000	103.414	-146.9035
59.000000	103.448	-147.5975
60.000000	103.499	-148.2430
60.799999	103.538	-148.8013
61.500000	103.563	-149.2587
62.200001	103.583	-149.6478
63.000000	103.606	-150.0474
64.000000	103.633	-150.5117
65.000000	103.670	-151.0475
66.000000	103.685	-151.8082
67.000000	103.657	-152.4273
68.000000	103.657	-152.7670
69.000000	103.698	-153.1955
70.000000	103.748	-153.7565
71.000000	103.796	-154.4408
72.000000	103.810	-155.1543
73.000000	103.803	-155.5956
74.000000	103.823	-155.8356
75.000000	103.869	-156.1690
76.199997	103.915	-156.7245
77.500000	103.945	-157.3410
78.800003	103.967	-157.9194
80.000000	103.982	-158.3771
81.199997	104.009	-158.8018
82.500000	104.032	-159.3698
83.800003	104.033	-159.8898
85.000000	104.026	-160.2853
86.199997	104.022	-160.6251
87.500000	104.028	-161.0356
88.500000	104.040	-161.4549
90.000000	104.056	-162.2567
91.199997	104.074	-162.9103
92.500000	104.097	-163.5699
93.800003	104.121	-163.9859
95.000000	104.154	-164.2156
96.199997	104.164	-164.4213
97.500000	104.124	-164.5472
98.800003	104.049	-164.3620
100.000000	104.052	-164.0722
101.500000	104.124	-164.7758
103.000000	104.113	-165.9292
104.400002	104.111	-166.6872
106.000000	104.133	-167.3682
107.500000	104.140	-167.8551
109.000000	104.129	-168.2319
110.599998	104.108	-168.6408
112.000000	104.099	-169.0213
113.800003	104.115	-169.5252
115.000000	104.139	-169.8403
117.199997	104.174	-170.4027
118.000000	104.177	-170.5845
120.599998	104.165	-171.0993
122.000000	104.166	-171.3637
124.099998	104.168	-171.8598
125.000000	104.163	-172.0784
126.500000	104.145	-172.4437
128.000000	104.123	-172.8096
131.500000	104.162	-173.5912
132.000000	104.182	-173.7023
134.000000	104.273	-174.2132
136.000000	104.288	-174.7774
138.000000	104.210	-174.9754
140.000000	104.139	-175.0902
143.000000	104.088	-175.7653
145.000000	104.077	-176.3026
147.500000	104.064	-176.7906
150.000000	104.048	-177.2068
152.500000	104.029	-177.6597
155.000000	104.022	-178.0666
157.500000	104.002	-178.4289
160.000000	103.966	-178.7377
162.500000	103.941	-179.1252
165.000000	103.929	-179.6079
167.500000	103.920	-180.0658
170.000000	103.903	-180.4903
172.500000	103.879	-180.8597
175.000000	103.868	-181.1850
177.500000	103.865	-181.5208
180.000000	103.850	-181.8736
182.500000	103.825	-182.2485
185.000000	103.795	-182.5848
187.500000	103.767	-182.8165
190.000000	103.743	-183.0601
192.500000	103.722	-183.3535
195.000000	103.714	-183.6114
197.500000	103.710	-183.7854
200.000000	103.692	-183.9670
203.000000	103.640	-184.3772
206.000000	103.591	-184.8139
209.000000	103.574	-185.2098
212.000000	103.552	-185.5610
214.000000	103.533	-185.7245
218.000000	103.500	-186.0214
220.000000	103.486	-186.1838
224.000000	103.452	-186.5828
227.000000	103.419	-186.8390
230.000000	103.390	-187.0737
233.000000	103.360	-187.3336
236.000000	103.329	-187.6300
240.000000	103.282	-188.0697
243.000000	103.246	-188.3411
247.000000	103.214	-188.6073
250.000000	103.197	-188.7621
254.000000	103.168	-188.9923
258.000000	103.125	-189.3074
262.000000	103.080	-189.5782
265.000000	103.050	-189.7508
269.000000	103.009	-189.9933
272.000000	102.974	-190.1673
276.000000	102.933	-190.4001
280.000000	102.895	-190.6507
285.000000	102.843	-190.8781
290.000000	102.801	-191.1125
295.000000	102.751	-191.4183
300.000000	102.691	-191.6788
304.000000	102.657	-191.8342
307.000000	102.636	-191.9749
311.000000	102.596	-192.1775
315.000000	102.555	-192.3323
320.000000	102.514	-192.5275
325.000000	102.469	-192.6628
330.000000	102.418	-192.7681
335.000000	102.364	-192.9544
340.000000	102.313	-193.1896
345.000000	102.266	-193.3840
350.000000	102.222	-193.4845
355.000000	102.175	-193.5428
360.000000	102.124	-193.6821
365.000000	102.071	-193.8608
370.000000	102.028	-193.9566
375.000000	101.987	-194.0209
382.000000	101.922	-194.1276
387.000000	101.873	-194.1685
395.000000	101.803	-194.1613
400.000000	101.767	-194.1635
406.000000	101.715	-194.3050
412.000000	101.653	-194.4256
418.000000	101.610	-194.4510
425.000000	101.566	-194.4732
431.000000	101.516	-194.4986
437.000000	101.457	-194.5123
444.000000	101.393	-194.5453
450.000000	101.349	-194.5698
455.000000	101.312	-194.5520
462.000000	101.256	-194.5215
468.000000	101.206	-194.4762
475.000000	101.152	-194.4013
482.000000	101.107	-194.3267
487.000000	101.074	-194.2890
494.000000	101.022	-194.2842
500.000000	100.974	-194.2633
508.000000	100.912	-194.1598
515.000000	100.861	-194.0618
522.000000	100.815	-193.9446
530.000000	100.764	-193.7829
538.000000	100.714	-193.5711
545.000000	100.669	-193.4063
552.000000	100.625	-193.2897
560.000000	100.580	-193.1525
570.000000	100.524	-192.9466
580.000000	100.473	-192.7177
590.000000	100.426	-192.4718
600.000000	100.372	-192.2575
608.000000	100.330	-192.0854
615.000000	100.294	-191.9003
622.000000	100.259	-191.6813
630.000000	100.223	-191.4388
640.000000	100.179	-191.1408
650.000000	100.131	-190.8424
660.000000	100.089	-190.5400
670.000000	100.047	-190.2289
680.000000	100.008	-189.9058
690.000000	99.975	-189.5534
700.000000	99.946	-189.1920
710.000000	99.916	-188.8274
720.000000	99.887	-188.4208
730.000000	99.861	-187.9822
740.000000	99.839	-187.5739
750.000000	99.818	-187.1916
762.000000	99.795	-186.6960
775.000000	99.776	-186.1238
788.000000	99.764	-185.5596
800.000000	99.761	-185.0072
812.000000	99.760	-184.4390
825.000000	99.759	-183.8344
838.000000	99.764	-183.1926
850.000000	99.779	-182.5792
862.000000	99.797	-181.9767
875.000000	99.824	-181.3302
885.000000	99.854	-180.8452
900.000000	99.902	-180.1349
912.000000	99.943	-179.5746
925.000000	99.993	-178.9906
938.000000	100.048	-178.4350
950.000000	100.106	-177.9319
962.000000	100.169	-177.4608
975.000000	100.239	-176.9972
988.000000	100.315	-176.5614
1000.000000	100.389	-176.1818
1015.000000	100.480	-175.7152
1030.000000	100.570	-175.2846
1044.000000	100.654	-174.9044
1060.000000	100.752	-174.4992
1075.000000	100.843	-174.1494
1090.000000	100.940	-173.8097
1106.000000	101.051	-173.4550
1120.000000	101.151	-173.1529
1138.000000	101.287	-172.8188
1150.000000	101.383	-172.6383
1172.000000	101.564	-172.3649
1180.000000	101.630	-172.2984
1206.000000	101.844	-172.2322
1220.000000	101.959	-172.2661
1241.000000	102.130	-172.3773
1250.000000	102.199	-172.4470
1265.000000	102.310	-172.5889
1280.000000	102.415	-172.7549
1315.000000	102.637	-173.2280
1320.000000	102.667	-173.3038
1340.000000	102.780	-173.6134
1360.000000	102.885	-173.9207
1380.000000	102.985	-174.2268
1400.000000	103.078	-174.5077
1430.000000	103.213	-174.8639
1450.000000	103.303	-175.0914
1475.000000	103.418	-175.3821
1500.000000	103.532	-175.6683
1525.000000	103.645	-175.9662
1550.000000	103.758	-176.2740
1575.000000	103.871	-176.5769
1600.000000	103.986	-176.8796
1625.000000	104.100	-177.1980
1650.000000	104.211	-177.5169
1675.000000	104.322	-177.8386
1700.000000	104.433	-178.1757
1725.000000	104.543	-178.5092
1750.000000	104.650	-178.8504
1775.000000	104.761	-179.1976
1800.000000	104.873	-179.5296
1825.000000	104.988	-179.8569
1850.000000	105.107	-180.1839
1875.000000	105.227	-180.5109
1900.000000	105.349	-180.8450
1925.000000	105.471	-181.1857
1950.000000	105.597	-181.5290
1975.000000	105.727	-181.8862
2000.000000	105.859	-182.2600
2030.000000	106.022	-182.7141
2060.000000	106.191	-183.1786
2090.000000	106.364	-183.6676
2120.000000	106.541	-184.1915
2140.000000	106.662	-184.5575
2180.000000	106.913	-185.3252
2200.000000	107.042	-185.7298
2240.000000	107.306	-186.5969
2270.000000	107.511	-187.3119
2300.000000	107.721	-188.0854
2330.000000	107.936	-188.9260
2360.000000	108.156	-189.8419
2400.000000	108.453	-191.1846
2430.000000	108.678	-192.3023
2470.000000	108.974	-193.9527
2500.000000	109.194	-195.2992
2540.000000	109.480	-197.2398
2580.000000	109.755	-199.3455
2620.000000	110.014	-201.5970
2650.000000	110.195	-203.3681
2690.000000	110.417	-205.8350
2720.000000	110.569	-207.7581
2760.000000	110.752	-210.3989
2800.000000	110.913	-213.1068
2850.000000	111.080	-216.5694
2900.000000	111.209	-220.0800
2950.000000	111.302	-223.5974
3000.000000	111.361	-227.1079
3040.000000	111.386	-229.8924
3070.000000	111.391	-231.9534
3110.000000	111.381	-234.6644
3150.000000	111.352	-237.3322
3200.000000	111.291	-240.5841
3250.000000	111.204	-243.7327
3300.000000	111.096	-246.7667
3350.000000	110.972	-249.6461
3400.000000	110.834	-252.3600
3450.000000	110.685	-254.9241
3500.000000	110.528	-257.3526
3550.000000	110.364	-259.6394
3600.000000	110.196	-261.7944
3650.000000	110.028	-263.8401
3700.000000	109.859	-265.7750
3750.000000	109.690	-267.6031
3820.000000	109.458	-270.0100
3870.000000	109.296	-271.6207
3950.000000	109.046	-273.9917
4000.000000	108.894	-275.3625
4060.000000	108.719	-276.9143
4120.000000	108.554	-278.3491
4180.000000	108.400	-279.7047
4250.000000	108.233	-281.2431
4310.000000	108.096	-282.5269
4370.000000	107.967	-283.7670
4440.000000	107.830	-285.1517
4500.000000	107.722	-286.2791
4550.000000	107.637	-287.1828
4620.000000	107.526	-288.4131
4680.000000	107.440	-289.4366
4750.000000	107.351	-290.6004
4820.000000	107.274	-291.7230
4870.000000	107.225	-292.4987
4940.000000	107.166	-293.5633
5000.000000	107.124	-294.4557
5080.000000	107.079	-295.6244
5150.000000	107.052	-296.6472
5220.000000	107.033	-297.6777
5300.000000	107.023	-298.8777
5380.000000	107.023	-300.1166
5450.000000	107.031	-301.2220
5520.000000	107.050	-302.3362
5600.000000	107.079	-303.6391
5700.000000	107.123	-305.3625
5800.000000	107.179	-307.1955
5900.000000	107.245	-309.1180
6000.000000	107.316	-311.1478
6080.000000	107.374	-312.8382
6150.000000	107.426	-314.3556
6220.000000	107.478	-315.9119
6300.000000	107.536	-317.7390
6400.000000	107.612	-320.1028
6500.000000	107.688	-322.5631
6600.000000	107.766	-325.1354
6700.000000	107.845	-327.8207
6800.000000	107.918	-330.6245
6900.000000	107.982	-333.5504
7000.000000	108.038	-336.5616
7100.000000	108.087	-339.6185
7200.000000	108.126	-342.7398
7300.000000	108.154	-345.9627
7400.000000	108.163	-349.2781
7500.000000	108.151	-352.6195
7620.000000	108.110	-356.5740
7750.000000	108.040	-360.7664
7880.000000	107.950	-364.8355
8000.000000	107.864	-368.4247
8120.000000	107.793	-371.8325
8250.000000	107.745	-375.3557
8380.000000	107.744	-378.8156
8500.000000	107.794	-382.1025
8620.000000	107.891	-385.6453
8750.000000	108.038	-389.9454
8850.000000	108.171	-393.6841
9000.000000	108.378	-400.1008
9120.000000	108.512	-405.9662
9250.000000	108.583	-413.0333
9380.000000	108.535	-420.7189
9500.000000	108.353	-428.1465
9620.000000	108.021	-435.6210
9750.000000	107.496	-443.4426
9880.000000	106.826	-450.6725
10000.000000	106.110	-456.6284
10150.000000	105.135	-462.9659
10300.000000	104.126	-468.0780
10440.000000	103.192	-471.9034
10600.000000	102.159	-475.4078
10750.000000	101.239	-478.0408
10900.000000	100.375	-480.1380
11060.000000	99.522	-481.8603
11200.000000	98.827	-483.0292
11380.000000	98.001	-484.1873
11500.000000	97.495	-484.7957
11720.000000	96.644	-485.6949
11800.000000	96.359	-485.9612
12060.000000	95.514	-486.6619
12200.000000	95.106	-486.9698
12410.000000	94.547	-487.3274
12500.000000	94.327	-487.4294
12650.000000	93.983	-487.5305
12800.000000	93.669	-487.5576
13150.000000	93.064	-487.3774
13200.000000	92.991	-487.3356
13400.000000	92.727	-487.1627
13600.000000	92.510	-487.0416
13800.000000	92.345	-487.0004
14000.000000	92.234	-486.9783
14300.000000	92.168	-486.9910
14500.000000	92.200	-487.1576
14750.000000	92.336	-487.6212
15000.000000	92.585	-488.3432
15250.000000	92.951	-489.3099
15500.000000	93.463	-490.5376
15750.000000	94.143	-492.1327
16000.000000	95.016	-494.3574
16250.000000	96.121	-497.6527
16500.000000	97.502	-502.6770
16750.000000	99.145	-510.6390
17000.000000	100.844	-523.5867
17250.000000	102.086	-543.4834
17500.000000	102.268	-568.7496
17750.000000	101.161	-592.9495
18000.000000	99.083	-610.7151
18250.000000	96.609	-621.7167
18500.000000	94.174	-628.0563
18750.000000	91.952	-631.5397
19000.000000	89.962	-633.2234
19250.000000	88.159	-633.7189
19500.000000	86.495	-633.2944
19750.000000	84.922	-631.9557
20000.000000	83.377	-629.7118
