* Measurement data measured by REW V5.20.5
* Source: Input device not selected, no input selected, R, volume: no control
* Format: 512k Log Swept Sine, 1 sweep at -12.0 dBFS with no timing reference
* Dated: Oct 1, 2022 8:25:58 PM
* REW Settings:
*  C-weighting compensation: Off
*  Target level: 75.0 dB
* Note: ; 
* Measurement: supernova cp500 L
* Smoothing: 1/12 octave
* Frequency Step: 1/48 octave
* Start Frequency: 20.000 Hz
*
* Freq(Hz)	SPL(dB)	Phase(degrees)
20.000000	111.865	191.7911
20.299999	111.884	190.9986
20.600000	111.903	190.1408
20.900000	111.915	189.2163
21.200001	111.916	188.2584
21.400000	111.908	187.6369
21.799999	111.884	186.4920
22.000000	111.873	185.9832
22.400000	111.869	185.0682
22.700001	111.889	184.3837
23.000000	111.924	183.5948
23.299999	111.959	182.6481
23.600000	111.977	181.5690
24.000000	111.952	180.0785
24.299999	111.894	179.1132
24.700001	111.786	178.2515
25.000000	111.712	177.9730
25.400000	111.665	177.9675
25.799999	111.696	178.0533
26.200001	111.784	177.8981
26.500000	111.859	177.5338
26.900000	111.938	176.7640
27.200001	111.970	176.0813
27.600000	111.975	175.1861
28.000000	111.953	174.4244
28.500000	111.916	173.6873
29.000000	111.895	173.0824
29.500000	111.901	172.4588
30.000000	111.933	171.6477
30.400000	111.965	170.7673
30.700001	111.982	169.9541
31.100000	111.979	168.7257
31.500000	111.935	167.4813
32.000000	111.835	166.2124
32.500000	111.737	165.4763
33.000000	111.713	165.1006
33.500000	111.781	164.6091
34.000000	111.886	163.6007
34.500000	111.946	162.1268
35.000000	111.923	160.5992
35.500000	111.841	159.4397
36.000000	111.752	158.7357
36.500000	111.690	158.2893
37.000000	111.651	157.8753
37.500000	111.617	157.4469
38.200001	111.567	156.9566
38.700001	111.546	156.7015
39.500000	111.548	156.2395
40.000000	111.557	155.8701
40.599998	111.565	155.4133
41.200001	111.575	154.9769
41.799999	111.580	154.5377
42.500000	111.561	154.0830
43.099998	111.523	153.8390
43.700001	111.469	153.7007
44.400002	111.364	153.7056
45.000000	111.236	154.1539
45.500000	111.157	154.9695
46.200001	111.188	156.2273
46.799999	111.330	156.5042
47.500000	111.472	155.4389
48.200001	111.497	153.5301
48.700001	111.461	152.0480
49.400002	111.378	149.9364
50.000000	111.280	148.1423
50.799999	111.123	146.1122
51.500000	111.011	144.8351
52.200001	110.954	143.8451
53.000000	110.932	142.8753
53.799999	110.928	142.0679
54.500000	110.927	141.4681
55.200001	110.918	140.9232
56.000000	110.894	140.3310
57.000000	110.845	139.5297
58.000000	110.769	138.5804
59.000000	110.669	137.6120
60.000000	110.577	136.7966
60.799999	110.537	136.2031
61.500000	110.521	135.6317
62.200001	110.510	134.9970
63.000000	110.487	134.2668
64.000000	110.450	133.4255
65.000000	110.409	132.5938
66.000000	110.355	131.7263
67.000000	110.292	130.9140
68.000000	110.243	130.1906
69.000000	110.214	129.4384
70.000000	110.180	128.6553
71.000000	110.132	127.9901
72.000000	110.079	127.4440
73.000000	110.019	126.9632
74.000000	109.957	126.5269
75.000000	109.904	126.0540
76.199997	109.850	125.3596
77.500000	109.796	124.5140
78.800003	109.752	123.7998
80.000000	109.749	123.2438
81.199997	109.776	122.4813
82.500000	109.777	121.3156
83.800003	109.723	120.1087
85.000000	109.656	119.1862
86.199997	109.607	118.4200
87.500000	109.577	117.6042
88.500000	109.550	116.9402
90.000000	109.482	116.0143
91.199997	109.418	115.4064
92.500000	109.366	114.8191
93.800003	109.346	114.1860
95.000000	109.345	113.5580
96.199997	109.351	112.9905
97.500000	109.364	112.4758
98.800003	109.375	111.9493
100.000000	109.358	111.3261
101.500000	109.279	110.4354
103.000000	109.174	109.5854
104.400002	109.096	108.7817
106.000000	109.039	107.8134
107.500000	108.999	106.9345
109.000000	108.956	106.1121
110.599998	108.895	105.2838
112.000000	108.832	104.5992
113.800003	108.767	103.7407
115.000000	108.741	103.1458
117.199997	108.714	102.0250
118.000000	108.703	101.6342
120.599998	108.645	100.5051
122.000000	108.605	99.9519
124.099998	108.545	99.0718
125.000000	108.520	98.6636
126.500000	108.477	97.9637
128.000000	108.435	97.2787
131.500000	108.359	95.8114
132.000000	108.353	95.6068
134.000000	108.334	94.7715
136.000000	108.314	93.9326
138.000000	108.284	93.1272
140.000000	108.236	92.3411
143.000000	108.144	91.2380
145.000000	108.089	90.5369
147.500000	108.032	89.6358
150.000000	107.977	88.7133
152.500000	107.924	87.7866
155.000000	107.881	86.8789
157.500000	107.846	86.0367
160.000000	107.809	85.2630
162.500000	107.766	84.4993
165.000000	107.719	83.6927
167.500000	107.675	82.8548
170.000000	107.638	82.0240
172.500000	107.606	81.2144
175.000000	107.570	80.4297
177.500000	107.530	79.6744
180.000000	107.490	78.9359
182.500000	107.452	78.1998
185.000000	107.419	77.4688
187.500000	107.386	76.7518
190.000000	107.348	76.0539
192.500000	107.308	75.3777
195.000000	107.270	74.7214
197.500000	107.236	74.0791
200.000000	107.204	73.4417
203.000000	107.169	72.6718
206.000000	107.135	71.9019
209.000000	107.102	71.1453
212.000000	107.066	70.4031
214.000000	107.042	69.9136
218.000000	106.991	68.9463
220.000000	106.966	68.4723
224.000000	106.918	67.5519
227.000000	106.889	66.8833
230.000000	106.865	66.2285
233.000000	106.844	65.5840
236.000000	106.825	64.9449
240.000000	106.800	64.0737
243.000000	106.780	63.3941
247.000000	106.749	62.5310
250.000000	106.722	61.9842
254.000000	106.684	61.3534
258.000000	106.649	60.7275
262.000000	106.621	60.0601
265.000000	106.602	59.5305
269.000000	106.577	58.7996
272.000000	106.557	58.2428
276.000000	106.529	57.5030
280.000000	106.501	56.7978
285.000000	106.470	55.9977
290.000000	106.443	55.2455
295.000000	106.416	54.4895
300.000000	106.389	53.7251
304.000000	106.368	53.1238
307.000000	106.353	52.6875
311.000000	106.333	52.1290
315.000000	106.312	51.5983
320.000000	106.287	50.9640
325.000000	106.266	50.3309
330.000000	106.246	49.6801
335.000000	106.226	49.0269
340.000000	106.207	48.3973
345.000000	106.188	47.8075
350.000000	106.171	47.2577
355.000000	106.153	46.7337
360.000000	106.135	46.2136
365.000000	106.119	45.6838
370.000000	106.106	45.1412
375.000000	106.095	44.5890
382.000000	106.080	43.8259
387.000000	106.066	43.3094
395.000000	106.039	42.5476
400.000000	106.025	42.1043
406.000000	106.009	41.5837
412.000000	105.995	41.0688
418.000000	105.979	40.5718
425.000000	105.961	40.0159
431.000000	105.948	39.5414
437.000000	105.935	39.0624
444.000000	105.920	38.5116
450.000000	105.907	38.0654
455.000000	105.899	37.7175
462.000000	105.890	37.2505
468.000000	105.882	36.8538
475.000000	105.870	36.4003
482.000000	105.853	35.9632
487.000000	105.839	35.6581
494.000000	105.820	35.2409
500.000000	105.807	34.8975
508.000000	105.798	34.4651
515.000000	105.793	34.1069
522.000000	105.787	33.7603
530.000000	105.776	33.3743
538.000000	105.764	33.0012
545.000000	105.756	32.6869
552.000000	105.749	32.3847
560.000000	105.743	32.0593
570.000000	105.738	31.6782
580.000000	105.732	31.3022
590.000000	105.725	30.9189
600.000000	105.715	30.5351
608.000000	105.708	30.2404
615.000000	105.704	30.0064
622.000000	105.702	29.8011
630.000000	105.701	29.5920
640.000000	105.701	29.3421
650.000000	105.700	29.0885
660.000000	105.698	28.8336
670.000000	105.698	28.5865
680.000000	105.700	28.3575
690.000000	105.706	28.1557
700.000000	105.713	27.9860
710.000000	105.722	27.8437
720.000000	105.730	27.7150
730.000000	105.738	27.5864
740.000000	105.745	27.4547
750.000000	105.755	27.3295
762.000000	105.769	27.2035
775.000000	105.788	27.0993
788.000000	105.808	27.0147
800.000000	105.827	26.9452
812.000000	105.847	26.8952
825.000000	105.868	26.8869
838.000000	105.893	26.9406
850.000000	105.921	27.0442
862.000000	105.958	27.1885
875.000000	106.006	27.3632
885.000000	106.048	27.4927
900.000000	106.124	27.6658
912.000000	106.194	27.7802
925.000000	106.278	27.8798
938.000000	106.370	27.9667
950.000000	106.459	28.0447
962.000000	106.553	28.1152
975.000000	106.658	28.1664
988.000000	106.769	28.1747
1000.000000	106.875	28.1404
1015.000000	107.011	28.0507
1030.000000	107.150	27.9195
1044.000000	107.282	27.7637
1060.000000	107.435	27.5468
1075.000000	107.581	27.3003
1090.000000	107.727	26.9993
1106.000000	107.883	26.6040
1120.000000	108.020	26.1938
1138.000000	108.194	25.5929
1150.000000	108.308	25.1569
1172.000000	108.509	24.3037
1180.000000	108.580	23.9793
1206.000000	108.801	22.8765
1220.000000	108.915	22.2483
1241.000000	109.081	21.2548
1250.000000	109.149	20.8123
1265.000000	109.259	20.0607
1280.000000	109.364	19.3010
1315.000000	109.592	17.5328
1320.000000	109.622	17.2818
1340.000000	109.739	16.2790
1360.000000	109.851	15.2734
1380.000000	109.960	14.2649
1400.000000	110.067	13.2575
1430.000000	110.219	11.7640
1450.000000	110.315	10.7908
1475.000000	110.429	9.5979
1500.000000	110.537	8.4174
1525.000000	110.642	7.2346
1550.000000	110.744	6.0482
1575.000000	110.844	4.8697
1600.000000	110.943	3.7080
1625.000000	111.041	2.5637
1650.000000	111.138	1.4283
1675.000000	111.237	0.2848
1700.000000	111.338	-0.8777
1725.000000	111.442	-2.0585
1750.000000	111.546	-3.2535
1775.000000	111.650	-4.4567
1800.000000	111.749	-5.6610
1825.000000	111.844	-6.8630
1850.000000	111.935	-8.0643
1875.000000	112.024	-9.2710
1900.000000	112.113	-10.4914
1925.000000	112.203	-11.7315
1950.000000	112.293	-12.9902
1975.000000	112.383	-14.2652
2000.000000	112.473	-15.5597
2030.000000	112.577	-17.1472
2060.000000	112.677	-18.7779
2090.000000	112.772	-20.4568
2120.000000	112.858	-22.1846
2140.000000	112.910	-23.3587
2180.000000	113.001	-25.7330
2200.000000	113.041	-26.9215
2240.000000	113.107	-29.2901
2270.000000	113.147	-31.0630
2300.000000	113.180	-32.8347
2330.000000	113.207	-34.6013
2360.000000	113.228	-36.3606
2400.000000	113.245	-38.6946
2430.000000	113.246	-40.4286
2470.000000	113.234	-42.7009
2500.000000	113.214	-44.3706
2540.000000	113.174	-46.5546
2580.000000	113.125	-48.6956
2620.000000	113.073	-50.7966
2650.000000	113.033	-52.3423
2690.000000	112.978	-54.3488
2720.000000	112.933	-55.8004
2760.000000	112.865	-57.6527
2800.000000	112.789	-59.4054
2850.000000	112.691	-61.4606
2900.000000	112.602	-63.4032
2950.000000	112.535	-65.3249
3000.000000	112.486	-67.3191
3040.000000	112.448	-68.9838
3070.000000	112.415	-70.2587
3110.000000	112.360	-71.9638
3150.000000	112.293	-73.6431
3200.000000	112.198	-75.6724
3250.000000	112.097	-77.6047
3300.000000	111.996	-79.4367
3350.000000	111.896	-81.1876
3400.000000	111.797	-82.8863
3450.000000	111.699	-84.5498
3500.000000	111.599	-86.1808
3550.000000	111.499	-87.7709
3600.000000	111.401	-89.2990
3650.000000	111.312	-90.7433
3700.000000	111.238	-92.1094
3750.000000	111.179	-93.4393
3820.000000	111.117	-95.3412
3870.000000	111.080	-96.7719
3950.000000	111.028	-99.1924
4000.000000	110.999	-100.7706
4060.000000	110.967	-102.7078
4120.000000	110.936	-104.6635
4180.000000	110.901	-106.6165
4250.000000	110.852	-108.8960
4310.000000	110.801	-110.8656
4370.000000	110.742	-112.8480
4440.000000	110.667	-115.1494
4500.000000	110.599	-117.0874
4550.000000	110.540	-118.6667
4620.000000	110.458	-120.8071
4680.000000	110.388	-122.5712
4750.000000	110.308	-124.5757
4820.000000	110.232	-126.5821
4870.000000	110.180	-128.0451
4940.000000	110.110	-130.1495
5000.000000	110.050	-132.0030
5080.000000	109.962	-134.5334
5150.000000	109.874	-136.7835
5220.000000	109.772	-139.0438
5300.000000	109.639	-141.6197
5380.000000	109.489	-144.1794
5450.000000	109.347	-146.3994
5520.000000	109.196	-148.5901
5600.000000	109.015	-151.0384
5700.000000	108.773	-153.9798
5800.000000	108.506	-156.7732
5900.000000	108.210	-159.4122
6000.000000	107.888	-161.8490
6080.000000	107.619	-163.6060
6150.000000	107.383	-164.9858
6220.000000	107.152	-166.2268
6300.000000	106.898	-167.4982
6400.000000	106.591	-168.8723
6500.000000	106.292	-169.9705
6600.000000	106.005	-170.7678
6700.000000	105.742	-171.2832
6800.000000	105.518	-171.5616
6900.000000	105.344	-171.6585
7000.000000	105.229	-171.6472
7100.000000	105.177	-171.6357
7200.000000	105.186	-171.7708
7300.000000	105.245	-172.2133
7400.000000	105.330	-173.1064
7500.000000	105.411	-174.5506
7620.000000	105.443	-177.0236
7750.000000	105.302	-180.2603
7880.000000	104.897	-183.0348
8000.000000	104.290	-183.8079
8120.000000	103.594	-181.7958
8250.000000	103.067	-176.4503
8380.000000	103.152	-169.2824
8500.000000	103.854	-162.9101
8620.000000	104.969	-158.1125
8750.000000	106.390	-155.3571
8850.000000	107.523	-155.0378
9000.000000	109.169	-157.3758
9120.000000	110.369	-161.5467
9250.000000	111.477	-168.1645
9380.000000	112.323	-176.5802
9500.000000	112.837	-185.3791
9620.000000	113.085	-194.4690
9750.000000	113.082	-203.8536
9880.000000	112.853	-212.1458
10000.000000	112.503	-218.5872
10150.000000	111.973	-225.0266
10300.000000	111.426	-229.9455
10440.000000	110.956	-233.4942
10600.000000	110.501	-236.6974
10750.000000	110.161	-239.1848
10900.000000	109.897	-241.4119
11060.000000	109.685	-243.6756
11200.000000	109.547	-245.6489
11380.000000	109.420	-248.2490
11500.000000	109.361	-250.0522
11720.000000	109.297	-253.5883
11800.000000	109.286	-254.9730
12060.000000	109.285	-259.9750
12200.000000	109.290	-263.0592
12410.000000	109.260	-268.2494
12500.000000	109.223	-270.6625
12650.000000	109.115	-274.8692
12800.000000	108.939	-279.1999
13150.000000	108.243	-289.0048
13200.000000	108.112	-290.2971
13400.000000	107.527	-295.0258
13600.000000	106.869	-298.9207
13800.000000	106.186	-301.9290
14000.000000	105.523	-304.1588
14300.000000	104.646	-306.5638
14500.000000	104.160	-307.9656
14750.000000	103.617	-309.8573
15000.000000	103.071	-311.6891
15250.000000	102.535	-312.8119
15500.000000	102.136	-313.1642
15750.000000	101.973	-313.5015
16000.000000	102.011	-314.6180
16250.000000	102.141	-316.8550
16500.000000	102.262	-320.1589
16750.000000	102.310	-324.2415
17000.000000	102.264	-328.6798
17250.000000	102.136	-333.0538
17500.000000	101.971	-337.0862
17750.000000	101.833	-340.7473
18000.000000	101.782	-344.2859
18250.000000	101.860	-348.1872
18500.000000	102.065	-353.0829
18750.000000	102.334	-359.6353
19000.000000	102.550	-368.3491
19250.000000	102.574	-379.2662
19500.000000	102.288	-391.7303
19750.000000	101.635	-404.5610
20000.000000	100.635	-416.6616
