* Measurement data measured by REW V5.20.9
* Source: Input device not selected, no input selected, R, volume: no control
* Format: 512k Log Swept Sine, 1 sweep at -12.0 dBFS with no timing reference
* Dated: Sep 8, 2023 12:33:25 PM
* REW Settings:
*  C-weighting compensation: Off
*  Target level: 75.0 dB
* Note: ; 
* Measurement: u18ts2 L
* Smoothing: 1/24 octave
* Frequency Step: 1/48 octave
* Start Frequency: 20.000 Hz
*
* Freq(Hz)	SPL(dB)	Phase(degrees)
20.000000	110.327	55.5043
20.299999	110.366	54.6409
20.600000	110.406	53.9450
20.900000	110.461	53.3663
21.200001	110.540	52.7825
21.400000	110.603	52.3071
21.799999	110.726	51.0711
22.000000	110.773	50.3100
22.400000	110.808	48.6248
22.700001	110.778	47.4280
23.000000	110.710	46.5037
23.299999	110.637	45.9475
23.600000	110.592	45.7128
24.000000	110.617	45.6389
24.299999	110.703	45.4594
24.700001	110.873	44.7358
25.000000	110.998	43.7724
25.400000	111.115	42.0886
25.799999	111.158	40.3170
26.200001	111.145	38.7985
26.500000	111.126	37.9074
26.900000	111.115	36.9915
27.200001	111.128	36.3980
27.600000	111.168	35.5891
28.000000	111.214	34.6902
28.500000	111.254	33.5099
29.000000	111.275	32.4197
29.500000	111.291	31.4567
30.000000	111.314	30.5258
30.400000	111.330	29.7467
30.700001	111.338	29.1438
31.100000	111.339	28.3450
31.500000	111.335	27.5770
32.000000	111.327	26.6604
32.500000	111.321	25.7579
33.000000	111.316	24.8568
33.500000	111.311	23.9757
34.000000	111.311	23.1125
34.500000	111.312	22.2375
35.000000	111.307	21.3616
35.500000	111.293	20.5652
36.000000	111.281	19.9016
36.500000	111.286	19.3040
37.000000	111.302	18.6407
37.500000	111.310	17.8773
38.200001	111.291	16.8175
38.700001	111.269	16.1475
39.500000	111.236	15.0596
40.000000	111.202	14.3595
40.599998	111.151	13.6498
41.200001	111.125	13.0714
41.799999	111.129	12.3801
42.500000	111.125	11.3402
43.099998	111.098	10.5249
43.700001	111.086	9.8703
44.400002	111.103	8.9935
45.000000	111.094	8.0403
45.500000	111.048	7.3406
46.200001	110.974	6.7979
46.799999	110.959	6.5299
47.500000	110.978	5.8871
48.200001	110.949	4.9128
48.700001	110.887	4.3218
49.400002	110.798	3.8523
50.000000	110.761	3.5557
50.799999	110.741	2.9216
51.500000	110.708	2.2268
52.200001	110.664	1.6107
53.000000	110.626	0.9847
53.799999	110.596	0.3256
54.500000	110.563	-0.2698
55.200001	110.523	-0.8313
56.000000	110.472	-1.4028
57.000000	110.412	-2.0719
58.000000	110.349	-2.7659
59.000000	110.281	-3.4417
60.000000	110.219	-4.0693
60.799999	110.178	-4.5609
61.500000	110.148	-4.9981
62.200001	110.120	-5.4375
63.000000	110.088	-5.9174
64.000000	110.050	-6.4505
65.000000	110.017	-6.9432
66.000000	109.978	-7.4404
67.000000	109.929	-7.9152
68.000000	109.875	-8.3792
69.000000	109.818	-8.8960
70.000000	109.751	-9.4712
71.000000	109.680	-10.0424
72.000000	109.615	-10.5885
73.000000	109.561	-11.1174
74.000000	109.513	-11.6055
75.000000	109.465	-11.9927
76.199997	109.418	-12.2788
77.500000	109.374	-12.5360
78.800003	109.314	-12.8049
80.000000	109.249	-13.0731
81.199997	109.182	-13.4406
82.500000	109.109	-13.9565
83.800003	109.042	-14.5332
85.000000	108.991	-15.0535
86.199997	108.951	-15.5673
87.500000	108.906	-16.0615
88.500000	108.872	-16.3622
90.000000	108.821	-16.7261
91.199997	108.774	-16.9498
92.500000	108.718	-17.1282
93.800003	108.656	-17.2949
95.000000	108.591	-17.4581
96.199997	108.522	-17.6561
97.500000	108.443	-17.8992
98.800003	108.369	-18.1395
100.000000	108.313	-18.3502
101.500000	108.260	-18.6339
103.000000	108.215	-18.9595
104.400002	108.178	-19.2872
106.000000	108.140	-19.7003
107.500000	108.107	-20.0884
109.000000	108.073	-20.3871
110.599998	108.033	-20.5649
112.000000	107.989	-20.6674
113.800003	107.905	-20.8052
115.000000	107.839	-20.9315
117.199997	107.718	-21.3103
118.000000	107.677	-21.4606
120.599998	107.571	-21.8666
122.000000	107.526	-22.0316
124.099998	107.460	-22.2496
125.000000	107.433	-22.3442
126.500000	107.395	-22.5142
128.000000	107.365	-22.6807
131.500000	107.320	-22.8749
132.000000	107.313	-22.8788
134.000000	107.275	-22.8826
136.000000	107.214	-22.9235
138.000000	107.137	-23.0365
140.000000	107.054	-23.2240
143.000000	106.934	-23.5472
145.000000	106.865	-23.7925
147.500000	106.794	-24.1112
150.000000	106.741	-24.3884
152.500000	106.699	-24.6169
155.000000	106.657	-24.7802
157.500000	106.613	-24.9030
160.000000	106.568	-24.9865
162.500000	106.529	-25.0187
165.000000	106.492	-25.0122
167.500000	106.450	-24.9899
170.000000	106.399	-25.0276
172.500000	106.337	-25.1991
175.000000	106.270	-25.4857
177.500000	106.206	-25.7828
180.000000	106.152	-26.0022
182.500000	106.110	-26.1320
185.000000	106.077	-26.2075
187.500000	106.048	-26.2704
190.000000	106.022	-26.3434
192.500000	105.996	-26.4325
195.000000	105.963	-26.5164
197.500000	105.925	-26.5632
200.000000	105.883	-26.5694
203.000000	105.827	-26.5497
206.000000	105.771	-26.5625
209.000000	105.724	-26.6500
212.000000	105.689	-26.7933
214.000000	105.670	-26.9012
218.000000	105.634	-27.1345
220.000000	105.612	-27.2496
224.000000	105.555	-27.4274
227.000000	105.509	-27.5240
230.000000	105.468	-27.6127
233.000000	105.437	-27.6790
236.000000	105.416	-27.7131
240.000000	105.394	-27.7441
243.000000	105.371	-27.7951
247.000000	105.325	-27.9178
250.000000	105.279	-28.0323
254.000000	105.212	-28.1987
258.000000	105.155	-28.3297
262.000000	105.111	-28.3457
265.000000	105.080	-28.3143
269.000000	105.044	-28.2926
272.000000	105.015	-28.3138
276.000000	104.969	-28.4137
280.000000	104.923	-28.5825
285.000000	104.872	-28.7571
290.000000	104.826	-28.7853
295.000000	104.772	-28.6877
300.000000	104.709	-28.6392
304.000000	104.667	-28.7002
307.000000	104.647	-28.7942
311.000000	104.635	-28.9433
315.000000	104.631	-29.0703
320.000000	104.620	-29.1932
325.000000	104.592	-29.3058
330.000000	104.546	-29.4512
335.000000	104.492	-29.6254
340.000000	104.442	-29.8301
345.000000	104.406	-30.0319
350.000000	104.378	-30.1447
355.000000	104.350	-30.1473
360.000000	104.313	-30.1066
365.000000	104.267	-30.1057
370.000000	104.215	-30.1869
375.000000	104.163	-30.3385
382.000000	104.099	-30.5979
387.000000	104.064	-30.7672
395.000000	104.019	-30.9441
400.000000	103.992	-30.9998
406.000000	103.962	-31.0549
412.000000	103.930	-31.1300
418.000000	103.893	-31.2440
425.000000	103.841	-31.4130
431.000000	103.791	-31.5469
437.000000	103.738	-31.6432
444.000000	103.680	-31.6993
450.000000	103.636	-31.7062
455.000000	103.605	-31.6984
462.000000	103.566	-31.7034
468.000000	103.535	-31.7400
475.000000	103.496	-31.8184
482.000000	103.455	-31.9528
487.000000	103.425	-32.0908
494.000000	103.386	-32.2999
500.000000	103.360	-32.4373
508.000000	103.332	-32.5455
515.000000	103.311	-32.5972
522.000000	103.287	-32.6115
530.000000	103.252	-32.6068
538.000000	103.206	-32.6366
545.000000	103.160	-32.7045
552.000000	103.116	-32.7876
560.000000	103.071	-32.8610
570.000000	103.019	-32.9016
580.000000	102.969	-32.8999
590.000000	102.918	-32.8584
600.000000	102.869	-32.8307
608.000000	102.834	-32.8396
615.000000	102.806	-32.8752
622.000000	102.781	-32.9257
630.000000	102.754	-32.9690
640.000000	102.723	-32.9902
650.000000	102.688	-33.0002
660.000000	102.648	-32.9915
670.000000	102.603	-32.9404
680.000000	102.555	-32.8330
690.000000	102.502	-32.6921
700.000000	102.452	-32.5424
710.000000	102.407	-32.3945
720.000000	102.368	-32.2650
730.000000	102.338	-32.1520
740.000000	102.317	-32.0471
750.000000	102.302	-31.9684
762.000000	102.295	-31.9028
775.000000	102.295	-31.8015
788.000000	102.295	-31.6473
800.000000	102.292	-31.4782
812.000000	102.286	-31.2859
825.000000	102.279	-31.0422
838.000000	102.269	-30.7720
850.000000	102.258	-30.5242
862.000000	102.248	-30.2865
875.000000	102.243	-30.0411
885.000000	102.242	-29.8487
900.000000	102.249	-29.5215
912.000000	102.264	-29.2452
925.000000	102.296	-28.9708
938.000000	102.344	-28.7468
950.000000	102.399	-28.5973
962.000000	102.463	-28.5111
975.000000	102.539	-28.4713
988.000000	102.618	-28.4570
1000.000000	102.687	-28.4501
1015.000000	102.764	-28.4047
1030.000000	102.832	-28.3043
1044.000000	102.890	-28.2083
1060.000000	102.955	-28.1548
1075.000000	103.025	-28.1899
1090.000000	103.107	-28.3463
1106.000000	103.200	-28.6453
1120.000000	103.287	-28.9675
1138.000000	103.402	-29.3949
1150.000000	103.478	-29.6736
1172.000000	103.614	-30.1921
1180.000000	103.663	-30.3989
1206.000000	103.824	-31.2155
1220.000000	103.910	-31.7566
1241.000000	104.030	-32.6485
1250.000000	104.076	-33.0338
1265.000000	104.142	-33.6487
1280.000000	104.190	-34.2192
1315.000000	104.249	-35.4051
1320.000000	104.253	-35.5599
1340.000000	104.270	-36.1919
1360.000000	104.298	-36.9080
1380.000000	104.336	-37.7006
1400.000000	104.387	-38.5239
1430.000000	104.481	-39.7375
1450.000000	104.541	-40.4803
1475.000000	104.607	-41.3163
1500.000000	104.664	-42.1129
1525.000000	104.725	-42.9164
1550.000000	104.788	-43.7430
1575.000000	104.845	-44.6001
1600.000000	104.893	-45.4191
1625.000000	104.924	-46.1301
1650.000000	104.944	-46.7595
1675.000000	104.964	-47.3566
1700.000000	104.994	-47.9834
1725.000000	105.045	-48.6588
1750.000000	105.123	-49.3965
1775.000000	105.215	-50.1835
1800.000000	105.313	-50.9591
1825.000000	105.410	-51.6680
1850.000000	105.514	-52.3129
1875.000000	105.628	-52.9782
1900.000000	105.743	-53.7468
1925.000000	105.860	-54.5883
1950.000000	105.989	-55.4260
1975.000000	106.135	-56.2872
2000.000000	106.290	-57.2917
2030.000000	106.473	-58.7355
2060.000000	106.661	-60.3488
2090.000000	106.859	-62.1307
2120.000000	107.040	-64.1912
2140.000000	107.144	-65.7662
2180.000000	107.317	-69.3582
2200.000000	107.377	-71.2800
2240.000000	107.409	-75.1786
2270.000000	107.356	-78.0708
2300.000000	107.246	-80.7712
2330.000000	107.091	-83.1158
2360.000000	106.909	-85.0814
2400.000000	106.654	-87.1622
2430.000000	106.467	-88.3474
2470.000000	106.245	-89.5386
2500.000000	106.107	-90.2184
2540.000000	105.958	-90.9634
2580.000000	105.858	-91.6472
2620.000000	105.800	-92.2965
2650.000000	105.774	-92.7837
2690.000000	105.763	-93.5062
2720.000000	105.767	-94.1055
2760.000000	105.773	-94.9374
2800.000000	105.784	-95.7822
2850.000000	105.809	-96.9135
2900.000000	105.851	-98.2122
2950.000000	105.923	-99.6321
3000.000000	106.010	-101.1448
3040.000000	106.085	-102.4739
3070.000000	106.144	-103.5402
3110.000000	106.222	-105.0267
3150.000000	106.295	-106.5643
3200.000000	106.382	-108.5632
3250.000000	106.459	-110.6801
3300.000000	106.523	-112.9029
3350.000000	106.564	-115.1868
3400.000000	106.566	-117.5037
3450.000000	106.530	-119.8018
3500.000000	106.458	-122.0220
3550.000000	106.356	-124.1458
3600.000000	106.233	-126.1614
3650.000000	106.098	-128.0378
3700.000000	105.958	-129.7650
3750.000000	105.820	-131.3511
3820.000000	105.628	-133.3142
3870.000000	105.495	-134.5025
3950.000000	105.295	-136.1401
4000.000000	105.180	-137.0461
4060.000000	105.067	-138.0035
4120.000000	104.974	-138.8735
4180.000000	104.883	-139.6290
4250.000000	104.776	-140.1904
4310.000000	104.687	-140.4099
4370.000000	104.623	-140.4485
4440.000000	104.615	-140.3624
4500.000000	104.681	-140.3431
4550.000000	104.788	-140.4500
4620.000000	105.007	-140.8780
4680.000000	105.241	-141.6204
4750.000000	105.547	-143.0329
4820.000000	105.858	-145.0863
4870.000000	106.064	-146.9376
4940.000000	106.306	-149.9345
5000.000000	106.456	-152.7139
5080.000000	106.558	-156.5654
5150.000000	106.541	-159.9304
5220.000000	106.414	-163.0599
5300.000000	106.141	-166.0961
5380.000000	105.778	-168.3886
5450.000000	105.436	-169.7732
5520.000000	105.109	-170.6650
5600.000000	104.785	-171.1898
5700.000000	104.486	-171.2737
5800.000000	104.304	-170.9992
5900.000000	104.230	-170.5817
6000.000000	104.254	-170.2474
6080.000000	104.337	-170.1523
6150.000000	104.447	-170.2174
6220.000000	104.581	-170.4655
6300.000000	104.745	-171.0250
6400.000000	104.941	-172.1464
6500.000000	105.098	-173.7821
6600.000000	105.199	-175.9680
6700.000000	105.225	-178.5896
6800.000000	105.164	178.4537
6900.000000	105.017	175.3531
7000.000000	104.783	172.4269
7100.000000	104.462	169.9276
7200.000000	104.064	168.0482
7300.000000	103.608	166.9241
7400.000000	103.134	166.5948
7500.000000	102.705	167.0379
7620.000000	102.308	168.2615
7750.000000	101.958	169.9236
7880.000000	101.615	172.0839
8000.000000	101.320	174.6758
8120.000000	101.078	177.6909
8250.000000	100.909	-178.7749
8380.000000	100.880	-175.1292
8500.000000	101.015	-171.8331
8620.000000	101.306	-168.8008
8750.000000	101.772	-165.9695
8850.000000	102.216	-164.2055
9000.000000	102.986	-162.4540
9120.000000	103.668	-162.0307
9250.000000	104.434	-162.7195
9380.000000	105.182	-164.6119
9500.000000	105.812	-167.2645
9620.000000	106.359	-170.5856
9750.000000	106.832	-174.8388
9880.000000	107.154	-179.6683
10000.000000	107.316	175.4885
10150.000000	107.345	169.1148
10300.000000	107.192	162.6437
10440.000000	106.895	156.7462
10600.000000	106.397	150.4846
10750.000000	105.808	145.4010
10900.000000	105.124	141.3471
11060.000000	104.326	138.3109
11200.000000	103.606	136.7294
11380.000000	102.703	136.0099
11500.000000	102.138	136.2307
11720.000000	101.212	137.7119
11800.000000	100.918	138.5054
12060.000000	100.126	141.6284
12200.000000	99.809	143.4226
12410.000000	99.495	145.9542
12500.000000	99.424	146.9003
12650.000000	99.389	148.1371
12800.000000	99.461	148.8104
13150.000000	100.074	147.5408
13200.000000	100.207	146.9269
13400.000000	100.797	142.9630
13600.000000	101.355	136.1481
13800.000000	101.670	126.3660
14000.000000	101.546	114.5579
14300.000000	100.427	97.2524
14500.000000	99.268	88.1753
14750.000000	97.751	79.9697
15000.000000	96.500	74.2111
15250.000000	95.773	69.5050
15500.000000	95.753	64.3416
15750.000000	96.489	56.6108
16000.000000	97.640	43.6528
16250.000000	98.458	24.5643
16500.000000	98.392	3.8730
16750.000000	97.630	-11.7568
17000.000000	96.937	-20.6334
17250.000000	97.027	-25.6041
17500.000000	98.156	-30.9117
17750.000000	99.981	-41.6346
18000.000000	101.545	-62.5798
18250.000000	101.822	-92.8341
18500.000000	100.389	-122.7925
18750.000000	97.564	-143.3732
19000.000000	94.178	-154.2781
19250.000000	91.181	-161.7015
19500.000000	88.747	-170.7007
19750.000000	86.110	-178.6030
20000.000000	83.034	178.8557
