* Measurement data measured by REW V5.20.4
* Source: Microphone (USB Sound Device        ), MICROPHONE (Master Volume), L, volume: 0.750
* Format: 256k Log Swept Sine, 1 sweep at -12.0 dBFS with no timing reference
* Dated: 14-Oct-2023 19:30:31
* REW Settings:
*  C-weighting compensation: Off
*  Target level: 75.0 dB
* Note: 
* Measurement: Antlion Audio Kimura Duo L
* Smoothing: 1/12 octave
* Frequency Step: 1/48 octave
* Start Frequency: 20.300 Hz
*
* Freq(Hz)	SPL(dB)	Phase(degrees)
20.299999	79.490	153.1244
20.600000	79.472	152.9328
20.900000	79.424	152.5229
21.200001	79.365	152.0609
21.400000	79.320	151.7535
21.799999	79.223	151.1804
22.000000	79.174	150.9289
22.400000	79.087	150.4991
22.700001	79.034	150.2152
23.000000	78.994	149.9286
23.299999	78.960	149.6159
23.600000	78.930	149.2736
24.000000	78.885	148.7898
24.299999	78.845	148.4344
24.700001	78.786	148.0000
25.000000	78.739	147.7093
25.400000	78.675	147.3559
25.799999	78.612	147.0167
26.200001	78.549	146.6734
26.500000	78.502	146.4106
26.900000	78.439	146.0556
27.200001	78.392	145.7891
27.600000	78.330	145.4370
28.000000	78.269	145.0931
28.500000	78.193	144.6821
29.000000	78.117	144.2975
29.500000	78.039	143.9384
30.000000	77.960	143.6001
30.400000	77.897	143.3405
30.700001	77.850	143.1496
31.100000	77.791	142.8940
31.500000	77.735	142.6323
32.000000	77.669	142.2955
32.500000	77.605	141.9593
33.000000	77.542	141.6392
33.500000	77.479	141.3369
34.000000	77.414	141.0416
34.500000	77.345	140.7438
35.000000	77.274	140.4428
35.500000	77.201	140.1424
36.000000	77.131	139.8452
36.500000	77.061	139.5561
37.000000	76.991	139.2835
37.500000	76.918	139.0307
38.200001	76.812	138.6958
38.700001	76.735	138.4579
39.500000	76.619	138.0865
40.000000	76.554	137.8728
40.599998	76.484	137.6421
41.200001	76.415	137.4395
41.799999	76.344	137.2508
42.500000	76.259	136.9943
43.099998	76.189	136.6952
43.700001	76.124	136.3307
44.400002	76.048	135.8969
45.000000	75.976	135.5875
45.500000	75.904	135.4044
46.200001	75.782	135.2687
46.799999	75.667	135.2294
47.500000	75.539	135.1926
48.200001	75.435	135.1087
48.700001	75.377	135.0134
49.400002	75.313	134.8383
50.000000	75.261	134.6653
50.799999	75.179	134.4467
51.500000	75.095	134.2947
52.200001	75.009	134.1682
53.000000	74.918	134.0275
53.799999	74.840	133.8784
54.500000	74.775	133.7496
55.200001	74.709	133.6456
56.000000	74.629	133.5577
57.000000	74.526	133.4161
58.000000	74.418	133.2209
59.000000	74.309	133.0650
60.000000	74.206	132.9641
60.799999	74.125	132.8987
61.500000	74.056	132.8496
62.200001	73.990	132.8178
63.000000	73.920	132.8079
64.000000	73.839	132.7776
65.000000	73.742	132.6627
66.000000	73.619	132.5561
67.000000	73.491	132.5354
68.000000	73.379	132.5273
69.000000	73.284	132.4740
70.000000	73.201	132.3883
71.000000	73.129	132.2951
72.000000	73.063	132.1949
73.000000	72.984	132.1085
74.000000	72.886	132.0870
75.000000	72.782	132.1151
76.199997	72.667	132.1287
77.500000	72.557	132.1113
78.800003	72.447	132.1055
80.000000	72.341	132.0866
81.199997	72.237	132.0598
82.500000	72.131	132.0827
83.800003	72.030	132.1450
85.000000	71.937	132.1959
86.199997	71.846	132.2608
87.500000	71.744	132.3765
88.500000	71.663	132.4638
90.000000	71.542	132.5048
91.199997	71.450	132.4853
92.500000	71.354	132.5011
93.800003	71.261	132.6060
95.000000	71.179	132.7649
96.199997	71.096	132.9356
97.500000	71.005	133.0915
98.800003	70.913	133.2058
100.000000	70.833	133.2729
101.500000	70.742	133.2979
103.000000	70.657	133.3204
104.400002	70.574	133.4080
106.000000	70.475	133.5459
107.500000	70.378	133.6517
109.000000	70.288	133.7516
110.599998	70.196	133.8916
112.000000	70.114	134.0713
113.800003	70.003	134.5639
115.000000	69.916	135.3004
117.199997	69.662	138.2201
118.000000	69.533	139.6664
120.599998	69.240	141.7791
122.000000	69.260	140.2549
124.099998	69.327	137.5310
125.000000	69.328	136.7945
126.500000	69.299	136.1088
128.000000	69.241	135.8275
131.500000	69.064	135.7074
132.000000	69.040	135.7271
134.000000	68.947	135.8895
136.000000	68.858	136.1498
138.000000	68.761	136.4339
140.000000	68.667	136.6836
143.000000	68.550	136.9973
145.000000	68.471	137.2193
147.500000	68.357	137.5274
150.000000	68.238	137.8353
152.500000	68.128	138.1170
155.000000	68.030	138.3798
157.500000	67.936	138.6736
160.000000	67.838	138.9925
162.500000	67.737	139.2794
165.000000	67.631	139.5590
167.500000	67.526	139.8848
170.000000	67.428	140.2503
172.500000	67.344	140.6069
175.000000	67.264	140.9281
177.500000	67.176	141.2161
180.000000	67.073	141.4994
182.500000	66.965	141.8140
185.000000	66.860	142.1481
187.500000	66.763	142.4535
190.000000	66.679	142.7546
192.500000	66.607	143.1390
195.000000	66.535	143.6207
197.500000	66.455	144.1771
200.000000	66.364	144.7822
203.000000	66.255	145.5046
206.000000	66.164	146.1850
209.000000	66.092	146.8347
212.000000	66.028	147.4705
214.000000	65.985	147.8758
218.000000	65.909	148.5363
220.000000	65.885	148.7667
224.000000	65.856	149.0964
227.000000	65.833	149.3216
230.000000	65.792	149.5809
233.000000	65.734	149.8738
236.000000	65.667	150.1725
240.000000	65.577	150.5441
243.000000	65.511	150.8084
247.000000	65.424	151.1865
250.000000	65.360	151.5154
254.000000	65.276	151.9989
258.000000	65.193	152.4700
262.000000	65.108	152.8998
265.000000	65.044	153.2149
269.000000	64.957	153.6727
272.000000	64.891	154.0683
276.000000	64.802	154.6210
280.000000	64.718	155.1287
285.000000	64.628	155.7278
290.000000	64.552	156.3206
295.000000	64.476	156.8904
300.000000	64.388	157.5054
304.000000	64.315	158.0462
307.000000	64.265	158.4623
311.000000	64.207	159.0175
315.000000	64.151	159.5701
320.000000	64.073	160.2491
325.000000	63.990	160.9239
330.000000	63.915	161.6306
335.000000	63.852	162.3718
340.000000	63.795	163.1058
345.000000	63.733	163.7933
350.000000	63.667	164.4476
355.000000	63.598	165.0842
360.000000	63.528	165.6827
365.000000	63.462	166.2656
370.000000	63.402	166.8811
375.000000	63.348	167.5341
382.000000	63.272	168.4726
387.000000	63.219	169.1395
395.000000	63.138	170.1726
400.000000	63.086	170.7871
406.000000	63.025	171.5311
412.000000	62.973	172.3669
418.000000	62.928	173.2658
425.000000	62.872	174.2411
431.000000	62.828	174.9713
437.000000	62.794	175.6535
444.000000	62.764	176.4725
450.000000	62.733	177.2035
455.000000	62.703	177.8138
462.000000	62.659	178.6509
468.000000	62.622	179.3426
475.000000	62.583	-179.8686
482.000000	62.549	-179.0422
487.000000	62.527	-178.4034
494.000000	62.498	-177.4691
500.000000	62.474	-176.6844
508.000000	62.439	-175.7100
515.000000	62.410	-174.8909
522.000000	62.382	-174.0599
530.000000	62.354	-173.0945
538.000000	62.334	-172.1437
545.000000	62.317	-171.3136
552.000000	62.297	-170.4579
560.000000	62.270	-169.4674
570.000000	62.237	-168.2736
580.000000	62.215	-167.0732
590.000000	62.201	-165.8195
600.000000	62.193	-164.6078
608.000000	62.188	-163.6818
615.000000	62.182	-162.8765
622.000000	62.174	-162.0699
630.000000	62.166	-161.1507
640.000000	62.159	-159.9987
650.000000	62.158	-158.8139
660.000000	62.163	-157.5766
670.000000	62.171	-156.3152
680.000000	62.177	-155.0407
690.000000	62.185	-153.7365
700.000000	62.206	-152.3912
710.000000	62.236	-151.0179
720.000000	62.263	-149.6545
730.000000	62.284	-148.3182
740.000000	62.306	-146.9947
750.000000	62.335	-145.6638
762.000000	62.390	-144.0130
775.000000	62.479	-142.1306
788.000000	62.586	-140.1453
800.000000	62.696	-138.3049
812.000000	62.817	-136.5622
825.000000	62.964	-134.7585
838.000000	63.127	-133.0010
850.000000	63.291	-131.4616
862.000000	63.470	-130.0225
875.000000	63.677	-128.5732
885.000000	63.844	-127.5524
900.000000	64.103	-126.1812
912.000000	64.313	-125.1763
925.000000	64.538	-124.1514
938.000000	64.758	-123.2309
950.000000	64.958	-122.5195
962.000000	65.152	-121.9307
975.000000	65.353	-121.3643
988.000000	65.544	-120.8179
1000.000000	65.717	-120.3090
1015.000000	65.934	-119.6589
1030.000000	66.153	-119.0473
1044.000000	66.353	-118.5413
1060.000000	66.571	-118.0256
1075.000000	66.767	-117.5929
1090.000000	66.961	-117.1927
1106.000000	67.169	-116.7878
1120.000000	67.351	-116.4664
1138.000000	67.584	-116.1226
1150.000000	67.739	-115.9185
1172.000000	68.020	-115.5498
1180.000000	68.122	-115.4193
1206.000000	68.457	-115.0508
1220.000000	68.639	-114.8910
1241.000000	68.910	-114.6855
1250.000000	69.026	-114.6116
1265.000000	69.217	-114.5100
1280.000000	69.406	-114.4309
1315.000000	69.836	-114.3007
1320.000000	69.897	-114.2863
1340.000000	70.143	-114.2477
1360.000000	70.388	-114.2629
1380.000000	70.631	-114.3547
1400.000000	70.871	-114.5294
1430.000000	71.234	-114.9295
1450.000000	71.479	-115.2585
1475.000000	71.788	-115.7609
1500.000000	72.104	-116.4112
1525.000000	72.430	-117.2248
1550.000000	72.765	-118.1975
1575.000000	73.103	-119.3216
1600.000000	73.437	-120.5898
1625.000000	73.758	-122.0134
1650.000000	74.062	-123.6119
1675.000000	74.349	-125.3879
1700.000000	74.616	-127.3264
1725.000000	74.858	-129.4080
1750.000000	75.069	-131.6080
1775.000000	75.245	-133.8908
1800.000000	75.387	-136.2269
1825.000000	75.492	-138.5941
1850.000000	75.560	-140.9576
1875.000000	75.590	-143.2700
1900.000000	75.580	-145.4911
1925.000000	75.533	-147.5983
1950.000000	75.451	-149.5746
1975.000000	75.341	-151.4041
2000.000000	75.207	-153.0755
2030.000000	75.022	-154.8582
2060.000000	74.818	-156.3890
2090.000000	74.605	-157.6830
2120.000000	74.388	-158.7512
2140.000000	74.244	-159.3378
2180.000000	73.960	-160.2350
2200.000000	73.824	-160.5630
2240.000000	73.565	-161.0109
2270.000000	73.383	-161.1793
2300.000000	73.210	-161.2175
2330.000000	73.050	-161.1395
2360.000000	72.903	-160.9576
2400.000000	72.732	-160.5796
2430.000000	72.623	-160.2195
2470.000000	72.504	-159.6660
2500.000000	72.435	-159.2036
2540.000000	72.367	-158.5337
2580.000000	72.323	-157.8228
2620.000000	72.305	-157.1016
2650.000000	72.309	-156.5680
2690.000000	72.337	-155.8760
2720.000000	72.373	-155.3832
2760.000000	72.442	-154.7878
2800.000000	72.538	-154.2845
2850.000000	72.693	-153.8018
2900.000000	72.888	-153.5046
2950.000000	73.118	-153.4668
3000.000000	73.377	-153.7950
3040.000000	73.601	-154.3831
3070.000000	73.776	-155.0421
3110.000000	74.010	-156.2427
3150.000000	74.237	-157.8443
3200.000000	74.488	-160.4607
3250.000000	74.675	-163.7968
3300.000000	74.760	-167.8199
3350.000000	74.706	-172.3954
3400.000000	74.483	-177.2606
3450.000000	74.072	177.9704
3500.000000	73.463	173.7661
3550.000000	72.665	170.6216
3600.000000	71.697	169.0008
3650.000000	70.599	169.3082
3700.000000	69.429	171.8526
3750.000000	68.280	176.7540
3820.000000	66.979	-172.8560
3870.000000	66.503	-163.7949
3950.000000	66.770	-149.1173
4000.000000	67.461	-141.2474
4060.000000	68.562	-134.0495
4120.000000	69.754	-129.4519
4180.000000	70.916	-127.1467
4250.000000	72.157	-126.7938
4310.000000	73.088	-128.0835
4370.000000	73.876	-130.5247
4440.000000	74.605	-134.4676
4500.000000	75.064	-138.4799
4550.000000	75.331	-142.0631
4620.000000	75.541	-147.1543
4680.000000	75.583	-151.3644
4750.000000	75.496	-155.8878
4820.000000	75.294	-159.8550
4870.000000	75.100	-162.3078
4940.000000	74.782	-165.2001
5000.000000	74.482	-167.1965
5080.000000	74.060	-169.2197
5150.000000	73.684	-170.4553
5220.000000	73.316	-171.2651
5300.000000	72.913	-171.7357
5380.000000	72.533	-171.7703
5450.000000	72.222	-171.5035
5520.000000	71.932	-171.0266
5600.000000	71.625	-170.2756
5700.000000	71.280	-169.0667
5800.000000	70.984	-167.5963
5900.000000	70.735	-165.9118
6000.000000	70.532	-164.0699
6080.000000	70.397	-162.4937
6150.000000	70.299	-161.0461
6220.000000	70.219	-159.5521
6300.000000	70.148	-157.8062
6400.000000	70.094	-155.5810
6500.000000	70.083	-153.3295
6600.000000	70.119	-151.0676
6700.000000	70.207	-148.7808
6800.000000	70.357	-146.4708
6900.000000	70.576	-144.1619
7000.000000	70.865	-141.8792
7100.000000	71.233	-139.6691
7200.000000	71.691	-137.6273
7300.000000	72.251	-135.8854
7400.000000	72.918	-134.5883
7500.000000	73.694	-133.8996
7620.000000	74.754	-134.1960
7750.000000	76.002	-136.4971
7880.000000	77.218	-141.6510
8000.000000	78.144	-149.5010
8120.000000	78.705	-160.1766
8250.000000	78.753	-173.4630
8380.000000	78.186	173.9931
8500.000000	77.210	164.9527
8620.000000	75.960	158.9884
8750.000000	74.484	155.6600
8850.000000	73.368	154.8022
9000.000000	71.841	155.3759
9120.000000	70.790	156.8568
9250.000000	69.831	159.0616
9380.000000	69.041	161.6340
9500.000000	68.447	164.1997
9620.000000	67.967	166.8677
9750.000000	67.566	169.8012
9880.000000	67.283	172.7217
10000.000000	67.129	175.3420
10150.000000	67.084	178.3509
10300.000000	67.205	-179.2166
10440.000000	67.457	-177.8205
10600.000000	67.852	-177.7271
10750.000000	68.233	-179.4755
10900.000000	68.498	176.8386
11060.000000	68.502	171.3067
11200.000000	68.207	166.2434
11380.000000	67.499	160.9318
11500.000000	66.912	158.3916
11720.000000	65.768	155.3504
11800.000000	65.349	154.6111
12060.000000	63.984	153.1863
12200.000000	63.250	153.0238
12410.000000	62.170	153.6545
12500.000000	61.721	154.2562
12650.000000	61.002	155.6666
12800.000000	60.325	157.5142
13150.000000	58.939	163.0864
13200.000000	58.766	163.9862
13400.000000	58.147	167.7406
13600.000000	57.638	171.7493
13800.000000	57.244	176.2534
14000.000000	57.037	-178.1689
14300.000000	57.779	-166.2849
14500.000000	59.446	-156.9682
14750.000000	62.035	-150.8957
15000.000000	63.986	-157.0485
15250.000000	65.159	-171.0727
15500.000000	65.770	171.7426
15750.000000	65.735	153.2198
16000.000000	64.943	136.2758
16250.000000	63.500	123.8122
16500.000000	61.692	116.4958
16750.000000	59.855	113.1558
17000.000000	58.251	112.1766
17250.000000	57.001	112.2887
17500.000000	56.123	112.6298
17750.000000	55.586	112.5114
18000.000000	55.321	111.3059
18250.000000	55.229	108.4565
18500.000000	55.179	103.5514
18750.000000	55.022	96.5708
19000.000000	54.630	88.1618
19250.000000	53.981	79.6939
19500.000000	53.231	72.8181
19750.000000	52.671	68.5259
