* Measurement data measured by REW V5.20.4
* Source: Microphone (USB Sound Device        ), MICROPHONE (Master Volume), R, volume: 0.750
* Format: 256k Log Swept Sine, 1 sweep at -12.0 dBFS with no timing reference
* Dated: 15-Aug-2023 21:03:37
* REW Settings:
*  C-weighting compensation: Off
*  Target level: 75.0 dB
* Note: 
* Measurement: BGVP P05 Silver Silver R
* Smoothing: 1/12 octave
* Frequency Step: 1/48 octave
* Start Frequency: 20.300 Hz
*
* Freq(Hz)	SPL(dB)	Phase(degrees)
20.299999	81.201	-179.9152
20.600000	81.195	179.9313
20.900000	81.181	179.6047
21.200001	81.167	179.2387
21.400000	81.159	178.9872
21.799999	81.141	178.4767
22.000000	81.133	178.2231
22.400000	81.114	177.7289
22.700001	81.099	177.3766
23.000000	81.083	177.0421
23.299999	81.065	176.7200
23.600000	81.045	176.4031
24.000000	81.015	175.9771
24.299999	80.991	175.6475
24.700001	80.959	175.1899
25.000000	80.937	174.8338
25.400000	80.910	174.3483
25.799999	80.886	173.8674
26.200001	80.863	173.4146
26.500000	80.844	173.1061
26.900000	80.817	172.7428
27.200001	80.795	172.5011
27.600000	80.763	172.2008
28.000000	80.730	171.8947
28.500000	80.689	171.4638
29.000000	80.651	170.9741
29.500000	80.617	170.4699
30.000000	80.586	170.0176
30.400000	80.563	169.7175
30.700001	80.544	169.5248
31.100000	80.517	169.2891
31.500000	80.485	169.0504
32.000000	80.440	168.7119
32.500000	80.398	168.3159
33.000000	80.366	167.8906
33.500000	80.344	167.5097
34.000000	80.324	167.2880
34.500000	80.301	167.3154
35.000000	80.276	167.5654
35.500000	80.252	167.8510
36.000000	80.230	167.9199
36.500000	80.197	167.6186
37.000000	80.147	166.9846
37.500000	80.085	166.1995
38.200001	80.002	165.1966
38.700001	79.961	164.6553
39.500000	79.908	164.0462
40.000000	79.870	163.7738
40.599998	79.818	163.5107
41.200001	79.766	163.2614
41.799999	79.720	162.9829
42.500000	79.669	162.6194
43.099998	79.620	162.3058
43.700001	79.567	162.0126
44.400002	79.506	161.7017
45.000000	79.459	161.4566
45.500000	79.424	161.2629
46.200001	79.377	161.0045
46.799999	79.334	160.7922
47.500000	79.279	160.5455
48.200001	79.223	160.2908
48.700001	79.183	160.1067
49.400002	79.131	159.8584
50.000000	79.088	159.6617
50.799999	79.033	159.4175
51.500000	78.984	159.2092
52.200001	78.933	159.0007
53.000000	78.875	158.7630
53.799999	78.820	158.5198
54.500000	78.771	158.2996
55.200001	78.720	158.0861
56.000000	78.658	157.8740
57.000000	78.584	157.6553
58.000000	78.515	157.4480
59.000000	78.446	157.2348
60.000000	78.374	157.0253
60.799999	78.317	156.8622
61.500000	78.268	156.7231
62.200001	78.220	156.5917
63.000000	78.164	156.4545
64.000000	78.094	156.2962
65.000000	78.021	156.1470
66.000000	77.948	156.0059
67.000000	77.878	155.8639
68.000000	77.809	155.7198
69.000000	77.742	155.5844
70.000000	77.676	155.4634
71.000000	77.614	155.3560
72.000000	77.555	155.2599
73.000000	77.495	155.1624
74.000000	77.433	155.0523
75.000000	77.369	154.9393
76.199997	77.292	154.8282
77.500000	77.213	154.7457
78.800003	77.136	154.6819
80.000000	77.061	154.6326
81.199997	76.986	154.5898
82.500000	76.908	154.5343
83.800003	76.836	154.4652
85.000000	76.768	154.4068
86.199997	76.697	154.3634
87.500000	76.622	154.3291
88.500000	76.567	154.3104
90.000000	76.492	154.2939
91.199997	76.432	154.2917
92.500000	76.365	154.2982
93.800003	76.297	154.3076
95.000000	76.233	154.3222
96.199997	76.168	154.3381
97.500000	76.099	154.3470
98.800003	76.033	154.3562
100.000000	75.973	154.3793
101.500000	75.901	154.4233
103.000000	75.829	154.4728
104.400002	75.765	154.5281
106.000000	75.694	154.5983
107.500000	75.628	154.6556
109.000000	75.562	154.7050
110.599998	75.489	154.7647
112.000000	75.422	154.8356
113.800003	75.337	154.9811
115.000000	75.281	155.1306
117.199997	75.170	155.5247
118.000000	75.128	155.6888
120.599998	75.010	155.9824
122.000000	74.966	155.9171
124.099998	74.903	155.8063
125.000000	74.873	155.8028
126.500000	74.822	155.8440
128.000000	74.770	155.9199
131.500000	74.641	156.1829
132.000000	74.621	156.2256
134.000000	74.541	156.3985
136.000000	74.465	156.5762
138.000000	74.395	156.7628
140.000000	74.329	156.9655
143.000000	74.238	157.2602
145.000000	74.178	157.4402
147.500000	74.101	157.6700
150.000000	74.024	157.9067
152.500000	73.954	158.1479
155.000000	73.888	158.3900
157.500000	73.824	158.6478
160.000000	73.760	158.9252
162.500000	73.695	159.2040
165.000000	73.627	159.4652
167.500000	73.563	159.7059
170.000000	73.498	159.9480
172.500000	73.431	160.2113
175.000000	73.364	160.5045
177.500000	73.300	160.8117
180.000000	73.238	161.1066
182.500000	73.177	161.3866
185.000000	73.117	161.6647
187.500000	73.057	161.9428
190.000000	72.998	162.2132
192.500000	72.940	162.4794
195.000000	72.882	162.7542
197.500000	72.826	163.0397
200.000000	72.771	163.3226
203.000000	72.710	163.6527
206.000000	72.653	163.9903
209.000000	72.597	164.3393
212.000000	72.540	164.6909
214.000000	72.501	164.9277
218.000000	72.412	165.3912
220.000000	72.362	165.6006
224.000000	72.263	165.9912
227.000000	72.212	166.3393
230.000000	72.186	166.7535
233.000000	72.166	167.1625
236.000000	72.138	167.5381
240.000000	72.086	168.0161
243.000000	72.038	168.3647
247.000000	71.970	168.8013
250.000000	71.917	169.1084
254.000000	71.842	169.5160
258.000000	71.767	169.9482
262.000000	71.696	170.4224
265.000000	71.645	170.8058
269.000000	71.574	171.3628
272.000000	71.515	171.8385
276.000000	71.430	172.5958
280.000000	71.347	173.5125
285.000000	71.276	174.8646
290.000000	71.290	176.3456
295.000000	71.418	177.6068
300.000000	71.590	178.2491
304.000000	71.686	178.3364
307.000000	71.719	178.2650
311.000000	71.721	178.1076
315.000000	71.691	177.9719
320.000000	71.633	177.9519
325.000000	71.574	178.1292
330.000000	71.521	178.4317
335.000000	71.471	178.7971
340.000000	71.423	179.2082
345.000000	71.377	179.6563
350.000000	71.331	-179.8884
355.000000	71.286	-179.4526
360.000000	71.245	-179.0368
365.000000	71.209	-178.6229
370.000000	71.176	-178.2012
375.000000	71.142	-177.7748
382.000000	71.096	-177.1664
387.000000	71.066	-176.7123
395.000000	71.024	-175.9844
400.000000	70.998	-175.5326
406.000000	70.967	-174.9785
412.000000	70.939	-174.4194
418.000000	70.915	-173.8720
425.000000	70.891	-173.2491
431.000000	70.870	-172.7170
437.000000	70.852	-172.1761
444.000000	70.830	-171.5349
450.000000	70.809	-170.9906
455.000000	70.793	-170.5507
462.000000	70.775	-169.9578
468.000000	70.764	-169.4524
475.000000	70.754	-168.8430
482.000000	70.746	-168.2172
487.000000	70.740	-167.7703
494.000000	70.729	-167.1565
500.000000	70.718	-166.6424
508.000000	70.704	-165.9814
515.000000	70.695	-165.4265
522.000000	70.687	-164.8618
530.000000	70.676	-164.1840
538.000000	70.665	-163.5011
545.000000	70.657	-162.9211
552.000000	70.650	-162.3537
560.000000	70.641	-161.7166
570.000000	70.628	-160.9321
580.000000	70.618	-160.1231
590.000000	70.612	-159.2923
600.000000	70.611	-158.4867
608.000000	70.613	-157.8569
615.000000	70.617	-157.2975
622.000000	70.623	-156.7288
630.000000	70.633	-156.0753
640.000000	70.648	-155.2633
650.000000	70.662	-154.4711
660.000000	70.675	-153.6965
670.000000	70.692	-152.9205
680.000000	70.708	-152.1385
690.000000	70.724	-151.3535
700.000000	70.741	-150.5454
710.000000	70.760	-149.7093
720.000000	70.780	-148.8784
730.000000	70.800	-148.0700
740.000000	70.824	-147.2784
750.000000	70.852	-146.4926
762.000000	70.887	-145.5536
775.000000	70.923	-144.5463
788.000000	70.963	-143.5273
800.000000	71.008	-142.5834
812.000000	71.058	-141.6473
825.000000	71.116	-140.6329
838.000000	71.178	-139.6315
850.000000	71.238	-138.7388
862.000000	71.297	-137.8707
875.000000	71.360	-136.9400
885.000000	71.411	-136.2293
900.000000	71.493	-135.1711
912.000000	71.565	-134.3436
925.000000	71.649	-133.4848
938.000000	71.736	-132.6675
950.000000	71.819	-131.9393
962.000000	71.903	-131.2306
975.000000	71.994	-130.4894
988.000000	72.086	-129.7731
1000.000000	72.172	-129.1344
1015.000000	72.285	-128.3882
1030.000000	72.400	-127.7081
1044.000000	72.509	-127.1146
1060.000000	72.632	-126.4724
1075.000000	72.748	-125.9119
1090.000000	72.865	-125.3984
1106.000000	72.990	-124.8962
1120.000000	73.097	-124.4962
1138.000000	73.229	-124.0400
1150.000000	73.314	-123.7607
1172.000000	73.466	-123.2683
1180.000000	73.522	-123.0957
1206.000000	73.701	-122.5810
1220.000000	73.796	-122.3341
1241.000000	73.937	-121.9979
1250.000000	73.995	-121.8671
1265.000000	74.089	-121.6641
1280.000000	74.180	-121.4736
1315.000000	74.379	-121.0648
1320.000000	74.406	-121.0091
1340.000000	74.511	-120.7829
1360.000000	74.609	-120.5575
1380.000000	74.700	-120.3508
1400.000000	74.785	-120.1614
1430.000000	74.906	-119.8833
1450.000000	74.983	-119.6943
1475.000000	75.080	-119.4613
1500.000000	75.181	-119.2507
1525.000000	75.292	-119.0711
1550.000000	75.415	-118.9042
1575.000000	75.547	-118.7431
1600.000000	75.682	-118.5933
1625.000000	75.817	-118.4603
1650.000000	75.951	-118.3513
1675.000000	76.086	-118.2683
1700.000000	76.224	-118.2124
1725.000000	76.363	-118.1801
1750.000000	76.503	-118.1652
1775.000000	76.642	-118.1673
1800.000000	76.781	-118.1943
1825.000000	76.916	-118.2517
1850.000000	77.047	-118.3365
1875.000000	77.174	-118.4417
1900.000000	77.295	-118.5664
1925.000000	77.406	-118.7139
1950.000000	77.505	-118.8843
1975.000000	77.595	-119.0767
2000.000000	77.679	-119.2927
2030.000000	77.774	-119.5824
2060.000000	77.865	-119.9018
2090.000000	77.949	-120.2505
2120.000000	78.029	-120.6263
2140.000000	78.081	-120.8889
2180.000000	78.178	-121.4369
2200.000000	78.223	-121.7215
2240.000000	78.304	-122.3173
2270.000000	78.357	-122.7889
2300.000000	78.405	-123.2746
2330.000000	78.448	-123.7656
2360.000000	78.484	-124.2538
2400.000000	78.525	-124.8951
2430.000000	78.548	-125.3684
2470.000000	78.570	-125.9845
2500.000000	78.580	-126.4380
2540.000000	78.586	-127.0289
2580.000000	78.583	-127.5933
2620.000000	78.573	-128.1271
2650.000000	78.561	-128.5057
2690.000000	78.537	-128.9800
2720.000000	78.514	-129.3105
2760.000000	78.478	-129.7139
2800.000000	78.436	-130.0692
2850.000000	78.376	-130.4475
2900.000000	78.310	-130.7540
2950.000000	78.239	-130.9742
3000.000000	78.166	-131.1038
3040.000000	78.107	-131.1416
3070.000000	78.064	-131.1250
3110.000000	78.009	-131.0329
3150.000000	77.959	-130.8546
3200.000000	77.912	-130.5198
3250.000000	77.888	-130.1173
3300.000000	77.890	-129.7394
3350.000000	77.910	-129.4507
3400.000000	77.940	-129.2593
3450.000000	77.972	-129.1315
3500.000000	78.005	-129.0207
3550.000000	78.038	-128.8928
3600.000000	78.074	-128.7336
3650.000000	78.115	-128.5422
3700.000000	78.161	-128.3267
3750.000000	78.215	-128.0982
3820.000000	78.299	-127.7767
3870.000000	78.363	-127.5613
3950.000000	78.476	-127.2682
4000.000000	78.554	-127.1371
4060.000000	78.656	-127.0596
4120.000000	78.765	-127.0819
4180.000000	78.874	-127.2012
4250.000000	78.991	-127.4414
4310.000000	79.076	-127.6847
4370.000000	79.152	-127.8996
4440.000000	79.246	-128.0932
4500.000000	79.346	-128.2651
4550.000000	79.446	-128.4725
4620.000000	79.607	-128.9470
4680.000000	79.754	-129.5721
4750.000000	79.928	-130.5703
4820.000000	80.095	-131.8435
4870.000000	80.206	-132.9082
4940.000000	80.345	-134.5992
5000.000000	80.444	-136.2183
5080.000000	80.539	-138.5816
5150.000000	80.581	-140.7924
5220.000000	80.580	-143.0798
5300.000000	80.525	-145.7116
5380.000000	80.415	-148.2778
5450.000000	80.278	-150.4097
5520.000000	80.106	-152.3922
5600.000000	79.876	-154.4327
5700.000000	79.550	-156.5984
5800.000000	79.198	-158.3120
5900.000000	78.835	-159.5849
6000.000000	78.474	-160.4474
6080.000000	78.195	-160.8672
6150.000000	77.963	-161.0631
6220.000000	77.746	-161.1237
6300.000000	77.520	-161.0584
6400.000000	77.275	-160.8250
6500.000000	77.074	-160.4820
6600.000000	76.917	-160.0953
6700.000000	76.809	-159.7227
6800.000000	76.751	-159.4050
6900.000000	76.739	-159.1654
7000.000000	76.764	-158.9993
7100.000000	76.824	-158.8798
7200.000000	76.927	-158.7950
7300.000000	77.093	-158.7780
7400.000000	77.342	-158.9224
7500.000000	77.692	-159.4044
7620.000000	78.249	-160.8159
7750.000000	78.967	-164.0394
7880.000000	79.673	-169.7720
8000.000000	80.159	-177.6589
8120.000000	80.341	172.2677
8250.000000	80.080	160.1786
8380.000000	79.317	148.7881
8500.000000	78.231	140.2762
8620.000000	76.895	134.2112
8750.000000	75.304	130.2363
8850.000000	74.060	128.6755
9000.000000	72.260	128.1373
9120.000000	70.924	128.8382
9250.000000	69.599	130.3857
9380.000000	68.401	132.4991
9500.000000	67.401	134.7989
9620.000000	66.493	137.3459
9750.000000	65.600	140.3333
9880.000000	64.793	143.5219
10000.000000	64.117	146.6152
10150.000000	63.353	150.6439
10300.000000	62.670	154.8307
10440.000000	62.096	158.8751
10600.000000	61.506	163.6757
10750.000000	61.012	168.4217
10900.000000	60.581	173.4667
11060.000000	60.198	179.2791
11200.000000	59.942	-175.1518
11380.000000	59.787	-167.2260
11500.000000	59.857	-161.5005
11720.000000	60.514	-150.6838
11800.000000	60.941	-146.9581
12060.000000	62.839	-137.5744
12200.000000	63.988	-134.9739
12410.000000	65.634	-134.1884
12500.000000	66.297	-134.6723
12650.000000	67.379	-136.0698
12800.000000	68.506	-137.8477
13150.000000	71.726	-143.6288
13200.000000	72.261	-144.8938
13400.000000	74.453	-152.4006
13600.000000	76.422	-165.8664
13800.000000	77.709	173.2580
14000.000000	77.963	147.7114
14300.000000	76.341	114.5503
14500.000000	74.332	101.3037
14750.000000	71.461	93.1639
15000.000000	68.786	90.3720
15250.000000	66.667	90.0323
15500.000000	65.179	90.6884
15750.000000	64.255	91.6182
16000.000000	63.798	92.3215
16250.000000	63.745	92.3174
16500.000000	64.049	91.1313
16750.000000	64.667	88.2273
17000.000000	65.540	82.7978
17250.000000	66.518	73.5946
17500.000000	67.315	59.3803
17750.000000	67.606	40.3542
18000.000000	67.163	19.2131
18250.000000	65.945	-0.0923
18500.000000	64.076	-14.8365
18750.000000	61.739	-24.2050
19000.000000	59.116	-28.4904
19250.000000	56.412	-28.7467
19500.000000	53.912	-26.3516
19750.000000	51.985	-22.6850
