* Measurement data measured by REW V5.20.4
* Source: Microphone (USB Sound Device        ), MICROPHONE (Master Volume), R, volume: 0.750
* Format: 256k Log Swept Sine, 1 sweep at -12.0 dBFS with no timing reference
* Dated: 15-Aug-2023 20:57:20
* REW Settings:
*  C-weighting compensation: Off
*  Target level: 75.0 dB
* Note: 
* Measurement: BGVP P05 Silver Gold R
* Smoothing: 1/12 octave
* Frequency Step: 1/48 octave
* Start Frequency: 20.300 Hz
*
* Freq(Hz)	SPL(dB)	Phase(degrees)
20.299999	81.181	-179.5076
20.600000	81.173	-179.7019
20.900000	81.153	179.8897
21.200001	81.130	179.4501
21.400000	81.114	179.1655
21.799999	81.085	178.6315
22.000000	81.074	178.3837
22.400000	81.060	177.9122
22.700001	81.053	177.5637
23.000000	81.047	177.2076
23.299999	81.035	176.8441
23.600000	81.017	176.4812
24.000000	80.983	176.0159
24.299999	80.954	175.6912
24.700001	80.916	175.2887
25.000000	80.892	174.9967
25.400000	80.868	174.5998
25.799999	80.848	174.1827
26.200001	80.826	173.7570
26.500000	80.806	173.4473
26.900000	80.772	173.0592
27.200001	80.743	172.7841
27.600000	80.704	172.4211
28.000000	80.667	172.0387
28.500000	80.623	171.5256
29.000000	80.586	171.0142
29.500000	80.556	170.5530
30.000000	80.531	170.1515
30.400000	80.510	169.8588
30.700001	80.490	169.6507
31.100000	80.458	169.3867
31.500000	80.423	169.1304
32.000000	80.383	168.7888
32.500000	80.347	168.3932
33.000000	80.308	167.9842
33.500000	80.258	167.6603
34.000000	80.205	167.4557
34.500000	80.153	167.2558
35.000000	80.094	166.9278
35.500000	80.013	166.5112
36.000000	79.922	166.2215
36.500000	79.865	166.1958
37.000000	79.879	166.2927
37.500000	79.951	166.2180
38.200001	80.029	165.6091
38.700001	80.013	165.0510
39.500000	79.904	164.4992
40.000000	79.846	164.2976
40.599998	79.807	163.9711
41.200001	79.779	163.5303
41.799999	79.736	163.1432
42.500000	79.666	162.9002
43.099998	79.601	162.8062
43.700001	79.538	162.6884
44.400002	79.471	162.4298
45.000000	79.420	162.1155
45.500000	79.382	161.8315
46.200001	79.334	161.4456
46.799999	79.296	161.1317
47.500000	79.252	160.7793
48.200001	79.206	160.4504
48.700001	79.173	160.2345
49.400002	79.125	159.9551
50.000000	79.083	159.7334
50.799999	79.022	159.4681
51.500000	78.966	159.2733
52.200001	78.912	159.1083
53.000000	78.855	158.9210
53.799999	78.799	158.7005
54.500000	78.744	158.4929
55.200001	78.685	158.2996
56.000000	78.620	158.0987
57.000000	78.548	157.8395
58.000000	78.481	157.5705
59.000000	78.413	157.3336
60.000000	78.343	157.1354
60.799999	78.286	156.9834
61.500000	78.238	156.8423
62.200001	78.189	156.6942
63.000000	78.132	156.5269
64.000000	78.063	156.3295
65.000000	77.997	156.1437
66.000000	77.930	155.9802
67.000000	77.863	155.8568
68.000000	77.794	155.7658
69.000000	77.727	155.6703
70.000000	77.662	155.5497
71.000000	77.598	155.4260
72.000000	77.536	155.3167
73.000000	77.474	155.2165
74.000000	77.411	155.1225
75.000000	77.348	155.0360
76.199997	77.272	154.9356
77.500000	77.190	154.8310
78.800003	77.110	154.7518
80.000000	77.037	154.6943
81.199997	76.964	154.6248
82.500000	76.888	154.5574
83.800003	76.815	154.5236
85.000000	76.747	154.4939
86.199997	76.679	154.4515
87.500000	76.606	154.4172
88.500000	76.552	154.4101
90.000000	76.474	154.4079
91.199997	76.411	154.3926
92.500000	76.344	154.3732
93.800003	76.277	154.3680
95.000000	76.214	154.3703
96.199997	76.150	154.3708
97.500000	76.083	154.3716
98.800003	76.020	154.3839
100.000000	75.962	154.4124
101.500000	75.890	154.4660
103.000000	75.816	154.5247
104.400002	75.747	154.5801
106.000000	75.670	154.6441
107.500000	75.598	154.6972
109.000000	75.530	154.7387
110.599998	75.462	154.7776
112.000000	75.405	154.8141
113.800003	75.331	154.8581
115.000000	75.282	154.8698
117.199997	75.200	154.7954
118.000000	75.174	154.7432
120.599998	75.078	154.7943
122.000000	75.012	155.0458
124.099998	74.910	155.4549
125.000000	74.868	155.5955
126.500000	74.805	155.7948
128.000000	74.747	155.9674
131.500000	74.622	156.2806
132.000000	74.604	156.3179
134.000000	74.532	156.4655
136.000000	74.457	156.6231
138.000000	74.386	156.8037
140.000000	74.319	156.9968
143.000000	74.223	157.2519
145.000000	74.160	157.4061
147.500000	74.078	157.6346
150.000000	74.005	157.9015
152.500000	73.940	158.1486
155.000000	73.872	158.3535
157.500000	73.799	158.5649
160.000000	73.728	158.8141
162.500000	73.660	159.0995
165.000000	73.595	159.4097
167.500000	73.533	159.7259
170.000000	73.470	160.0145
172.500000	73.402	160.2654
175.000000	73.335	160.5042
177.500000	73.272	160.7589
180.000000	73.214	161.0311
182.500000	73.156	161.3076
185.000000	73.100	161.5848
187.500000	73.047	161.8667
190.000000	72.996	162.1491
192.500000	72.945	162.4286
195.000000	72.893	162.7054
197.500000	72.840	162.9811
200.000000	72.790	163.2634
203.000000	72.732	163.6135
206.000000	72.673	163.9601
209.000000	72.609	164.2960
212.000000	72.545	164.6289
214.000000	72.506	164.8461
218.000000	72.439	165.2687
220.000000	72.413	165.4776
224.000000	72.367	165.8972
227.000000	72.325	166.2367
230.000000	72.271	166.6129
233.000000	72.214	167.0073
236.000000	72.159	167.3920
240.000000	72.090	167.8705
243.000000	72.039	168.2072
247.000000	71.975	168.6203
250.000000	71.932	168.9088
254.000000	71.879	169.3069
258.000000	71.829	169.7459
262.000000	71.781	170.2130
265.000000	71.744	170.5647
269.000000	71.693	171.0159
272.000000	71.655	171.3413
276.000000	71.605	171.7684
280.000000	71.558	172.2046
285.000000	71.500	172.7823
290.000000	71.440	173.3862
295.000000	71.375	174.0176
300.000000	71.304	174.6762
304.000000	71.240	175.2202
307.000000	71.190	175.6424
311.000000	71.131	176.2357
315.000000	71.088	176.8964
320.000000	71.078	177.8384
325.000000	71.110	178.7357
330.000000	71.150	179.3942
335.000000	71.174	179.8438
340.000000	71.175	-179.8031
345.000000	71.162	-179.4593
350.000000	71.143	-179.0765
355.000000	71.124	-178.6460
360.000000	71.108	-178.1940
365.000000	71.094	-177.7553
370.000000	71.081	-177.3474
375.000000	71.065	-176.9826
382.000000	71.033	-176.5388
387.000000	71.005	-176.2237
395.000000	70.960	-175.6561
400.000000	70.930	-175.2750
406.000000	70.894	-174.8022
412.000000	70.864	-174.3153
418.000000	70.836	-173.8237
425.000000	70.806	-173.2283
431.000000	70.781	-172.6900
437.000000	70.760	-172.1476
444.000000	70.739	-171.5241
450.000000	70.721	-170.9941
455.000000	70.706	-170.5578
462.000000	70.682	-169.9576
468.000000	70.662	-169.4462
475.000000	70.645	-168.8499
482.000000	70.631	-168.2445
487.000000	70.622	-167.8074
494.000000	70.607	-167.2035
500.000000	70.593	-166.6990
508.000000	70.572	-166.0341
515.000000	70.556	-165.4499
522.000000	70.544	-164.8632
530.000000	70.537	-164.1963
538.000000	70.530	-163.5448
545.000000	70.521	-162.9797
552.000000	70.509	-162.4097
560.000000	70.497	-161.7521
570.000000	70.486	-160.9237
580.000000	70.477	-160.0829
590.000000	70.468	-159.2330
600.000000	70.462	-158.4014
608.000000	70.459	-157.7559
615.000000	70.458	-157.1992
622.000000	70.458	-156.6392
630.000000	70.460	-155.9852
640.000000	70.467	-155.1523
650.000000	70.477	-154.3267
660.000000	70.488	-153.5172
670.000000	70.499	-152.7074
680.000000	70.510	-151.8848
690.000000	70.519	-151.0506
700.000000	70.532	-150.2133
710.000000	70.552	-149.3874
720.000000	70.575	-148.5798
730.000000	70.598	-147.7874
740.000000	70.621	-147.0109
750.000000	70.646	-146.2428
762.000000	70.678	-145.3022
775.000000	70.714	-144.2416
788.000000	70.754	-143.1694
800.000000	70.792	-142.2050
812.000000	70.832	-141.2577
825.000000	70.880	-140.2389
838.000000	70.934	-139.2236
850.000000	70.990	-138.2950
862.000000	71.049	-137.3828
875.000000	71.115	-136.4156
885.000000	71.167	-135.6813
900.000000	71.249	-134.5849
912.000000	71.317	-133.7218
925.000000	71.391	-132.8286
938.000000	71.467	-131.9844
950.000000	71.539	-131.2329
962.000000	71.615	-130.5008
975.000000	71.703	-129.7360
988.000000	71.794	-129.0090
1000.000000	71.879	-128.3687
1015.000000	71.985	-127.5997
1030.000000	72.090	-126.8629
1044.000000	72.188	-126.2104
1060.000000	72.301	-125.5144
1075.000000	72.408	-124.9069
1090.000000	72.516	-124.3422
1106.000000	72.633	-123.7906
1120.000000	72.734	-123.3533
1138.000000	72.859	-122.8412
1150.000000	72.941	-122.5205
1172.000000	73.085	-121.9523
1180.000000	73.135	-121.7502
1206.000000	73.295	-121.1251
1220.000000	73.381	-120.8163
1241.000000	73.507	-120.3793
1250.000000	73.558	-120.1989
1265.000000	73.642	-119.9065
1280.000000	73.723	-119.6254
1315.000000	73.904	-119.0106
1320.000000	73.929	-118.9247
1340.000000	74.027	-118.5780
1360.000000	74.116	-118.2259
1380.000000	74.196	-117.8723
1400.000000	74.271	-117.5256
1430.000000	74.379	-117.0288
1450.000000	74.448	-116.7131
1475.000000	74.534	-116.3310
1500.000000	74.624	-115.9435
1525.000000	74.725	-115.5456
1550.000000	74.841	-115.1562
1575.000000	74.965	-114.7841
1600.000000	75.094	-114.4231
1625.000000	75.226	-114.0759
1650.000000	75.359	-113.7428
1675.000000	75.493	-113.4116
1700.000000	75.631	-113.0836
1725.000000	75.771	-112.7728
1750.000000	75.913	-112.4855
1775.000000	76.055	-112.2166
1800.000000	76.199	-111.9673
1825.000000	76.344	-111.7415
1850.000000	76.488	-111.5323
1875.000000	76.629	-111.3367
1900.000000	76.764	-111.1619
1925.000000	76.891	-111.0166
1950.000000	77.011	-110.9014
1975.000000	77.123	-110.8111
2000.000000	77.232	-110.7401
2030.000000	77.361	-110.6798
2060.000000	77.487	-110.6538
2090.000000	77.612	-110.6621
2120.000000	77.735	-110.7037
2140.000000	77.817	-110.7515
2180.000000	77.981	-110.8967
2200.000000	78.061	-110.9940
2240.000000	78.219	-111.2358
2270.000000	78.336	-111.4561
2300.000000	78.450	-111.7053
2330.000000	78.559	-111.9807
2360.000000	78.664	-112.2844
2400.000000	78.797	-112.7388
2430.000000	78.891	-113.1123
2470.000000	79.012	-113.6437
2500.000000	79.098	-114.0679
2540.000000	79.205	-114.6629
2580.000000	79.301	-115.2822
2620.000000	79.386	-115.9239
2650.000000	79.442	-116.4199
2690.000000	79.507	-117.0955
2720.000000	79.549	-117.6067
2760.000000	79.593	-118.2839
2800.000000	79.625	-118.9393
2850.000000	79.648	-119.7010
2900.000000	79.657	-120.3729
2950.000000	79.657	-120.9190
3000.000000	79.661	-121.3264
3040.000000	79.675	-121.5819
3070.000000	79.695	-121.7648
3110.000000	79.733	-122.0468
3150.000000	79.777	-122.4158
3200.000000	79.828	-123.0098
3250.000000	79.862	-123.6893
3300.000000	79.877	-124.3724
3350.000000	79.880	-125.0126
3400.000000	79.876	-125.5897
3450.000000	79.872	-126.0977
3500.000000	79.872	-126.5411
3550.000000	79.876	-126.9253
3600.000000	79.884	-127.2592
3650.000000	79.896	-127.5567
3700.000000	79.910	-127.8294
3750.000000	79.927	-128.0861
3820.000000	79.953	-128.4418
3870.000000	79.970	-128.7067
3950.000000	79.990	-129.1698
4000.000000	79.995	-129.4928
4060.000000	79.992	-129.9001
4120.000000	79.976	-130.2798
4180.000000	79.948	-130.5566
4250.000000	79.916	-130.6826
4310.000000	79.903	-130.6525
4370.000000	79.908	-130.5821
4440.000000	79.935	-130.5531
4500.000000	79.976	-130.6247
4550.000000	80.019	-130.7669
4620.000000	80.089	-131.1026
4680.000000	80.153	-131.5200
4750.000000	80.232	-132.1516
4820.000000	80.310	-132.9328
4870.000000	80.364	-133.5793
4940.000000	80.436	-134.5990
5000.000000	80.489	-135.5661
5080.000000	80.545	-136.9639
5150.000000	80.576	-138.2653
5220.000000	80.591	-139.6221
5300.000000	80.587	-141.2289
5380.000000	80.561	-142.8856
5450.000000	80.518	-144.3590
5520.000000	80.457	-145.8300
5600.000000	80.363	-147.4784
5700.000000	80.209	-149.4460
5800.000000	80.020	-151.2634
5900.000000	79.806	-152.8934
6000.000000	79.574	-154.3114
6080.000000	79.380	-155.2862
6150.000000	79.204	-156.0291
6220.000000	79.024	-156.6743
6300.000000	78.817	-157.2888
6400.000000	78.562	-157.8642
6500.000000	78.320	-158.2281
6600.000000	78.101	-158.4053
6700.000000	77.918	-158.4545
6800.000000	77.778	-158.4504
6900.000000	77.679	-158.4399
7000.000000	77.612	-158.4261
7100.000000	77.571	-158.3804
7200.000000	77.565	-158.2875
7300.000000	77.610	-158.1881
7400.000000	77.720	-158.1824
7500.000000	77.903	-158.4160
7620.000000	78.216	-159.2574
7750.000000	78.630	-161.2007
7880.000000	79.053	-164.5419
8000.000000	79.381	-169.0298
8120.000000	79.586	-174.8331
8250.000000	79.597	177.7044
8380.000000	79.334	169.6620
8500.000000	78.837	162.4527
8620.000000	78.115	156.0670
8750.000000	77.135	150.5193
8850.000000	76.287	147.3233
9000.000000	74.941	144.1689
9120.000000	73.855	142.8578
9250.000000	72.711	142.4219
9380.000000	71.625	142.8098
9500.000000	70.686	143.7410
9620.000000	69.813	145.0978
9750.000000	68.938	146.9376
9880.000000	68.136	149.0801
10000.000000	67.454	151.2827
10150.000000	66.677	154.3198
10300.000000	65.977	157.6491
10440.000000	65.387	160.9723
10600.000000	64.781	164.9977
10750.000000	64.276	169.0502
10900.000000	63.833	173.4711
11060.000000	63.434	178.6909
11200.000000	63.165	-176.2350
11380.000000	63.001	-168.9767
11500.000000	63.076	-163.7313
11720.000000	63.769	-153.8311
11800.000000	64.211	-150.4531
12060.000000	66.121	-142.3112
12200.000000	67.252	-140.4494
12410.000000	68.853	-140.8135
12500.000000	69.490	-141.8011
12650.000000	70.515	-144.0707
12800.000000	71.553	-146.7979
13150.000000	74.316	-155.3118
13200.000000	74.749	-157.0229
13400.000000	76.462	-166.2269
13600.000000	77.898	179.5318
13800.000000	78.719	160.1038
14000.000000	78.701	138.3540
14300.000000	77.154	110.9483
14500.000000	75.450	99.3664
14750.000000	73.088	91.3106
15000.000000	70.900	87.6827
15250.000000	69.147	86.3660
15500.000000	67.908	86.1457
15750.000000	67.173	86.2629
16000.000000	66.900	86.1118
16250.000000	67.054	85.1033
16500.000000	67.590	82.5861
16750.000000	68.448	77.7050
17000.000000	69.491	69.2023
17250.000000	70.451	55.5938
17500.000000	70.967	36.4042
17750.000000	70.733	13.8594
18000.000000	69.643	-7.6051
18250.000000	67.806	-24.4401
18500.000000	65.448	-35.7290
18750.000000	62.784	-42.0400
19000.000000	59.980	-44.1249
19250.000000	57.204	-43.0697
19500.000000	54.653	-40.2145
19750.000000	52.547	-36.7037
