* Measurement data measured by REW V5.20.4
* Source: Microphone (USB Sound Device        ), MICROPHONE (Master Volume), R, volume: 0.750
* Format: 256k Log Swept Sine, 1 sweep at -12.0 dBFS with no timing reference
* Dated: 15-Aug-2023 20:55:59
* REW Settings:
*  C-weighting compensation: Off
*  Target level: 75.0 dB
* Note: 
* Measurement: BGVP P05 Red Gold R
* Smoothing: 1/12 octave
* Frequency Step: 1/48 octave
* Start Frequency: 20.300 Hz
*
* Freq(Hz)	SPL(dB)	Phase(degrees)
20.299999	75.457	-158.3614
20.600000	75.473	-158.5088
20.900000	75.511	-158.8208
21.200001	75.546	-159.1624
21.400000	75.565	-159.3813
21.799999	75.594	-159.7681
22.000000	75.606	-159.9270
22.400000	75.632	-160.1819
22.700001	75.656	-160.3474
23.000000	75.683	-160.5262
23.299999	75.713	-160.7361
23.600000	75.740	-160.9715
24.000000	75.770	-161.2897
24.299999	75.790	-161.4941
24.700001	75.820	-161.6930
25.000000	75.849	-161.7981
25.400000	75.899	-161.9276
25.799999	75.956	-162.1111
26.200001	76.008	-162.3842
26.500000	76.038	-162.6385
26.900000	76.066	-163.0065
27.200001	76.078	-163.2733
27.600000	76.091	-163.5867
28.000000	76.107	-163.8433
28.500000	76.141	-164.1121
29.000000	76.187	-164.3797
29.500000	76.234	-164.6837
30.000000	76.268	-165.0177
30.400000	76.284	-165.2848
30.700001	76.292	-165.4770
31.100000	76.300	-165.7217
31.500000	76.310	-165.9574
32.000000	76.323	-166.2373
32.500000	76.339	-166.4836
33.000000	76.358	-166.6957
33.500000	76.381	-166.9207
34.000000	76.405	-167.2258
34.500000	76.423	-167.6217
35.000000	76.437	-168.0466
35.500000	76.459	-168.4274
36.000000	76.497	-168.7547
36.500000	76.545	-169.0644
37.000000	76.584	-169.3667
37.500000	76.601	-169.6214
38.200001	76.594	-169.8423
38.700001	76.587	-169.9554
39.500000	76.590	-170.2478
40.000000	76.600	-170.5121
40.599998	76.615	-170.8465
41.200001	76.630	-171.1557
41.799999	76.641	-171.4501
42.500000	76.644	-171.8007
43.099998	76.639	-172.1039
43.700001	76.633	-172.3881
44.400002	76.631	-172.6754
45.000000	76.637	-172.8928
45.500000	76.645	-173.0779
46.200001	76.659	-173.3721
46.799999	76.667	-173.6528
47.500000	76.672	-173.9758
48.200001	76.673	-174.2594
48.700001	76.674	-174.4360
49.400002	76.676	-174.6738
50.000000	76.680	-174.9038
50.799999	76.686	-175.2729
51.500000	76.688	-175.6235
52.200001	76.689	-175.9543
53.000000	76.689	-176.2909
53.799999	76.687	-176.6060
54.500000	76.683	-176.8826
55.200001	76.676	-177.1591
56.000000	76.668	-177.4586
57.000000	76.659	-177.7906
58.000000	76.653	-178.0931
59.000000	76.645	-178.3992
60.000000	76.635	-178.7178
60.799999	76.623	-178.9702
61.500000	76.613	-179.1813
62.200001	76.603	-179.3843
63.000000	76.592	-179.6145
64.000000	76.578	-179.9097
65.000000	76.561	179.7838
66.000000	76.541	179.4714
67.000000	76.519	179.1583
68.000000	76.500	178.8501
69.000000	76.482	178.5642
70.000000	76.464	178.3135
71.000000	76.445	178.0844
72.000000	76.425	177.8550
73.000000	76.403	177.6256
74.000000	76.381	177.4019
75.000000	76.360	177.1758
76.199997	76.335	176.8978
77.500000	76.311	176.5998
78.800003	76.286	176.3088
80.000000	76.261	176.0378
81.199997	76.233	175.7721
82.500000	76.204	175.5073
83.800003	76.174	175.2547
85.000000	76.142	175.0234
86.199997	76.107	174.7950
87.500000	76.073	174.5534
88.500000	76.048	174.3812
90.000000	76.011	174.1525
91.199997	75.984	173.9870
92.500000	75.956	173.8113
93.800003	75.928	173.6213
95.000000	75.900	173.4289
96.199997	75.870	173.2408
97.500000	75.837	173.0702
98.800003	75.803	172.9309
100.000000	75.771	172.8060
101.500000	75.727	172.6365
103.000000	75.684	172.4647
104.400002	75.647	172.3135
106.000000	75.606	172.1452
107.500000	75.566	171.9921
109.000000	75.526	171.8606
110.599998	75.486	171.7434
112.000000	75.453	171.6212
113.800003	75.416	171.3591
115.000000	75.394	171.0786
117.199997	75.361	170.2456
118.000000	75.351	169.8683
120.599998	75.303	169.2988
122.000000	75.258	169.6522
124.099998	75.181	170.2545
125.000000	75.149	170.3894
126.500000	75.096	170.4751
128.000000	75.045	170.4724
131.500000	74.942	170.4178
132.000000	74.929	170.4088
134.000000	74.878	170.3625
136.000000	74.828	170.2971
138.000000	74.779	170.2357
140.000000	74.731	170.1931
143.000000	74.664	170.1229
145.000000	74.618	170.0695
147.500000	74.562	170.0272
150.000000	74.512	170.0255
152.500000	74.465	170.0612
155.000000	74.415	170.1103
157.500000	74.360	170.1196
160.000000	74.303	170.0833
162.500000	74.249	170.0567
165.000000	74.195	170.0723
167.500000	74.141	170.1050
170.000000	74.089	170.1394
172.500000	74.038	170.2020
175.000000	73.986	170.2853
177.500000	73.932	170.3494
180.000000	73.877	170.3917
182.500000	73.820	170.4363
185.000000	73.763	170.5004
187.500000	73.707	170.5844
190.000000	73.653	170.6823
192.500000	73.600	170.7941
195.000000	73.550	170.9182
197.500000	73.503	171.0518
200.000000	73.456	171.1861
203.000000	73.398	171.3304
206.000000	73.340	171.4547
209.000000	73.285	171.5737
212.000000	73.232	171.6998
214.000000	73.196	171.7953
218.000000	73.126	172.0229
220.000000	73.094	172.1508
224.000000	73.035	172.4171
227.000000	72.983	172.6037
230.000000	72.921	172.7684
233.000000	72.859	172.9303
236.000000	72.802	173.1072
240.000000	72.736	173.3673
243.000000	72.691	173.5710
247.000000	72.631	173.8451
250.000000	72.582	174.0569
254.000000	72.514	174.3482
258.000000	72.446	174.6429
262.000000	72.378	174.9509
265.000000	72.326	175.2019
269.000000	72.252	175.5767
272.000000	72.193	175.9070
276.000000	72.115	176.4451
280.000000	72.042	177.0935
285.000000	71.976	178.0226
290.000000	71.951	179.0231
295.000000	71.979	179.9364
300.000000	72.047	-179.4539
304.000000	72.110	-179.2161
307.000000	72.144	-179.1572
311.000000	72.158	-179.1703
315.000000	72.145	-179.2243
320.000000	72.109	-179.2561
325.000000	72.064	-179.1685
330.000000	72.021	-179.0007
335.000000	71.978	-178.8073
340.000000	71.929	-178.5835
345.000000	71.874	-178.3111
350.000000	71.820	-178.0095
355.000000	71.770	-177.6870
360.000000	71.722	-177.3331
365.000000	71.678	-176.9502
370.000000	71.634	-176.5567
375.000000	71.588	-176.1694
382.000000	71.526	-175.6493
387.000000	71.489	-175.2820
395.000000	71.440	-174.6674
400.000000	71.412	-174.2831
406.000000	71.378	-173.8168
412.000000	71.342	-173.3283
418.000000	71.308	-172.8280
425.000000	71.271	-172.2636
431.000000	71.241	-171.7996
437.000000	71.211	-171.3288
444.000000	71.176	-170.7642
450.000000	71.149	-170.2758
455.000000	71.128	-169.8688
462.000000	71.099	-169.3105
468.000000	71.077	-168.8554
475.000000	71.054	-168.3496
482.000000	71.032	-167.8399
487.000000	71.018	-167.4582
494.000000	70.999	-166.8978
500.000000	70.983	-166.4041
508.000000	70.961	-165.7577
515.000000	70.941	-165.2249
522.000000	70.922	-164.7076
530.000000	70.902	-164.0954
538.000000	70.880	-163.4697
545.000000	70.863	-162.9299
552.000000	70.848	-162.3891
560.000000	70.833	-161.7601
570.000000	70.813	-160.9651
580.000000	70.793	-160.1683
590.000000	70.779	-159.3560
600.000000	70.768	-158.5314
608.000000	70.759	-157.8910
615.000000	70.753	-157.3518
622.000000	70.748	-156.8258
630.000000	70.743	-156.2255
640.000000	70.739	-155.4552
650.000000	70.739	-154.6611
660.000000	70.743	-153.8658
670.000000	70.749	-153.0732
680.000000	70.755	-152.2769
690.000000	70.761	-151.4764
700.000000	70.768	-150.6681
710.000000	70.778	-149.8658
720.000000	70.790	-149.0793
730.000000	70.804	-148.2927
740.000000	70.820	-147.4869
750.000000	70.837	-146.6708
762.000000	70.861	-145.7157
775.000000	70.891	-144.7121
788.000000	70.925	-143.6963
800.000000	70.958	-142.7410
812.000000	70.994	-141.7841
825.000000	71.038	-140.7578
838.000000	71.087	-139.7585
850.000000	71.134	-138.8548
862.000000	71.181	-137.9679
875.000000	71.236	-137.0285
885.000000	71.284	-136.3153
900.000000	71.359	-135.2516
912.000000	71.421	-134.4079
925.000000	71.492	-133.5111
938.000000	71.566	-132.6409
950.000000	71.638	-131.8633
962.000000	71.712	-131.1123
975.000000	71.795	-130.3359
988.000000	71.880	-129.6027
1000.000000	71.960	-128.9517
1015.000000	72.061	-128.1637
1030.000000	72.164	-127.4259
1044.000000	72.259	-126.7881
1060.000000	72.369	-126.1032
1075.000000	72.473	-125.4914
1090.000000	72.579	-124.9131
1106.000000	72.690	-124.3392
1120.000000	72.785	-123.8736
1138.000000	72.904	-123.3260
1150.000000	72.982	-122.9927
1172.000000	73.125	-122.4251
1180.000000	73.176	-122.2245
1206.000000	73.337	-121.5852
1220.000000	73.420	-121.2571
1241.000000	73.538	-120.7922
1250.000000	73.586	-120.6007
1265.000000	73.666	-120.2896
1280.000000	73.744	-119.9896
1315.000000	73.922	-119.3312
1320.000000	73.947	-119.2394
1340.000000	74.043	-118.8737
1360.000000	74.131	-118.5161
1380.000000	74.211	-118.1709
1400.000000	74.284	-117.8281
1430.000000	74.387	-117.3082
1450.000000	74.454	-116.9662
1475.000000	74.540	-116.5451
1500.000000	74.630	-116.1187
1525.000000	74.731	-115.6935
1550.000000	74.847	-115.2922
1575.000000	74.971	-114.9210
1600.000000	75.098	-114.5620
1625.000000	75.226	-114.1995
1650.000000	75.356	-113.8354
1675.000000	75.489	-113.4812
1700.000000	75.628	-113.1465
1725.000000	75.772	-112.8319
1750.000000	75.917	-112.5341
1775.000000	76.063	-112.2562
1800.000000	76.206	-111.9998
1825.000000	76.348	-111.7582
1850.000000	76.490	-111.5352
1875.000000	76.631	-111.3377
1900.000000	76.768	-111.1616
1925.000000	76.897	-111.0025
1950.000000	77.015	-110.8604
1975.000000	77.127	-110.7376
2000.000000	77.234	-110.6413
2030.000000	77.360	-110.5714
2060.000000	77.485	-110.5478
2090.000000	77.609	-110.5606
2120.000000	77.732	-110.6081
2140.000000	77.814	-110.6578
2180.000000	77.977	-110.7959
2200.000000	78.059	-110.8842
2240.000000	78.221	-111.1032
2270.000000	78.338	-111.3088
2300.000000	78.451	-111.5511
2330.000000	78.561	-111.8258
2360.000000	78.667	-112.1272
2400.000000	78.803	-112.5654
2430.000000	78.900	-112.9237
2470.000000	79.022	-113.4430
2500.000000	79.107	-113.8628
2540.000000	79.211	-114.4547
2580.000000	79.306	-115.0695
2620.000000	79.390	-115.7069
2650.000000	79.446	-116.1994
2690.000000	79.512	-116.8643
2720.000000	79.554	-117.3642
2760.000000	79.599	-118.0245
2800.000000	79.631	-118.6649
2850.000000	79.654	-119.4187
2900.000000	79.663	-120.0878
2950.000000	79.665	-120.6291
3000.000000	79.670	-121.0270
3040.000000	79.686	-121.2739
3070.000000	79.707	-121.4531
3110.000000	79.748	-121.7350
3150.000000	79.795	-122.1039
3200.000000	79.847	-122.6875
3250.000000	79.882	-123.3496
3300.000000	79.897	-124.0208
3350.000000	79.899	-124.6526
3400.000000	79.897	-125.2183
3450.000000	79.896	-125.7148
3500.000000	79.898	-126.1521
3550.000000	79.903	-126.5355
3600.000000	79.912	-126.8684
3650.000000	79.924	-127.1639
3700.000000	79.939	-127.4404
3750.000000	79.957	-127.7088
3820.000000	79.982	-128.0896
3870.000000	79.996	-128.3816
3950.000000	80.003	-128.8977
4000.000000	79.995	-129.2289
4060.000000	79.972	-129.5688
4120.000000	79.940	-129.7735
4180.000000	79.914	-129.8091
4250.000000	79.907	-129.6914
4310.000000	79.925	-129.5564
4370.000000	79.961	-129.4790
4440.000000	80.019	-129.5167
4500.000000	80.077	-129.6707
4550.000000	80.131	-129.8842
4620.000000	80.209	-130.3106
4680.000000	80.278	-130.7927
4750.000000	80.357	-131.4911
4820.000000	80.436	-132.3334
4870.000000	80.491	-133.0155
4940.000000	80.562	-134.0703
5000.000000	80.615	-135.0574
5080.000000	80.672	-136.4734
5150.000000	80.705	-137.7893
5220.000000	80.722	-139.1654
5300.000000	80.722	-140.7986
5380.000000	80.699	-142.4821
5450.000000	80.661	-143.9779
5520.000000	80.602	-145.4738
5600.000000	80.510	-147.1571
5700.000000	80.360	-149.1723
5800.000000	80.176	-151.0341
5900.000000	79.963	-152.7051
6000.000000	79.727	-154.1666
6080.000000	79.528	-155.1811
6150.000000	79.347	-155.9534
6220.000000	79.163	-156.6153
6300.000000	78.952	-157.2326
6400.000000	78.693	-157.7868
6500.000000	78.450	-158.1038
6600.000000	78.236	-158.2228
6700.000000	78.063	-158.2135
6800.000000	77.939	-158.1586
6900.000000	77.861	-158.1218
7000.000000	77.818	-158.1254
7100.000000	77.804	-158.1529
7200.000000	77.826	-158.1909
7300.000000	77.895	-158.2667
7400.000000	78.026	-158.4706
7500.000000	78.227	-158.9584
7620.000000	78.552	-160.1821
7750.000000	78.964	-162.6383
7880.000000	79.359	-166.5737
8000.000000	79.638	-171.6282
8120.000000	79.767	-177.9235
8250.000000	79.669	174.2924
8380.000000	79.287	166.2471
8500.000000	78.684	159.3193
8620.000000	77.876	153.4073
8750.000000	76.829	148.4573
8850.000000	75.950	145.7077
9000.000000	74.583	143.1468
9120.000000	73.497	142.2390
9250.000000	72.362	142.1683
9380.000000	71.290	142.8406
9500.000000	70.366	143.9676
9620.000000	69.509	145.4799
9750.000000	68.655	147.4786
9880.000000	67.871	149.7875
10000.000000	67.203	152.1464
10150.000000	66.438	155.3640
10300.000000	65.750	158.8322
10440.000000	65.172	162.2501
10600.000000	64.580	166.3932
10750.000000	64.088	170.5899
10900.000000	63.652	175.1801
11060.000000	63.258	-179.3696
11200.000000	63.001	-174.0346
11380.000000	62.889	-166.3437
11500.000000	63.025	-160.7941
11720.000000	63.865	-150.6124
11800.000000	64.360	-147.2773
12060.000000	66.381	-139.7160
12200.000000	67.527	-138.2885
12410.000000	69.114	-139.2140
12500.000000	69.743	-140.3647
12650.000000	70.758	-142.7839
12800.000000	71.799	-145.5382
13150.000000	74.613	-154.0487
13200.000000	75.055	-155.7924
13400.000000	76.792	-165.2716
13600.000000	78.222	-179.9949
13800.000000	79.001	160.0867
14000.000000	78.915	138.1488
14300.000000	77.270	111.1576
14500.000000	75.529	100.0097
14750.000000	73.160	92.3913
15000.000000	71.002	89.0431
15250.000000	69.301	87.8638
15500.000000	68.122	87.6854
15750.000000	67.451	87.7915
16000.000000	67.261	87.5744
16250.000000	67.514	86.4012
16500.000000	68.162	83.5020
16750.000000	69.119	77.8672
17000.000000	70.199	68.0712
17250.000000	71.083	52.7263
17500.000000	71.407	32.0841
17750.000000	70.912	9.3499
18000.000000	69.567	-10.9200
18250.000000	67.544	-26.0550
18500.000000	65.086	-35.9938
18750.000000	62.403	-41.5974
19000.000000	59.635	-43.5525
19250.000000	56.923	-42.9005
19500.000000	54.460	-41.1588
19750.000000	52.477	-39.5203
