* Measurement data measured by REW V5.20.4
* Source: Microphone (USB Sound Device        ), MICROPHONE (Master Volume), R, volume: 0.750
* Format: 256k Log Swept Sine, 1 sweep at -12.0 dBFS with no timing reference
* Dated: 17-Oct-2023 19:49:15
* REW Settings:
*  C-weighting compensation: Off
*  Target level: 75.0 dB
* Note: 
* Measurement: EPZ Q5 R
* Smoothing: 1/12 octave
* Frequency Step: 1/48 octave
* Start Frequency: 20.300 Hz
*
* Freq(Hz)	SPL(dB)	Phase(degrees)
20.299999	77.141	-179.7655
20.600000	77.120	-179.9702
20.900000	77.064	179.6441
21.200001	76.995	179.3698
21.400000	76.949	179.2865
21.799999	76.881	179.2832
22.000000	76.866	179.2998
22.400000	76.876	179.2034
22.700001	76.900	178.9508
23.000000	76.916	178.5720
23.299999	76.912	178.1751
23.600000	76.890	177.8575
24.000000	76.842	177.6500
24.299999	76.810	177.6335
24.700001	76.785	177.6575
25.000000	76.781	177.5902
25.400000	76.782	177.2904
25.799999	76.774	176.7737
26.200001	76.749	176.1706
26.500000	76.722	175.7496
26.900000	76.684	175.2936
27.200001	76.660	175.0316
27.600000	76.634	174.7455
28.000000	76.609	174.4634
28.500000	76.563	174.0555
29.000000	76.487	173.6140
29.500000	76.391	173.2253
30.000000	76.302	172.9447
30.400000	76.255	172.7778
30.700001	76.239	172.6581
31.100000	76.239	172.4689
31.500000	76.254	172.2277
32.000000	76.273	171.8658
32.500000	76.277	171.4882
33.000000	76.258	171.1480
33.500000	76.223	170.8600
34.000000	76.182	170.6031
34.500000	76.144	170.3439
35.000000	76.109	170.0681
35.500000	76.074	169.7915
36.000000	76.035	169.5451
36.500000	75.993	169.3424
37.000000	75.954	169.1591
37.500000	75.921	168.9493
38.200001	75.883	168.5581
38.700001	75.855	168.2391
39.500000	75.794	167.8425
40.000000	75.747	167.7398
40.599998	75.690	167.7390
41.200001	75.639	167.7508
41.799999	75.593	167.6616
42.500000	75.541	167.3998
43.099998	75.498	167.1064
43.700001	75.463	166.8098
44.400002	75.438	166.4826
45.000000	75.421	166.2284
45.500000	75.402	166.0572
46.200001	75.357	165.8974
46.799999	75.300	165.7770
47.500000	75.219	165.4920
48.200001	75.128	164.9807
48.700001	75.065	164.5684
49.400002	75.003	164.1463
50.000000	74.983	164.0373
50.799999	74.984	164.1992
51.500000	74.975	164.4673
52.200001	74.946	164.6794
53.000000	74.912	164.6809
53.799999	74.896	164.4111
54.500000	74.889	164.0984
55.200001	74.868	163.8693
56.000000	74.808	163.7921
57.000000	74.699	163.8275
58.000000	74.597	163.6904
59.000000	74.521	163.3547
60.000000	74.462	163.0524
60.799999	74.414	162.9365
61.500000	74.367	162.9206
62.200001	74.317	162.9374
63.000000	74.259	162.9418
64.000000	74.195	162.8955
65.000000	74.142	162.8145
66.000000	74.094	162.7487
67.000000	74.043	162.7335
68.000000	73.989	162.7513
69.000000	73.934	162.7566
70.000000	73.878	162.7204
71.000000	73.820	162.6454
72.000000	73.760	162.5683
73.000000	73.697	162.5247
74.000000	73.634	162.5115
75.000000	73.577	162.5026
76.199997	73.515	162.4788
77.500000	73.454	162.4615
78.800003	73.393	162.4775
80.000000	73.333	162.5075
81.199997	73.272	162.5443
82.500000	73.208	162.6014
83.800003	73.144	162.6629
85.000000	73.085	162.7186
86.199997	73.028	162.7999
87.500000	72.966	162.9366
88.500000	72.917	163.0471
90.000000	72.843	163.1479
91.199997	72.787	163.1806
92.500000	72.731	163.2211
93.800003	72.679	163.2946
95.000000	72.631	163.3856
96.199997	72.583	163.4692
97.500000	72.528	163.5212
98.800003	72.465	163.5585
100.000000	72.407	163.6406
101.500000	72.342	163.8300
103.000000	72.283	164.0388
104.400002	72.229	164.1931
106.000000	72.168	164.3122
107.500000	72.112	164.3842
109.000000	72.057	164.4608
110.599998	71.998	164.6034
112.000000	71.950	164.7966
113.800003	71.904	165.1983
115.000000	71.890	165.6553
117.199997	71.928	167.1182
118.000000	71.958	167.7985
120.599998	71.947	168.9844
122.000000	71.826	168.5760
124.099998	71.634	167.8326
125.000000	71.581	167.7221
126.500000	71.539	167.8016
128.000000	71.528	168.0621
131.500000	71.431	168.5996
132.000000	71.408	168.6627
134.000000	71.328	168.9240
136.000000	71.267	169.1634
138.000000	71.224	169.3161
140.000000	71.193	169.3648
143.000000	71.140	169.4006
145.000000	71.086	169.5486
147.500000	70.997	169.8802
150.000000	70.904	170.2947
152.500000	70.832	170.6732
155.000000	70.774	170.9375
157.500000	70.725	171.1076
160.000000	70.677	171.3893
162.500000	70.625	171.9481
165.000000	70.576	172.6436
167.500000	70.539	173.3661
170.000000	70.526	174.0847
172.500000	70.543	174.7589
175.000000	70.567	175.3962
177.500000	70.574	175.9424
180.000000	70.569	176.2863
182.500000	70.560	176.4200
185.000000	70.552	176.4415
187.500000	70.538	176.4457
190.000000	70.512	176.4742
192.500000	70.473	176.5421
195.000000	70.426	176.6624
197.500000	70.377	176.8456
200.000000	70.330	177.0813
203.000000	70.277	177.3871
206.000000	70.225	177.6888
209.000000	70.175	178.0031
212.000000	70.128	178.3559
214.000000	70.097	178.6092
218.000000	70.034	179.1195
220.000000	70.003	179.3740
224.000000	69.945	179.8942
227.000000	69.907	-179.7165
230.000000	69.870	-179.3392
233.000000	69.831	-178.9693
236.000000	69.791	-178.5850
240.000000	69.744	-178.0046
243.000000	69.715	-177.5208
247.000000	69.679	-176.8649
250.000000	69.655	-176.3772
254.000000	69.630	-175.7473
258.000000	69.614	-175.1784
262.000000	69.608	-174.6659
265.000000	69.607	-174.2997
269.000000	69.604	-173.8183
272.000000	69.597	-173.4617
276.000000	69.589	-173.0124
280.000000	69.578	-172.6000
285.000000	69.555	-172.1108
290.000000	69.531	-171.6467
295.000000	69.500	-171.1799
300.000000	69.464	-170.6788
304.000000	69.438	-170.2426
307.000000	69.422	-169.8976
311.000000	69.403	-169.4351
315.000000	69.386	-168.9874
320.000000	69.362	-168.4556
325.000000	69.341	-167.9656
330.000000	69.325	-167.5018
335.000000	69.311	-167.0045
340.000000	69.291	-166.4428
345.000000	69.267	-165.8538
350.000000	69.241	-165.2846
355.000000	69.214	-164.7517
360.000000	69.187	-164.2441
365.000000	69.162	-163.7414
370.000000	69.141	-163.2290
375.000000	69.123	-162.7045
382.000000	69.104	-161.9674
387.000000	69.092	-161.4426
395.000000	69.071	-160.5772
400.000000	69.058	-160.0265
406.000000	69.044	-159.3856
412.000000	69.028	-158.7618
418.000000	69.011	-158.1454
425.000000	68.992	-157.4334
431.000000	68.976	-156.8220
437.000000	68.962	-156.2080
444.000000	68.951	-155.4898
450.000000	68.947	-154.8773
455.000000	68.946	-154.3692
462.000000	68.939	-153.6541
468.000000	68.929	-153.0345
475.000000	68.919	-152.3161
482.000000	68.912	-151.6213
487.000000	68.909	-151.1420
494.000000	68.907	-150.4757
500.000000	68.905	-149.8865
508.000000	68.902	-149.0584
515.000000	68.898	-148.3207
522.000000	68.893	-147.6056
530.000000	68.888	-146.8177
538.000000	68.886	-146.0412
545.000000	68.886	-145.3474
552.000000	68.884	-144.6331
560.000000	68.882	-143.8147
570.000000	68.882	-142.8190
580.000000	68.883	-141.8433
590.000000	68.881	-140.8597
600.000000	68.882	-139.8680
608.000000	68.887	-139.0984
615.000000	68.893	-138.4438
622.000000	68.900	-137.7890
630.000000	68.910	-137.0285
640.000000	68.921	-136.0563
650.000000	68.931	-135.0676
660.000000	68.942	-134.0754
670.000000	68.955	-133.0762
680.000000	68.966	-132.0579
690.000000	68.979	-131.0050
700.000000	68.994	-129.9100
710.000000	69.010	-128.7663
720.000000	69.030	-127.5678
730.000000	69.061	-126.3376
740.000000	69.113	-125.1399
750.000000	69.184	-124.0483
762.000000	69.271	-122.9027
775.000000	69.348	-121.7696
788.000000	69.411	-120.6348
800.000000	69.468	-119.5552
812.000000	69.524	-118.4660
825.000000	69.586	-117.2732
838.000000	69.648	-116.0495
850.000000	69.705	-114.9204
862.000000	69.762	-113.8197
875.000000	69.829	-112.6577
885.000000	69.887	-111.7731
900.000000	69.987	-110.4404
912.000000	70.074	-109.3783
925.000000	70.167	-108.2452
938.000000	70.261	-107.1446
950.000000	70.346	-106.1694
962.000000	70.431	-105.2320
975.000000	70.522	-104.2465
988.000000	70.611	-103.2884
1000.000000	70.697	-102.4367
1015.000000	70.814	-101.4143
1030.000000	70.936	-100.4296
1044.000000	71.049	-99.5529
1060.000000	71.174	-98.5996
1075.000000	71.289	-97.7458
1090.000000	71.403	-96.9258
1106.000000	71.525	-96.0826
1120.000000	71.629	-95.3705
1138.000000	71.760	-94.4930
1150.000000	71.847	-93.9284
1172.000000	72.006	-92.9263
1180.000000	72.062	-92.5763
1206.000000	72.239	-91.5056
1220.000000	72.329	-90.9529
1241.000000	72.462	-90.1236
1250.000000	72.518	-89.7661
1265.000000	72.610	-89.1672
1280.000000	72.700	-88.5686
1315.000000	72.897	-87.2152
1320.000000	72.924	-87.0274
1340.000000	73.028	-86.2814
1360.000000	73.127	-85.5395
1380.000000	73.220	-84.7949
1400.000000	73.306	-84.0456
1430.000000	73.432	-82.9275
1450.000000	73.518	-82.1907
1475.000000	73.625	-81.2797
1500.000000	73.735	-80.3792
1525.000000	73.858	-79.4760
1550.000000	73.996	-78.5684
1575.000000	74.142	-77.6807
1600.000000	74.293	-76.8133
1625.000000	74.447	-75.9561
1650.000000	74.602	-75.1080
1675.000000	74.760	-74.2757
1700.000000	74.922	-73.4676
1725.000000	75.089	-72.6922
1750.000000	75.259	-71.9412
1775.000000	75.428	-71.2046
1800.000000	75.597	-70.4868
1825.000000	75.766	-69.7954
1850.000000	75.935	-69.1330
1875.000000	76.104	-68.4990
1900.000000	76.268	-67.8923
1925.000000	76.423	-67.3097
1950.000000	76.569	-66.7488
1975.000000	76.707	-66.2186
2000.000000	76.843	-65.7281
2030.000000	77.005	-65.1852
2060.000000	77.166	-64.6852
2090.000000	77.324	-64.2343
2120.000000	77.479	-63.8342
2140.000000	77.582	-63.5940
2180.000000	77.789	-63.1723
2200.000000	77.891	-62.9908
2240.000000	78.091	-62.6905
2270.000000	78.234	-62.5193
2300.000000	78.372	-62.3893
2330.000000	78.505	-62.2940
2360.000000	78.633	-62.2330
2400.000000	78.795	-62.2155
2430.000000	78.910	-62.2508
2470.000000	79.054	-62.3486
2500.000000	79.154	-62.4516
2540.000000	79.275	-62.6201
2580.000000	79.382	-62.8171
2620.000000	79.474	-63.0410
2650.000000	79.534	-63.2237
2690.000000	79.601	-63.4789
2720.000000	79.642	-63.6705
2760.000000	79.684	-63.9133
2800.000000	79.712	-64.1341
2850.000000	79.731	-64.3744
2900.000000	79.732	-64.5654
2950.000000	79.715	-64.6975
3000.000000	79.683	-64.7670
3040.000000	79.649	-64.7690
3070.000000	79.620	-64.7351
3110.000000	79.578	-64.6409
3150.000000	79.530	-64.4858
3200.000000	79.463	-64.1945
3250.000000	79.392	-63.7875
3300.000000	79.321	-63.2683
3350.000000	79.253	-62.6435
3400.000000	79.195	-61.9230
3450.000000	79.150	-61.1212
3500.000000	79.122	-60.2567
3550.000000	79.111	-59.3561
3600.000000	79.112	-58.4435
3650.000000	79.121	-57.5343
3700.000000	79.137	-56.6351
3750.000000	79.154	-55.7460
3820.000000	79.177	-54.5069
3870.000000	79.191	-53.6129
3950.000000	79.212	-52.1606
4000.000000	79.230	-51.2505
4060.000000	79.258	-50.1668
4120.000000	79.295	-49.0948
4180.000000	79.340	-48.0422
4250.000000	79.400	-46.8598
4310.000000	79.453	-45.9065
4370.000000	79.506	-45.0210
4440.000000	79.566	-44.0805
4500.000000	79.618	-43.3599
4550.000000	79.663	-42.8239
4620.000000	79.727	-42.1802
4680.000000	79.784	-41.7325
4750.000000	79.851	-41.3362
4820.000000	79.914	-41.0874
4870.000000	79.955	-41.0058
4940.000000	80.003	-41.0240
5000.000000	80.031	-41.1521
5080.000000	80.041	-41.4578
5150.000000	80.019	-41.8218
5220.000000	79.966	-42.2377
5300.000000	79.863	-42.7179
5380.000000	79.714	-43.1402
5450.000000	79.547	-43.4090
5520.000000	79.346	-43.5244
5600.000000	79.077	-43.3711
5700.000000	78.697	-42.5427
5800.000000	78.334	-40.8436
5900.000000	78.093	-38.6880
6000.000000	77.964	-37.0072
6080.000000	77.845	-36.1531
6150.000000	77.694	-35.4848
6220.000000	77.503	-34.6668
6300.000000	77.263	-33.4441
6400.000000	76.965	-31.5160
6500.000000	76.696	-29.2530
6600.000000	76.469	-26.7593
6700.000000	76.289	-24.1220
6800.000000	76.162	-21.3929
6900.000000	76.091	-18.6019
7000.000000	76.073	-15.7948
7100.000000	76.108	-13.0311
7200.000000	76.197	-10.3713
7300.000000	76.340	-7.8814
7400.000000	76.538	-5.6314
7500.000000	76.789	-3.6987
7620.000000	77.154	-1.9271
7750.000000	77.604	-0.8700
7880.000000	78.064	-0.9292
8000.000000	78.454	-2.1525
8120.000000	78.757	-4.5616
8250.000000	78.922	-8.3663
8380.000000	78.859	-12.9729
8500.000000	78.575	-17.3538
8620.000000	78.079	-21.2879
8750.000000	77.336	-24.5477
8850.000000	76.657	-26.1594
9000.000000	75.536	-27.0552
9120.000000	74.607	-26.5556
9250.000000	73.616	-24.9804
9380.000000	72.670	-22.5357
9500.000000	71.854	-19.6670
9620.000000	71.102	-16.3313
9750.000000	70.361	-12.2993
9880.000000	69.697	-7.9253
10000.000000	69.152	-3.6567
10150.000000	68.562	1.9099
10300.000000	68.069	7.6603
10440.000000	67.695	13.1505
10600.000000	67.363	19.5366
10750.000000	67.143	25.5928
10900.000000	67.012	31.6703
11060.000000	66.972	38.1148
11200.000000	67.028	43.6838
11380.000000	67.237	50.7356
11500.000000	67.473	55.3428
11720.000000	68.141	63.4367
11800.000000	68.472	66.2106
12060.000000	69.954	74.1504
12200.000000	71.042	77.3745
12410.000000	73.000	79.8272
12500.000000	73.901	79.5803
12650.000000	75.359	76.7204
12800.000000	76.601	70.1393
13150.000000	77.742	42.2647
13200.000000	77.653	37.8239
13400.000000	76.708	22.4497
13600.000000	75.055	13.0324
13800.000000	73.080	9.4366
14000.000000	71.140	9.8430
14300.000000	68.764	14.3639
14500.000000	67.632	18.5162
14750.000000	66.689	23.9547
15000.000000	66.200	28.9312
15250.000000	66.088	32.7229
15500.000000	66.244	34.6158
15750.000000	66.507	34.0904
16000.000000	66.686	31.0219
16250.000000	66.609	25.9502
16500.000000	66.187	20.0955
16750.000000	65.426	14.7946
17000.000000	64.385	11.0093
17250.000000	63.157	9.1677
17500.000000	61.848	9.2580
17750.000000	60.550	11.0422
18000.000000	59.335	14.1846
18250.000000	58.277	18.2975
18500.000000	57.444	22.8628
18750.000000	56.863	27.2899
19000.000000	56.516	30.9486
19250.000000	56.338	33.2631
19500.000000	56.239	34.0838
19750.000000	56.160	33.8591
