* Measurement data measured by REW V5.20.4
* Source: Microphone (USB Sound Device        ), MICROPHONE (Master Volume), L, volume: 0.750
* Format: 256k Log Swept Sine, 1 sweep at -12.0 dBFS with no timing reference
* Dated: 15-Sep-2023 21:56:30
* REW Settings:
*  C-weighting compensation: Off
*  Target level: 75.0 dB
* Note: 
* Measurement: Hidizs MS1 Galaxy L
* Smoothing: 1/12 octave
* Frequency Step: 1/48 octave
* Start Frequency: 20.300 Hz
*
* Freq(Hz)	SPL(dB)	Phase(degrees)
20.299999	77.741	-141.6123
20.600000	77.763	-141.7969
20.900000	77.816	-142.1926
21.200001	77.872	-142.6443
21.400000	77.908	-142.9615
21.799999	77.976	-143.6243
22.000000	78.007	-143.9642
22.400000	78.062	-144.6490
22.700001	78.100	-145.1522
23.000000	78.136	-145.6349
23.299999	78.172	-146.0948
23.600000	78.209	-146.5359
24.000000	78.261	-147.1061
24.299999	78.301	-147.5300
24.700001	78.355	-148.0985
25.000000	78.395	-148.5299
25.400000	78.446	-149.1137
25.799999	78.493	-149.7092
26.200001	78.536	-150.3156
26.500000	78.563	-150.7715
26.900000	78.595	-151.3674
27.200001	78.616	-151.7946
27.600000	78.643	-152.3296
28.000000	78.672	-152.8304
28.500000	78.712	-153.4383
29.000000	78.754	-154.0629
29.500000	78.793	-154.7141
30.000000	78.827	-155.3712
30.400000	78.852	-155.8826
30.700001	78.870	-156.2529
31.100000	78.895	-156.7295
31.500000	78.921	-157.1914
32.000000	78.951	-157.7560
32.500000	78.977	-158.3102
33.000000	78.998	-158.8549
33.500000	79.017	-159.3972
34.000000	79.037	-159.9492
34.500000	79.059	-160.5057
35.000000	79.083	-161.0283
35.500000	79.109	-161.4633
36.000000	79.144	-161.8014
36.500000	79.188	-162.1075
37.000000	79.232	-162.4872
37.500000	79.262	-162.9972
38.200001	79.263	-163.8545
38.700001	79.241	-164.4568
39.500000	79.209	-165.2965
40.000000	79.204	-165.7744
40.599998	79.210	-166.3301
41.200001	79.220	-166.8582
41.799999	79.231	-167.3544
42.500000	79.241	-167.9180
43.099998	79.245	-168.4034
43.700001	79.246	-168.8842
44.400002	79.245	-169.4345
45.000000	79.243	-169.9035
45.500000	79.242	-170.2943
46.200001	79.239	-170.8350
46.799999	79.238	-171.2911
47.500000	79.238	-171.8231
48.200001	79.235	-172.3548
48.700001	79.232	-172.7265
49.400002	79.228	-173.2294
50.000000	79.224	-173.6512
50.799999	79.220	-174.2119
51.500000	79.215	-174.6946
52.200001	79.206	-175.1573
53.000000	79.194	-175.6586
53.799999	79.179	-176.1395
54.500000	79.165	-176.5505
55.200001	79.151	-176.9561
56.000000	79.134	-177.4164
57.000000	79.111	-177.9923
58.000000	79.086	-178.5592
59.000000	79.060	-179.0947
60.000000	79.036	-179.5987
60.799999	79.016	-179.9931
61.500000	78.998	179.6615
62.200001	78.981	179.3147
63.000000	78.962	178.9206
64.000000	78.937	178.4450
65.000000	78.907	178.0035
66.000000	78.875	177.5989
67.000000	78.842	177.2194
68.000000	78.812	176.8455
69.000000	78.784	176.4759
70.000000	78.760	176.1179
71.000000	78.741	175.7526
72.000000	78.726	175.3601
73.000000	78.711	174.9588
74.000000	78.697	174.5820
75.000000	78.681	174.2255
76.199997	78.651	173.7681
77.500000	78.605	173.2283
78.800003	78.559	172.7050
80.000000	78.522	172.2523
81.199997	78.485	171.8128
82.500000	78.442	171.3512
83.800003	78.397	170.9136
85.000000	78.357	170.5266
86.199997	78.317	170.1564
87.500000	78.274	169.7745
88.500000	78.242	169.4875
90.000000	78.193	169.0648
91.199997	78.151	168.7364
92.500000	78.101	168.3871
93.800003	78.050	168.0459
95.000000	78.003	167.7423
96.199997	77.959	167.4460
97.500000	77.913	167.1286
98.800003	77.865	166.8145
100.000000	77.820	166.5248
101.500000	77.765	166.1676
103.000000	77.710	165.8331
104.400002	77.657	165.5451
106.000000	77.595	165.2370
107.500000	77.538	164.9603
109.000000	77.482	164.6845
110.599998	77.425	164.4003
112.000000	77.375	164.1750
113.800003	77.319	163.9852
115.000000	77.290	164.0085
117.199997	77.274	164.5783
118.000000	77.277	164.9162
120.599998	77.229	165.1482
122.000000	77.138	164.3636
124.099998	76.984	163.0444
125.000000	76.928	162.6413
126.500000	76.848	162.1768
128.000000	76.781	161.8741
131.500000	76.630	161.4115
132.000000	76.608	161.3584
134.000000	76.521	161.1656
136.000000	76.440	160.9951
138.000000	76.362	160.8384
140.000000	76.286	160.6938
143.000000	76.173	160.5215
145.000000	76.097	160.4524
147.500000	76.003	160.4419
150.000000	75.915	160.5081
152.500000	75.841	160.6008
155.000000	75.784	160.6679
157.500000	75.740	160.6724
160.000000	75.702	160.5722
162.500000	75.660	160.3677
165.000000	75.610	160.1279
167.500000	75.549	159.9042
170.000000	75.477	159.6935
172.500000	75.398	159.4867
175.000000	75.318	159.3026
177.500000	75.237	159.1606
180.000000	75.153	159.0540
182.500000	75.066	158.9698
185.000000	74.978	158.9031
187.500000	74.893	158.8603
190.000000	74.810	158.8377
192.500000	74.728	158.8203
195.000000	74.648	158.8018
197.500000	74.570	158.7807
200.000000	74.491	158.7629
203.000000	74.396	158.7567
206.000000	74.302	158.7665
209.000000	74.212	158.7967
212.000000	74.122	158.8552
214.000000	74.063	158.9102
218.000000	73.944	159.0516
220.000000	73.885	159.1344
224.000000	73.769	159.3063
227.000000	73.685	159.4325
230.000000	73.604	159.5638
233.000000	73.525	159.7029
236.000000	73.445	159.8415
240.000000	73.335	160.0311
243.000000	73.252	160.1930
247.000000	73.146	160.4431
250.000000	73.071	160.6459
254.000000	72.973	160.9184
258.000000	72.874	161.2018
262.000000	72.779	161.5021
265.000000	72.712	161.7231
269.000000	72.629	161.9904
272.000000	72.569	162.1761
276.000000	72.493	162.4274
280.000000	72.418	162.6951
285.000000	72.323	163.0378
290.000000	72.225	163.3781
295.000000	72.127	163.7042
300.000000	72.031	164.0164
304.000000	71.956	164.2813
307.000000	71.900	164.4846
311.000000	71.826	164.7410
315.000000	71.749	164.9777
320.000000	71.649	165.2703
325.000000	71.546	165.5857
330.000000	71.443	165.9332
335.000000	71.342	166.3108
340.000000	71.244	166.7176
345.000000	71.150	167.1585
350.000000	71.058	167.6071
355.000000	70.965	168.0250
360.000000	70.872	168.4185
365.000000	70.780	168.8194
370.000000	70.690	169.2488
375.000000	70.602	169.7065
382.000000	70.481	170.3570
387.000000	70.395	170.8141
395.000000	70.258	171.5500
400.000000	70.177	172.0203
406.000000	70.083	172.5995
412.000000	69.989	173.1906
418.000000	69.898	173.7787
425.000000	69.792	174.4623
431.000000	69.702	175.0518
437.000000	69.615	175.6273
444.000000	69.516	176.2943
450.000000	69.431	176.8997
455.000000	69.359	177.4338
462.000000	69.260	178.1942
468.000000	69.177	178.8341
475.000000	69.082	179.5765
482.000000	68.988	-179.6657
487.000000	68.922	-179.1118
494.000000	68.831	-178.3295
500.000000	68.753	-177.6694
508.000000	68.648	-176.7851
515.000000	68.557	-175.9534
522.000000	68.467	-175.0738
530.000000	68.364	-174.0660
538.000000	68.264	-173.0616
545.000000	68.182	-172.1737
552.000000	68.102	-171.2817
560.000000	68.010	-170.2594
570.000000	67.890	-168.9457
580.000000	67.768	-167.5450
590.000000	67.648	-166.0703
600.000000	67.539	-164.5444
608.000000	67.460	-163.2884
615.000000	67.394	-162.1679
622.000000	67.332	-161.0175
630.000000	67.267	-159.6405
640.000000	67.199	-157.8151
650.000000	67.149	-155.9176
660.000000	67.120	-154.0095
670.000000	67.111	-152.1263
680.000000	67.127	-150.2745
690.000000	67.169	-148.4777
700.000000	67.233	-146.7558
710.000000	67.312	-145.1442
720.000000	67.398	-143.6811
730.000000	67.483	-142.3640
740.000000	67.565	-141.1601
750.000000	67.642	-140.0390
762.000000	67.722	-138.7858
775.000000	67.794	-137.5155
788.000000	67.859	-136.3283
800.000000	67.914	-135.2980
812.000000	67.963	-134.2877
825.000000	68.010	-133.1568
838.000000	68.052	-131.9632
850.000000	68.088	-130.8351
862.000000	68.123	-129.7334
875.000000	68.159	-128.5752
885.000000	68.186	-127.6739
900.000000	68.231	-126.2825
912.000000	68.270	-125.1614
925.000000	68.312	-123.9623
938.000000	68.355	-122.7754
950.000000	68.400	-121.6847
962.000000	68.451	-120.6055
975.000000	68.511	-119.4513
988.000000	68.573	-118.3032
1000.000000	68.630	-117.2471
1015.000000	68.697	-115.9481
1030.000000	68.764	-114.6903
1044.000000	68.831	-113.5548
1060.000000	68.910	-112.3089
1075.000000	68.987	-111.1890
1090.000000	69.068	-110.0984
1106.000000	69.159	-108.9575
1120.000000	69.240	-107.9871
1138.000000	69.344	-106.7979
1150.000000	69.411	-106.0423
1172.000000	69.529	-104.7016
1180.000000	69.572	-104.2167
1206.000000	69.707	-102.6452
1220.000000	69.776	-101.8232
1241.000000	69.878	-100.6266
1250.000000	69.922	-100.1221
1265.000000	69.996	-99.2878
1280.000000	70.070	-98.4637
1315.000000	70.232	-96.5551
1320.000000	70.255	-96.2798
1340.000000	70.343	-95.1797
1360.000000	70.426	-94.0945
1380.000000	70.503	-93.0237
1400.000000	70.575	-91.9645
1430.000000	70.679	-90.4178
1450.000000	70.751	-89.4095
1475.000000	70.848	-88.1313
1500.000000	70.951	-86.8368
1525.000000	71.062	-85.5570
1550.000000	71.188	-84.2887
1575.000000	71.325	-83.0455
1600.000000	71.469	-81.8237
1625.000000	71.617	-80.6202
1650.000000	71.770	-79.4532
1675.000000	71.928	-78.3183
1700.000000	72.090	-77.1904
1725.000000	72.260	-76.0736
1750.000000	72.434	-74.9911
1775.000000	72.607	-73.9473
1800.000000	72.778	-72.9318
1825.000000	72.952	-71.9423
1850.000000	73.129	-70.9867
1875.000000	73.307	-70.0664
1900.000000	73.482	-69.1759
1925.000000	73.650	-68.3125
1950.000000	73.809	-67.4818
1975.000000	73.963	-66.6948
2000.000000	74.114	-65.9626
2030.000000	74.295	-65.1629
2060.000000	74.475	-64.4399
2090.000000	74.654	-63.7792
2120.000000	74.832	-63.1707
2140.000000	74.949	-62.7949
2180.000000	75.181	-62.1163
2200.000000	75.295	-61.8128
2240.000000	75.517	-61.2808
2270.000000	75.678	-60.9511
2300.000000	75.833	-60.6757
2330.000000	75.982	-60.4529
2360.000000	76.126	-60.2863
2400.000000	76.308	-60.1399
2430.000000	76.436	-60.0695
2470.000000	76.595	-60.0148
2500.000000	76.704	-60.0057
2540.000000	76.837	-60.0415
2580.000000	76.955	-60.1242
2620.000000	77.059	-60.2286
2650.000000	77.128	-60.3053
2690.000000	77.207	-60.3945
2720.000000	77.255	-60.4497
2760.000000	77.306	-60.5067
2800.000000	77.343	-60.5429
2850.000000	77.373	-60.5412
2900.000000	77.389	-60.4673
2950.000000	77.395	-60.3233
3000.000000	77.393	-60.1078
3040.000000	77.387	-59.8807
3070.000000	77.382	-59.6808
3110.000000	77.375	-59.3771
3150.000000	77.365	-59.0328
3200.000000	77.351	-58.5509
3250.000000	77.336	-58.0108
3300.000000	77.322	-57.4071
3350.000000	77.313	-56.7426
3400.000000	77.312	-56.0264
3450.000000	77.323	-55.2646
3500.000000	77.347	-54.4670
3550.000000	77.383	-53.6408
3600.000000	77.431	-52.7895
3650.000000	77.492	-51.9194
3700.000000	77.568	-51.0548
3750.000000	77.660	-50.2425
3820.000000	77.808	-49.2884
3870.000000	77.916	-48.7803
3950.000000	78.077	-48.2808
4000.000000	78.164	-48.1429
4060.000000	78.252	-48.1289
4120.000000	78.320	-48.2538
4180.000000	78.367	-48.4854
4250.000000	78.389	-48.8542
4310.000000	78.373	-49.2339
4370.000000	78.325	-49.6556
4440.000000	78.227	-50.1671
4500.000000	78.112	-50.5874
4550.000000	77.996	-50.9076
4620.000000	77.805	-51.2903
4680.000000	77.615	-51.5341
4750.000000	77.369	-51.6863
4820.000000	77.100	-51.6667
4870.000000	76.898	-51.5403
4940.000000	76.606	-51.2017
5000.000000	76.348	-50.7616
5080.000000	75.999	-49.9696
5150.000000	75.691	-49.0955
5220.000000	75.382	-48.0706
5300.000000	75.026	-46.7461
5380.000000	74.663	-45.2685
5450.000000	74.335	-43.8343
5520.000000	73.994	-42.2308
5600.000000	73.584	-40.1171
5700.000000	73.053	-36.9128
5800.000000	72.532	-32.9702
5900.000000	72.062	-28.3099
6000.000000	71.682	-23.0815
6080.000000	71.456	-18.6232
6150.000000	71.314	-14.6088
6220.000000	71.221	-10.5478
6300.000000	71.170	-5.8905
6400.000000	71.189	-0.0605
6500.000000	71.301	5.7810
6600.000000	71.520	11.5952
6700.000000	71.862	17.2904
6800.000000	72.338	22.7366
6900.000000	72.944	27.7703
7000.000000	73.656	32.2402
7100.000000	74.455	36.0668
7200.000000	75.335	39.2296
7300.000000	76.303	41.6941
7400.000000	77.364	43.3334
7500.000000	78.509	43.8895
7620.000000	79.934	42.5815
7750.000000	81.379	37.9056
7880.000000	82.485	29.3412
8000.000000	83.020	18.6271
8120.000000	83.000	7.0609
8250.000000	82.392	-3.8925
8380.000000	81.345	-11.5224
8500.000000	80.188	-15.4410
8620.000000	79.015	-16.9492
8750.000000	77.851	-16.7041
8850.000000	77.077	-15.6652
9000.000000	76.149	-13.3667
9120.000000	75.612	-11.3324
9250.000000	75.221	-9.3837
9380.000000	74.982	-8.1123
9500.000000	74.839	-7.8150
9620.000000	74.705	-8.4621
9750.000000	74.497	-10.1240
9880.000000	74.161	-12.4445
10000.000000	73.705	-14.7264
10150.000000	72.932	-17.0916
10300.000000	71.970	-18.3081
10440.000000	70.967	-18.1372
10600.000000	69.791	-16.4704
10750.000000	68.744	-13.8411
10900.000000	67.796	-10.6328
11060.000000	66.892	-6.9573
11200.000000	66.169	-3.6623
11380.000000	65.286	0.7314
11500.000000	64.713	3.8459
11720.000000	63.695	10.1474
11800.000000	63.347	12.6556
12060.000000	62.361	21.5751
12200.000000	61.954	26.7557
12410.000000	61.551	34.7339
12500.000000	61.462	38.1404
12650.000000	61.427	43.6949
12800.000000	61.531	49.0023
13150.000000	62.290	59.4464
13200.000000	62.450	60.5714
13400.000000	63.162	63.6804
13600.000000	63.865	64.1347
13800.000000	64.356	61.9492
14000.000000	64.468	58.3976
14300.000000	63.963	55.4184
14500.000000	63.578	56.6782
14750.000000	63.627	59.6150
15000.000000	64.176	59.9557
15250.000000	64.628	56.2034
15500.000000	64.646	50.5943
15750.000000	64.321	45.9978
16000.000000	63.960	43.2361
16250.000000	63.837	41.1684
16500.000000	64.011	37.8422
16750.000000	64.299	31.5764
17000.000000	64.386	21.9611
17250.000000	64.020	10.4114
17500.000000	63.118	-0.5029
17750.000000	61.781	-8.8269
18000.000000	60.230	-14.4130
18250.000000	58.715	-18.7167
18500.000000	57.406	-24.0061
18750.000000	56.287	-33.0720
19000.000000	55.156	-49.7325
19250.000000	53.742	-79.5411
19500.000000	51.894	-128.7324
19750.000000	49.763	166.3351
