* Measurement data measured by REW V5.20.4
* Source: Microphone (USB Sound Device        ), MICROPHONE (Master Volume), L, volume: 0.750
* Format: 256k Log Swept Sine, 1 sweep at -12.0 dBFS with no timing reference
* Dated: 05-Sep-2023 22:30:11
* REW Settings:
*  C-weighting compensation: Off
*  Target level: 75.0 dB
* Note: 
* Measurement: Hidizs MP145 Balanced L
* Smoothing: 1/12 octave
* Frequency Step: 1/48 octave
* Start Frequency: 20.300 Hz
*
* Freq(Hz)	SPL(dB)	Phase(degrees)
20.299999	75.384	-153.0424
20.600000	75.391	-153.2762
20.900000	75.410	-153.7514
21.200001	75.439	-154.2178
21.400000	75.465	-154.5027
21.799999	75.527	-155.0385
22.000000	75.560	-155.3058
22.400000	75.620	-155.8678
22.700001	75.654	-156.3027
23.000000	75.678	-156.7268
23.299999	75.694	-157.1270
23.600000	75.707	-157.5051
24.000000	75.724	-157.9945
24.299999	75.740	-158.3711
24.700001	75.763	-158.9004
25.000000	75.780	-159.3110
25.400000	75.802	-159.8532
25.799999	75.823	-160.3634
26.200001	75.843	-160.8382
26.500000	75.858	-161.1841
26.900000	75.875	-161.6548
27.200001	75.884	-162.0267
27.600000	75.890	-162.5500
28.000000	75.890	-163.0917
28.500000	75.889	-163.7665
29.000000	75.896	-164.4167
29.500000	75.915	-165.0352
30.000000	75.940	-165.6184
30.400000	75.959	-166.0568
30.700001	75.970	-166.3699
31.100000	75.977	-166.7724
31.500000	75.978	-167.1680
32.000000	75.974	-167.6695
32.500000	75.972	-168.1898
33.000000	75.978	-168.7222
33.500000	75.987	-169.2415
34.000000	75.994	-169.7195
34.500000	75.991	-170.1667
35.000000	75.979	-170.6556
35.500000	75.956	-171.2950
36.000000	75.922	-172.1269
36.500000	75.875	-173.0558
37.000000	75.826	-173.8785
37.500000	75.797	-174.4402
38.200001	75.810	-174.8188
38.700001	75.844	-174.9839
39.500000	75.875	-175.3231
40.000000	75.867	-175.5535
40.599998	75.849	-175.8190
41.200001	75.843	-176.1477
41.799999	75.843	-176.5922
42.500000	75.836	-177.1626
43.099998	75.829	-177.5817
43.700001	75.833	-177.9480
44.400002	75.850	-178.4085
45.000000	75.860	-178.8661
45.500000	75.857	-179.2712
46.200001	75.840	-179.8461
46.799999	75.825	179.6627
47.500000	75.818	179.1224
48.200001	75.817	178.6968
48.700001	75.814	178.5029
49.400002	75.796	178.3682
50.000000	75.768	178.2899
50.799999	75.722	178.0740
51.500000	75.683	177.7274
52.200001	75.648	177.3011
53.000000	75.604	176.8544
53.799999	75.553	176.5174
54.500000	75.513	176.2291
55.200001	75.483	175.8354
56.000000	75.457	175.2653
57.000000	75.431	174.5980
58.000000	75.417	174.1054
59.000000	75.403	173.6822
60.000000	75.380	173.2387
60.799999	75.356	172.8644
61.500000	75.332	172.5374
62.200001	75.305	172.2246
63.000000	75.271	171.8885
64.000000	75.223	171.4875
65.000000	75.175	171.0970
66.000000	75.130	170.7310
67.000000	75.087	170.3944
68.000000	75.047	170.0611
69.000000	75.006	169.7136
70.000000	74.966	169.3677
71.000000	74.926	169.0462
72.000000	74.884	168.7460
73.000000	74.840	168.4479
74.000000	74.796	168.1411
75.000000	74.750	167.8256
76.199997	74.694	167.4454
77.500000	74.632	167.0550
78.800003	74.571	166.7048
80.000000	74.515	166.3947
81.199997	74.455	166.0751
82.500000	74.390	165.7316
83.800003	74.333	165.4091
85.000000	74.286	165.1245
86.199997	74.240	164.8524
87.500000	74.187	164.5877
88.500000	74.144	164.4135
90.000000	74.078	164.1876
91.199997	74.025	164.0036
92.500000	73.969	163.7797
93.800003	73.913	163.5498
95.000000	73.863	163.3466
96.199997	73.814	163.1429
97.500000	73.761	162.9118
98.800003	73.709	162.6860
100.000000	73.658	162.5075
101.500000	73.593	162.3247
103.000000	73.528	162.1484
104.400002	73.466	161.9747
106.000000	73.392	161.7809
107.500000	73.324	161.6220
109.000000	73.262	161.4824
110.599998	73.197	161.3250
112.000000	73.141	161.1595
113.800003	73.059	160.8939
115.000000	72.989	160.6531
117.199997	72.822	159.9634
118.000000	72.753	159.6493
120.599998	72.607	159.1576
122.000000	72.604	159.4250
124.099998	72.608	159.8995
125.000000	72.594	160.0132
126.500000	72.551	160.1081
128.000000	72.496	160.1425
131.500000	72.358	160.0696
132.000000	72.338	160.0466
134.000000	72.260	159.9763
136.000000	72.192	159.9726
138.000000	72.132	159.9946
140.000000	72.074	160.0200
143.000000	71.983	160.0958
145.000000	71.921	160.1210
147.500000	71.842	160.0334
150.000000	71.759	159.8550
152.500000	71.676	159.7236
155.000000	71.600	159.7170
157.500000	71.528	159.7787
160.000000	71.451	159.8476
162.500000	71.370	159.9345
165.000000	71.290	160.0370
167.500000	71.214	160.1175
170.000000	71.144	160.1658
172.500000	71.075	160.2096
175.000000	71.004	160.2829
177.500000	70.930	160.3819
180.000000	70.858	160.4783
182.500000	70.790	160.5751
185.000000	70.722	160.6935
187.500000	70.652	160.8408
190.000000	70.582	161.0018
192.500000	70.513	161.1519
195.000000	70.444	161.2820
197.500000	70.372	161.4050
200.000000	70.299	161.5469
203.000000	70.211	161.7483
206.000000	70.127	161.9543
209.000000	70.040	162.1605
212.000000	69.952	162.3694
214.000000	69.896	162.5152
218.000000	69.792	162.8375
220.000000	69.743	163.0083
224.000000	69.638	163.3469
227.000000	69.558	163.6249
230.000000	69.484	163.9745
233.000000	69.416	164.4099
236.000000	69.353	164.9009
240.000000	69.283	165.5833
243.000000	69.245	166.0953
247.000000	69.216	166.7204
250.000000	69.208	167.0778
254.000000	69.198	167.3618
258.000000	69.174	167.4839
262.000000	69.130	167.5632
265.000000	69.090	167.6364
269.000000	69.032	167.7716
272.000000	68.987	167.9020
276.000000	68.922	168.1098
280.000000	68.856	168.3577
285.000000	68.776	168.7263
290.000000	68.698	169.1022
295.000000	68.622	169.4966
300.000000	68.558	169.9280
304.000000	68.513	170.2638
307.000000	68.478	170.4942
311.000000	68.427	170.7828
315.000000	68.377	171.0828
320.000000	68.312	171.5015
325.000000	68.244	171.9603
330.000000	68.179	172.4392
335.000000	68.118	172.9249
340.000000	68.058	173.3983
345.000000	68.000	173.8499
350.000000	67.943	174.2979
355.000000	67.890	174.7645
360.000000	67.836	175.2457
365.000000	67.780	175.7216
370.000000	67.725	176.1835
375.000000	67.673	176.6361
382.000000	67.602	177.2762
387.000000	67.555	177.7602
395.000000	67.490	178.5742
400.000000	67.455	179.1054
406.000000	67.416	179.7453
412.000000	67.378	-179.6364
418.000000	67.342	-179.0457
425.000000	67.304	-178.3924
431.000000	67.272	-177.8624
437.000000	67.241	-177.3401
444.000000	67.201	-176.7401
450.000000	67.168	-176.2363
455.000000	67.142	-175.8178
462.000000	67.106	-175.2365
468.000000	67.076	-174.7390
475.000000	67.041	-174.1267
482.000000	67.011	-173.4714
487.000000	66.991	-173.0055
494.000000	66.963	-172.3852
500.000000	66.940	-171.8776
508.000000	66.912	-171.1931
515.000000	66.894	-170.5631
522.000000	66.877	-169.9101
530.000000	66.855	-169.1527
538.000000	66.827	-168.3993
545.000000	66.801	-167.7382
552.000000	66.779	-167.0882
560.000000	66.763	-166.3980
570.000000	66.747	-165.5872
580.000000	66.730	-164.7535
590.000000	66.713	-163.8884
600.000000	66.697	-163.0068
608.000000	66.688	-162.2910
615.000000	66.683	-161.6612
622.000000	66.681	-161.0308
630.000000	66.679	-160.3140
640.000000	66.675	-159.4462
650.000000	66.671	-158.6130
660.000000	66.674	-157.7977
670.000000	66.689	-156.9781
680.000000	66.708	-156.1291
690.000000	66.725	-155.2644
700.000000	66.738	-154.4129
710.000000	66.746	-153.5813
720.000000	66.753	-152.7699
730.000000	66.767	-151.9734
740.000000	66.787	-151.1691
750.000000	66.808	-150.3333
762.000000	66.831	-149.2914
775.000000	66.862	-148.1479
788.000000	66.898	-147.0195
800.000000	66.932	-146.0257
812.000000	66.972	-145.0905
825.000000	67.021	-144.1177
838.000000	67.071	-143.1441
850.000000	67.118	-142.2255
862.000000	67.167	-141.2970
875.000000	67.222	-140.2985
885.000000	67.266	-139.5443
900.000000	67.341	-138.4443
912.000000	67.408	-137.6040
925.000000	67.483	-136.7464
938.000000	67.562	-135.9301
950.000000	67.637	-135.1927
962.000000	67.710	-134.4569
975.000000	67.785	-133.6650
988.000000	67.858	-132.8995
1000.000000	67.931	-132.2267
1015.000000	68.034	-131.4205
1030.000000	68.142	-130.6518
1044.000000	68.239	-129.9722
1060.000000	68.344	-129.2387
1075.000000	68.442	-128.5988
1090.000000	68.543	-128.0008
1106.000000	68.654	-127.3980
1120.000000	68.752	-126.9074
1138.000000	68.872	-126.3233
1150.000000	68.951	-125.9492
1172.000000	69.098	-125.2655
1180.000000	69.151	-125.0178
1206.000000	69.323	-124.2513
1220.000000	69.414	-123.8868
1241.000000	69.546	-123.3985
1250.000000	69.600	-123.1966
1265.000000	69.687	-122.8553
1280.000000	69.772	-122.5108
1315.000000	69.971	-121.7782
1320.000000	70.000	-121.6858
1340.000000	70.115	-121.3361
1360.000000	70.224	-120.9922
1380.000000	70.323	-120.6394
1400.000000	70.417	-120.2770
1430.000000	70.555	-119.7191
1450.000000	70.648	-119.3728
1475.000000	70.764	-118.9957
1500.000000	70.888	-118.6550
1525.000000	71.023	-118.3343
1550.000000	71.172	-118.0430
1575.000000	71.331	-117.7846
1600.000000	71.494	-117.5529
1625.000000	71.660	-117.3521
1650.000000	71.828	-117.1898
1675.000000	71.998	-117.0658
1700.000000	72.169	-116.9855
1725.000000	72.343	-116.9623
1750.000000	72.515	-117.0022
1775.000000	72.683	-117.0967
1800.000000	72.847	-117.2335
1825.000000	73.008	-117.4039
1850.000000	73.165	-117.6064
1875.000000	73.315	-117.8459
1900.000000	73.456	-118.1242
1925.000000	73.586	-118.4414
1950.000000	73.704	-118.7977
1975.000000	73.810	-119.1888
2000.000000	73.908	-119.5983
2030.000000	74.015	-120.0987
2060.000000	74.112	-120.6244
2090.000000	74.200	-121.1915
2120.000000	74.279	-121.7996
2140.000000	74.326	-122.2218
2180.000000	74.411	-123.0879
2200.000000	74.449	-123.5261
2240.000000	74.514	-124.3991
2270.000000	74.552	-125.0483
2300.000000	74.583	-125.6950
2330.000000	74.607	-126.3362
2360.000000	74.625	-126.9604
2400.000000	74.639	-127.7541
2430.000000	74.644	-128.3208
2470.000000	74.645	-129.0390
2500.000000	74.641	-129.5555
2540.000000	74.629	-130.2209
2580.000000	74.612	-130.8679
2620.000000	74.591	-131.5128
2650.000000	74.571	-131.9997
2690.000000	74.539	-132.6420
2720.000000	74.510	-133.1095
2760.000000	74.463	-133.7187
2800.000000	74.404	-134.3117
2850.000000	74.317	-135.0044
2900.000000	74.215	-135.6210
2950.000000	74.104	-136.1424
3000.000000	73.983	-136.5673
3040.000000	73.882	-136.8401
3070.000000	73.804	-137.0005
3110.000000	73.702	-137.1526
3150.000000	73.601	-137.2321
3200.000000	73.476	-137.2278
3250.000000	73.357	-137.1231
3300.000000	73.247	-136.9336
3350.000000	73.145	-136.6633
3400.000000	73.054	-136.3156
3450.000000	72.977	-135.9005
3500.000000	72.917	-135.4288
3550.000000	72.872	-134.9078
3600.000000	72.840	-134.3508
3650.000000	72.821	-133.7705
3700.000000	72.816	-133.1834
3750.000000	72.824	-132.6057
3820.000000	72.853	-131.8210
3870.000000	72.881	-131.2937
3950.000000	72.939	-130.5584
4000.000000	72.983	-130.1696
4060.000000	73.042	-129.7695
4120.000000	73.109	-129.4495
4180.000000	73.183	-129.2079
4250.000000	73.277	-129.0281
4310.000000	73.359	-128.9863
4370.000000	73.436	-129.0883
4440.000000	73.516	-129.4319
4500.000000	73.569	-129.9219
4550.000000	73.595	-130.4442
4620.000000	73.597	-131.2842
4680.000000	73.568	-132.0303
4750.000000	73.505	-132.8294
4820.000000	73.421	-133.4690
4870.000000	73.358	-133.8207
4940.000000	73.275	-134.2085
5000.000000	73.211	-134.4848
5080.000000	73.131	-134.8272
5150.000000	73.057	-135.1353
5220.000000	72.973	-135.4391
5300.000000	72.862	-135.7032
5380.000000	72.735	-135.7939
5450.000000	72.620	-135.7086
5520.000000	72.511	-135.4850
5600.000000	72.404	-135.0977
5700.000000	72.305	-134.4976
5800.000000	72.239	-133.8501
5900.000000	72.192	-133.1765
6000.000000	72.163	-132.4856
6080.000000	72.151	-131.9321
6150.000000	72.148	-131.4495
6220.000000	72.151	-130.9650
6300.000000	72.159	-130.4046
6400.000000	72.177	-129.6745
6500.000000	72.200	-128.8289
6600.000000	72.248	-127.7345
6700.000000	72.368	-126.3444
6800.000000	72.606	-124.8329
6900.000000	72.968	-123.5110
7000.000000	73.424	-122.6170
7100.000000	73.948	-122.2569
7200.000000	74.526	-122.4874
7300.000000	75.146	-123.3831
7400.000000	75.795	-125.0525
7500.000000	76.451	-127.6238
7620.000000	77.201	-132.0497
7750.000000	77.888	-138.5508
7880.000000	78.347	-146.6135
8000.000000	78.512	-154.9185
8120.000000	78.427	-163.3411
8250.000000	78.106	-171.9969
8380.000000	77.615	179.9166
8500.000000	77.017	172.8964
8620.000000	76.245	166.6340
8750.000000	75.198	161.5307
8850.000000	74.299	159.2219
9000.000000	73.014	157.9898
9120.000000	72.205	157.7144
9250.000000	71.559	156.8759
9380.000000	71.015	155.0028
9500.000000	70.469	152.5696
9620.000000	69.783	150.1266
9750.000000	68.826	148.6146
9880.000000	67.682	149.5469
10000.000000	66.630	153.0098
10150.000000	65.735	159.4049
10300.000000	65.547	165.0114
10440.000000	65.762	167.7500
10600.000000	66.082	167.8923
10750.000000	66.274	165.7866
10900.000000	66.276	162.0851
11060.000000	65.969	157.2090
11200.000000	65.373	153.4414
11380.000000	64.178	151.6308
11500.000000	63.247	153.0204
11720.000000	61.810	159.2887
11800.000000	61.471	161.9525
12060.000000	60.989	169.8235
12200.000000	61.007	173.3502
12410.000000	61.262	177.6715
12500.000000	61.429	179.2017
12650.000000	61.770	-178.5791
12800.000000	62.190	-176.7289
13150.000000	63.516	-174.4502
13200.000000	63.743	-174.4605
13400.000000	64.682	-175.8809
13600.000000	65.455	179.9886
13800.000000	65.827	174.4894
14000.000000	65.944	170.5930
14300.000000	66.591	168.8217
14500.000000	67.523	167.2233
14750.000000	68.808	161.8869
15000.000000	70.028	153.8976
15250.000000	71.393	144.3463
15500.000000	72.807	131.0798
15750.000000	73.878	112.3747
16000.000000	74.282	89.1623
16250.000000	73.751	65.3507
16500.000000	72.249	46.6860
16750.000000	70.170	35.0434
17000.000000	68.073	27.6721
17250.000000	66.288	22.0343
17500.000000	64.868	17.0712
17750.000000	63.745	12.2561
18000.000000	62.861	7.1515
18250.000000	62.176	1.2852
18500.000000	61.610	-5.8394
18750.000000	61.027	-14.3784
19000.000000	60.298	-23.8051
19250.000000	59.380	-33.0619
19500.000000	58.387	-41.0355
19750.000000	57.598	-46.9767
