* Measurement data measured by REW V5.20.4
* Source: Microphone (USB Sound Device        ), MICROPHONE (Master Volume), R, volume: 0.750
* Format: 256k Log Swept Sine, 1 sweep at -12.0 dBFS with no timing reference
* Dated: 05-Sep-2023 22:54:23
* REW Settings:
*  C-weighting compensation: Off
*  Target level: 75.0 dB
* Note: 
* Measurement: Hidizs MP145 High R
* Smoothing: 1/12 octave
* Frequency Step: 1/48 octave
* Start Frequency: 20.300 Hz
*
* Freq(Hz)	SPL(dB)	Phase(degrees)
20.299999	75.632	-155.5169
20.600000	75.640	-155.6538
20.900000	75.660	-155.9463
21.200001	75.681	-156.2780
21.400000	75.695	-156.5089
21.799999	75.721	-156.9879
22.000000	75.733	-157.2361
22.400000	75.757	-157.7579
22.700001	75.774	-158.1812
23.000000	75.790	-158.6387
23.299999	75.803	-159.1218
23.600000	75.812	-159.6088
24.000000	75.820	-160.2197
24.299999	75.827	-160.6244
24.700001	75.847	-161.1010
25.000000	75.871	-161.4474
25.400000	75.908	-161.9497
25.799999	75.936	-162.5146
26.200001	75.944	-163.0835
26.500000	75.939	-163.4596
26.900000	75.927	-163.8646
27.200001	75.926	-164.1247
27.600000	75.939	-164.4983
28.000000	75.963	-164.9910
28.500000	75.982	-165.7587
29.000000	75.975	-166.4799
29.500000	75.961	-166.9739
30.000000	75.971	-167.3223
30.400000	75.999	-167.6729
30.700001	76.021	-168.0412
31.100000	76.033	-168.6499
31.500000	76.019	-169.2795
32.000000	75.975	-169.8816
32.500000	75.942	-170.1850
33.000000	75.957	-170.3542
33.500000	76.014	-170.6663
34.000000	76.071	-171.2775
34.500000	76.081	-172.0599
35.000000	76.033	-172.7003
35.500000	75.957	-172.9243
36.000000	75.913	-172.7680
36.500000	75.933	-172.5865
37.000000	75.999	-172.8261
37.500000	76.051	-173.6570
38.200001	76.009	-175.3259
38.700001	75.901	-176.2597
39.500000	75.738	-176.5626
40.000000	75.726	-176.2278
40.599998	75.812	-175.8857
41.200001	75.931	-176.0726
41.799999	76.004	-176.7990
42.500000	75.993	-177.8979
43.099998	75.932	-178.7000
43.700001	75.865	-179.2858
44.400002	75.796	-179.7402
45.000000	75.746	-179.9435
45.500000	75.714	-179.9964
46.200001	75.690	179.9949
46.799999	75.683	179.9375
47.500000	75.674	179.8097
48.200001	75.669	179.6821
48.700001	75.676	179.5645
49.400002	75.700	179.2608
50.000000	75.722	178.8535
50.799999	75.738	178.2292
51.500000	75.747	177.7055
52.200001	75.754	177.1847
53.000000	75.748	176.5665
53.799999	75.719	176.0131
54.500000	75.687	175.6707
55.200001	75.665	175.4454
56.000000	75.654	175.1968
57.000000	75.632	174.7533
58.000000	75.574	174.3120
59.000000	75.502	174.0538
60.000000	75.444	173.8684
60.799999	75.400	173.6339
61.500000	75.352	173.3413
62.200001	75.288	173.0122
63.000000	75.203	172.6594
64.000000	75.102	172.2750
65.000000	75.037	171.8660
66.000000	75.016	171.3406
67.000000	75.020	170.7294
68.000000	75.017	170.2037
69.000000	74.988	169.9059
70.000000	74.929	169.8116
71.000000	74.852	169.7838
72.000000	74.783	169.6801
73.000000	74.745	169.4543
74.000000	74.737	169.1848
75.000000	74.739	168.9623
76.199997	74.721	168.7058
77.500000	74.670	168.2581
78.800003	74.615	167.7023
80.000000	74.569	167.3008
81.199997	74.509	166.9942
82.500000	74.437	166.6561
83.800003	74.375	166.3831
85.000000	74.324	166.2073
86.199997	74.275	165.9987
87.500000	74.229	165.7433
88.500000	74.194	165.6010
90.000000	74.137	165.4948
91.199997	74.091	165.4633
92.500000	74.035	165.4383
93.800003	73.967	165.3566
95.000000	73.895	165.2124
96.199997	73.818	165.0236
97.500000	73.736	164.7717
98.800003	73.669	164.4857
100.000000	73.625	164.2325
101.500000	73.585	163.9930
103.000000	73.542	163.8704
104.400002	73.485	163.8184
106.000000	73.404	163.7485
107.500000	73.330	163.6495
109.000000	73.268	163.5604
110.599998	73.206	163.4898
112.000000	73.144	163.4054
113.800003	73.064	163.2393
115.000000	73.013	163.1195
117.199997	72.914	162.9055
118.000000	72.874	162.8198
120.599998	72.758	162.6776
122.000000	72.717	162.7489
124.099998	72.664	162.8482
125.000000	72.639	162.8587
126.500000	72.592	162.8479
128.000000	72.542	162.8182
131.500000	72.418	162.7454
132.000000	72.400	162.7357
134.000000	72.331	162.7032
136.000000	72.264	162.6795
138.000000	72.195	162.6513
140.000000	72.125	162.6152
143.000000	72.014	162.5865
145.000000	71.942	162.6174
147.500000	71.865	162.7383
150.000000	71.799	162.8913
152.500000	71.727	162.9893
155.000000	71.640	163.0475
157.500000	71.548	163.1054
160.000000	71.458	163.1848
162.500000	71.374	163.3126
165.000000	71.298	163.4786
167.500000	71.230	163.6559
170.000000	71.167	163.8340
172.500000	71.105	164.0194
175.000000	71.040	164.1927
177.500000	70.971	164.3210
180.000000	70.899	164.4026
182.500000	70.828	164.4779
185.000000	70.761	164.5939
187.500000	70.697	164.7693
190.000000	70.634	164.9978
192.500000	70.567	165.2474
195.000000	70.498	165.4757
197.500000	70.431	165.6699
200.000000	70.368	165.8505
203.000000	70.295	166.0720
206.000000	70.221	166.2842
209.000000	70.147	166.4811
212.000000	70.073	166.6982
214.000000	70.023	166.8619
218.000000	69.928	167.2085
220.000000	69.884	167.3829
224.000000	69.798	167.7421
227.000000	69.736	168.0363
230.000000	69.675	168.3528
233.000000	69.613	168.6688
236.000000	69.550	168.9684
240.000000	69.469	169.3746
243.000000	69.412	169.6941
247.000000	69.337	170.1118
250.000000	69.277	170.4205
254.000000	69.200	170.8403
258.000000	69.128	171.2686
262.000000	69.058	171.7000
265.000000	69.005	172.0260
269.000000	68.936	172.4688
272.000000	68.886	172.8070
276.000000	68.819	173.2580
280.000000	68.752	173.7090
285.000000	68.668	174.2917
290.000000	68.587	174.8965
295.000000	68.513	175.5178
300.000000	68.446	176.1407
304.000000	68.391	176.6319
307.000000	68.347	177.0110
311.000000	68.288	177.5575
315.000000	68.231	178.1355
320.000000	68.167	178.8663
325.000000	68.113	179.6472
330.000000	68.075	-179.5327
335.000000	68.055	-178.7684
340.000000	68.047	-178.1351
345.000000	68.040	-177.6203
350.000000	68.021	-177.1896
355.000000	67.989	-176.8065
360.000000	67.947	-176.4218
365.000000	67.901	-176.0043
370.000000	67.854	-175.5601
375.000000	67.807	-175.1011
382.000000	67.744	-174.4048
387.000000	67.699	-173.8598
395.000000	67.631	-172.9725
400.000000	67.589	-172.4369
406.000000	67.538	-171.8105
412.000000	67.490	-171.1852
418.000000	67.446	-170.5551
425.000000	67.399	-169.8086
431.000000	67.360	-169.1705
437.000000	67.322	-168.5283
444.000000	67.281	-167.7513
450.000000	67.250	-167.0659
455.000000	67.224	-166.4976
462.000000	67.186	-165.7296
468.000000	67.155	-165.0826
475.000000	67.122	-164.3016
482.000000	67.089	-163.4909
487.000000	67.067	-162.9065
494.000000	67.041	-162.1039
500.000000	67.020	-161.4442
508.000000	66.990	-160.5836
515.000000	66.965	-159.8090
522.000000	66.938	-159.0082
530.000000	66.911	-158.0930
538.000000	66.888	-157.2131
545.000000	66.871	-156.4666
552.000000	66.855	-155.7230
560.000000	66.839	-154.8707
570.000000	66.824	-153.7987
580.000000	66.807	-152.6995
590.000000	66.786	-151.5983
600.000000	66.769	-150.5686
608.000000	66.763	-149.7780
615.000000	66.762	-149.0699
622.000000	66.764	-148.3320
630.000000	66.765	-147.4586
640.000000	66.765	-146.3463
650.000000	66.764	-145.2391
660.000000	66.765	-144.1524
670.000000	66.770	-143.0982
680.000000	66.781	-142.0625
690.000000	66.796	-141.0262
700.000000	66.810	-139.9665
710.000000	66.821	-138.8913
720.000000	66.834	-137.8459
730.000000	66.851	-136.8349
740.000000	66.871	-135.8204
750.000000	66.892	-134.7807
762.000000	66.919	-133.5130
775.000000	66.950	-132.1622
788.000000	66.982	-130.8478
800.000000	67.017	-129.6453
812.000000	67.059	-128.4447
825.000000	67.112	-127.1524
838.000000	67.171	-125.8605
850.000000	67.228	-124.6612
862.000000	67.285	-123.4732
875.000000	67.347	-122.2139
885.000000	67.394	-121.2747
900.000000	67.466	-119.9165
912.000000	67.525	-118.8441
925.000000	67.594	-117.6748
938.000000	67.668	-116.5134
950.000000	67.742	-115.4710
962.000000	67.821	-114.4724
975.000000	67.910	-113.4453
988.000000	68.000	-112.4627
1000.000000	68.082	-111.5674
1015.000000	68.180	-110.4481
1030.000000	68.278	-109.3514
1044.000000	68.373	-108.3735
1060.000000	68.483	-107.3291
1075.000000	68.588	-106.4061
1090.000000	68.696	-105.5147
1106.000000	68.810	-104.5965
1120.000000	68.908	-103.8254
1138.000000	69.031	-102.8703
1150.000000	69.112	-102.2496
1172.000000	69.258	-101.1546
1180.000000	69.311	-100.7718
1206.000000	69.483	-99.5587
1220.000000	69.575	-98.9190
1241.000000	69.708	-97.9811
1250.000000	69.764	-97.5892
1265.000000	69.858	-96.9486
1280.000000	69.954	-96.3211
1315.000000	70.168	-94.9057
1320.000000	70.196	-94.7076
1340.000000	70.306	-93.9266
1360.000000	70.411	-93.1651
1380.000000	70.510	-92.4189
1400.000000	70.601	-91.6871
1430.000000	70.730	-90.6312
1450.000000	70.815	-89.9419
1475.000000	70.923	-89.0670
1500.000000	71.041	-88.1758
1525.000000	71.169	-87.3070
1550.000000	71.307	-86.4799
1575.000000	71.451	-85.6737
1600.000000	71.602	-84.8825
1625.000000	71.758	-84.1259
1650.000000	71.918	-83.3936
1675.000000	72.079	-82.6661
1700.000000	72.243	-81.9496
1725.000000	72.414	-81.2599
1750.000000	72.591	-80.6078
1775.000000	72.767	-79.9919
1800.000000	72.941	-79.4099
1825.000000	73.116	-78.8657
1850.000000	73.290	-78.3617
1875.000000	73.462	-77.9003
1900.000000	73.629	-77.4909
1925.000000	73.787	-77.1376
1950.000000	73.933	-76.8352
1975.000000	74.068	-76.5816
2000.000000	74.198	-76.3804
2030.000000	74.349	-76.2054
2060.000000	74.493	-76.0955
2090.000000	74.629	-76.0473
2120.000000	74.759	-76.0519
2140.000000	74.840	-76.0761
2180.000000	74.992	-76.1654
2200.000000	75.062	-76.2342
2240.000000	75.190	-76.4330
2270.000000	75.273	-76.6265
2300.000000	75.348	-76.8383
2330.000000	75.413	-77.0576
2360.000000	75.468	-77.2822
2400.000000	75.527	-77.5831
2430.000000	75.562	-77.7968
2470.000000	75.596	-78.0569
2500.000000	75.613	-78.2328
2540.000000	75.623	-78.4419
2580.000000	75.622	-78.6240
2620.000000	75.610	-78.7808
2650.000000	75.596	-78.8805
2690.000000	75.570	-78.9881
2720.000000	75.545	-79.0498
2760.000000	75.503	-79.1034
2800.000000	75.453	-79.1269
2850.000000	75.375	-79.1243
2900.000000	75.283	-79.0951
2950.000000	75.175	-79.0270
3000.000000	75.051	-78.8792
3040.000000	74.940	-78.6710
3070.000000	74.852	-78.4493
3110.000000	74.730	-78.0629
3150.000000	74.603	-77.5772
3200.000000	74.442	-76.8411
3250.000000	74.283	-75.9649
3300.000000	74.132	-74.9458
3350.000000	73.990	-73.7967
3400.000000	73.862	-72.5453
3450.000000	73.752	-71.2157
3500.000000	73.662	-69.8226
3550.000000	73.588	-68.3720
3600.000000	73.530	-66.8645
3650.000000	73.485	-65.3116
3700.000000	73.452	-63.7319
3750.000000	73.430	-62.1355
3820.000000	73.414	-59.8816
3870.000000	73.414	-58.2680
3950.000000	73.432	-55.7216
4000.000000	73.454	-54.1797
4060.000000	73.493	-52.3919
4120.000000	73.544	-50.6647
4180.000000	73.605	-48.9956
4250.000000	73.688	-47.1424
4310.000000	73.767	-45.6493
4370.000000	73.851	-44.2570
4440.000000	73.954	-42.7884
4500.000000	74.048	-41.6933
4550.000000	74.126	-40.9211
4620.000000	74.225	-40.0730
4680.000000	74.290	-39.5495
4750.000000	74.331	-39.1199
4820.000000	74.324	-38.7690
4870.000000	74.291	-38.4758
4940.000000	74.217	-37.8910
5000.000000	74.141	-37.1845
5080.000000	74.049	-35.9961
5150.000000	73.986	-34.8308
5220.000000	73.940	-33.6518
5300.000000	73.897	-32.3676
5380.000000	73.847	-31.1555
5450.000000	73.789	-30.0957
5520.000000	73.718	-28.9623
5600.000000	73.625	-27.5088
5700.000000	73.516	-25.4439
5800.000000	73.435	-23.1841
5900.000000	73.383	-20.8447
6000.000000	73.353	-18.4924
6080.000000	73.339	-16.6020
6150.000000	73.333	-14.9418
6220.000000	73.331	-13.2779
6300.000000	73.337	-11.3667
6400.000000	73.358	-8.9553
6500.000000	73.397	-6.5182
6600.000000	73.452	-4.0470
6700.000000	73.530	-1.4873
6800.000000	73.648	1.2553
6900.000000	73.842	4.1871
7000.000000	74.137	7.1214
7100.000000	74.526	9.7970
7200.000000	74.992	12.0504
7300.000000	75.517	13.7920
7400.000000	76.092	14.9265
7500.000000	76.701	15.3481
7620.000000	77.450	14.7725
7750.000000	78.219	12.6493
7880.000000	78.858	8.8823
8000.000000	79.268	4.0794
8120.000000	79.455	-1.6048
8250.000000	79.379	-8.0206
8380.000000	79.042	-13.8520
8500.000000	78.578	-18.3414
8620.000000	78.036	-22.1627
8750.000000	77.370	-25.8681
8850.000000	76.770	-28.3233
9000.000000	75.696	-30.6297
9120.000000	74.749	-30.8351
9250.000000	73.771	-29.7270
9380.000000	72.929	-28.0415
9500.000000	72.261	-26.4455
9620.000000	71.656	-24.8961
9750.000000	71.052	-23.3586
9880.000000	70.456	-22.1028
10000.000000	69.822	-20.8261
10150.000000	68.831	-17.3881
10300.000000	67.838	-10.4512
10440.000000	67.378	-2.2911
10600.000000	67.558	5.3485
10750.000000	68.019	9.1013
10900.000000	68.415	9.7420
11060.000000	68.578	7.9666
11200.000000	68.421	5.4128
11380.000000	67.791	2.6687
11500.000000	67.169	1.9014
11720.000000	65.751	3.3465
11800.000000	65.160	5.0606
12060.000000	63.279	15.4767
12200.000000	62.574	23.0538
12410.000000	62.169	34.5284
12500.000000	62.200	39.0382
12650.000000	62.422	45.7536
12800.000000	62.761	51.5229
13150.000000	63.840	62.9513
13200.000000	64.052	64.4557
13400.000000	65.097	69.6795
13600.000000	66.305	72.3084
13800.000000	67.343	71.3147
14000.000000	67.947	67.7156
14300.000000	68.093	63.7207
14500.000000	68.236	64.4494
14750.000000	69.030	66.4098
15000.000000	70.185	65.2481
15250.000000	71.141	60.1167
15500.000000	71.891	53.7874
15750.000000	72.824	47.1071
16000.000000	73.880	37.0042
16250.000000	74.607	21.3524
16500.000000	74.662	1.3796
16750.000000	73.809	-18.5708
17000.000000	71.966	-32.2211
17250.000000	69.355	-36.2563
17500.000000	66.497	-33.2287
17750.000000	64.073	-28.5329
18000.000000	62.417	-25.3306
18250.000000	61.300	-23.7033
18500.000000	60.434	-23.0076
18750.000000	59.704	-23.2304
19000.000000	59.031	-24.7305
19250.000000	58.325	-27.5902
19500.000000	57.558	-31.5514
19750.000000	56.821	-35.8749
