* Measurement data measured by REW V5.20.4
* Source: Microphone (USB Sound Device        ), MICROPHONE (Master Volume), L, volume: 0.750
* Format: 256k Log Swept Sine, 1 sweep at -12.0 dBFS with no timing reference
* Dated: 19-Sep-2023 20:58:36
* REW Settings:
*  C-weighting compensation: Off
*  Target level: 75.0 dB
* Note: 
* Measurement: Kinera Celest Wyvern L
* Smoothing: 1/12 octave
* Frequency Step: 1/48 octave
* Start Frequency: 20.300 Hz
*
* Freq(Hz)	SPL(dB)	Phase(degrees)
20.299999	80.874	-169.5038
20.600000	80.868	-169.7027
20.900000	80.852	-170.1261
21.200001	80.836	-170.6021
21.400000	80.827	-170.9326
21.799999	80.810	-171.6194
22.000000	80.803	-171.9729
22.400000	80.792	-172.6936
22.700001	80.786	-173.2330
23.000000	80.782	-173.7579
23.299999	80.778	-174.2607
23.600000	80.775	-174.7376
24.000000	80.772	-175.3317
24.299999	80.768	-175.7477
24.700001	80.763	-176.2684
25.000000	80.757	-176.6396
25.400000	80.747	-177.1186
25.799999	80.734	-177.5901
26.200001	80.716	-178.0618
26.500000	80.699	-178.4175
26.900000	80.674	-178.8942
27.200001	80.652	-179.2527
27.600000	80.623	-179.7303
28.000000	80.595	179.7968
28.500000	80.563	179.2235
29.000000	80.536	178.6848
29.500000	80.515	178.1837
30.000000	80.497	177.7046
30.400000	80.482	177.3224
30.700001	80.470	177.0320
31.100000	80.449	176.6403
31.500000	80.423	176.2488
32.000000	80.386	175.7710
32.500000	80.345	175.3186
33.000000	80.303	174.9019
33.500000	80.264	174.5205
34.000000	80.230	174.1535
34.500000	80.201	173.7626
35.000000	80.174	173.3195
35.500000	80.144	172.8322
36.000000	80.108	172.3454
36.500000	80.069	171.9048
37.000000	80.032	171.5251
37.500000	79.997	171.1862
38.200001	79.950	170.7335
38.700001	79.914	170.4185
39.500000	79.857	169.9453
40.000000	79.824	169.6616
40.599998	79.784	169.3218
41.200001	79.740	168.9860
41.799999	79.692	168.6519
42.500000	79.635	168.2295
43.099998	79.589	167.8212
43.700001	79.546	167.4051
44.400002	79.502	166.9720
45.000000	79.469	166.6609
45.500000	79.439	166.4330
46.200001	79.389	166.1501
46.799999	79.343	165.9280
47.500000	79.294	165.6491
48.200001	79.252	165.3179
48.700001	79.222	165.0658
49.400002	79.176	164.7376
50.000000	79.132	164.4957
50.799999	79.068	164.2087
51.500000	79.008	163.9663
52.200001	78.950	163.7210
53.000000	78.889	163.4353
53.799999	78.832	163.1602
54.500000	78.780	162.9500
55.200001	78.727	162.7716
56.000000	78.666	162.5795
57.000000	78.594	162.3133
58.000000	78.526	162.0258
59.000000	78.461	161.7457
60.000000	78.393	161.4809
60.799999	78.331	161.2905
61.500000	78.274	161.1456
62.200001	78.221	161.0149
63.000000	78.167	160.8652
64.000000	78.104	160.6654
65.000000	78.037	160.4660
66.000000	77.962	160.2648
67.000000	77.881	160.0569
68.000000	77.806	159.8796
69.000000	77.745	159.7425
70.000000	77.693	159.6110
71.000000	77.636	159.4728
72.000000	77.574	159.3349
73.000000	77.512	159.2108
74.000000	77.450	159.1143
75.000000	77.388	159.0347
76.199997	77.311	158.9394
77.500000	77.226	158.8581
78.800003	77.142	158.7928
80.000000	77.067	158.6989
81.199997	76.996	158.5833
82.500000	76.923	158.4951
83.800003	76.847	158.4712
85.000000	76.778	158.4799
86.199997	76.710	158.4791
87.500000	76.636	158.4468
88.500000	76.578	158.4073
90.000000	76.495	158.3567
91.199997	76.432	158.3459
92.500000	76.363	158.3582
93.800003	76.297	158.3658
95.000000	76.238	158.3607
96.199997	76.182	158.3574
97.500000	76.122	158.3716
98.800003	76.058	158.4117
100.000000	75.996	158.4724
101.500000	75.918	158.5729
103.000000	75.840	158.6822
104.400002	75.769	158.7791
106.000000	75.689	158.8904
107.500000	75.618	158.9969
109.000000	75.550	159.0985
110.599998	75.480	159.1981
112.000000	75.420	159.2768
113.800003	75.348	159.3626
115.000000	75.303	159.3967
117.199997	75.241	159.3170
118.000000	75.226	159.2434
120.599998	75.156	159.2548
122.000000	75.091	159.5489
124.099998	74.990	160.0599
125.000000	74.950	160.2400
126.500000	74.886	160.4859
128.000000	74.821	160.6929
131.500000	74.675	161.1753
132.000000	74.656	161.2450
134.000000	74.579	161.5082
136.000000	74.506	161.7248
138.000000	74.438	161.9157
140.000000	74.375	162.1354
143.000000	74.284	162.5139
145.000000	74.226	162.7947
147.500000	74.155	163.1845
150.000000	74.084	163.6020
152.500000	74.020	164.0364
155.000000	73.964	164.4698
157.500000	73.919	164.8846
160.000000	73.887	165.2692
162.500000	73.861	165.6057
165.000000	73.834	165.9017
167.500000	73.802	166.1804
170.000000	73.767	166.4293
172.500000	73.729	166.6487
175.000000	73.683	166.8625
177.500000	73.631	167.0675
180.000000	73.580	167.2590
182.500000	73.529	167.4665
185.000000	73.476	167.7129
187.500000	73.428	167.9734
190.000000	73.387	168.2193
192.500000	73.348	168.4638
195.000000	73.308	168.7322
197.500000	73.265	169.0225
200.000000	73.224	169.3199
203.000000	73.180	169.6637
206.000000	73.140	169.9751
209.000000	73.100	170.2595
212.000000	73.054	170.5255
214.000000	73.022	170.6981
218.000000	72.959	171.0601
220.000000	72.929	171.2545
224.000000	72.869	171.6508
227.000000	72.825	171.9389
230.000000	72.778	172.2323
233.000000	72.728	172.5431
236.000000	72.681	172.8579
240.000000	72.627	173.2807
243.000000	72.591	173.6093
247.000000	72.541	174.0557
250.000000	72.505	174.3937
254.000000	72.458	174.8408
258.000000	72.408	175.2649
262.000000	72.356	175.6841
265.000000	72.318	176.0208
269.000000	72.274	176.5034
272.000000	72.241	176.8662
276.000000	72.198	177.3240
280.000000	72.156	177.7669
285.000000	72.109	178.3373
290.000000	72.065	178.9156
295.000000	72.018	179.4725
300.000000	71.969	-179.9842
304.000000	71.933	-179.5408
307.000000	71.908	-179.1936
311.000000	71.878	-178.7060
315.000000	71.849	-178.1912
320.000000	71.813	-177.5326
325.000000	71.776	-176.8950
330.000000	71.740	-176.2897
335.000000	71.707	-175.6877
340.000000	71.678	-175.0550
345.000000	71.650	-174.4096
350.000000	71.625	-173.7878
355.000000	71.605	-173.1808
360.000000	71.589	-172.5597
365.000000	71.577	-171.9223
370.000000	71.569	-171.2852
375.000000	71.567	-170.6655
382.000000	71.572	-169.8606
387.000000	71.583	-169.3403
395.000000	71.606	-168.5915
400.000000	71.617	-168.1713
406.000000	71.624	-167.7059
412.000000	71.627	-167.2580
418.000000	71.626	-166.8149
425.000000	71.618	-166.3094
431.000000	71.605	-165.8812
437.000000	71.590	-165.4433
444.000000	71.573	-164.8970
450.000000	71.562	-164.3934
455.000000	71.554	-163.9606
462.000000	71.542	-163.3578
468.000000	71.532	-162.8497
475.000000	71.521	-162.2615
482.000000	71.510	-161.6712
487.000000	71.502	-161.2481
494.000000	71.492	-160.6523
500.000000	71.480	-160.1281
508.000000	71.467	-159.4016
515.000000	71.462	-158.7665
522.000000	71.461	-158.1573
530.000000	71.457	-157.4759
538.000000	71.453	-156.7715
545.000000	71.452	-156.1348
552.000000	71.452	-155.5055
560.000000	71.451	-154.8022
570.000000	71.447	-153.9131
580.000000	71.447	-153.0010
590.000000	71.453	-152.0810
600.000000	71.460	-151.1511
608.000000	71.467	-150.4088
615.000000	71.474	-149.7731
622.000000	71.484	-149.1542
630.000000	71.498	-148.4579
640.000000	71.520	-147.5664
650.000000	71.544	-146.6265
660.000000	71.570	-145.6600
670.000000	71.599	-144.6910
680.000000	71.631	-143.7298
690.000000	71.665	-142.7856
700.000000	71.699	-141.8501
710.000000	71.734	-140.9121
720.000000	71.773	-139.9829
730.000000	71.817	-139.0630
740.000000	71.866	-138.1397
750.000000	71.920	-137.2121
762.000000	71.991	-136.0962
775.000000	72.075	-134.8869
788.000000	72.170	-133.6988
800.000000	72.268	-132.6338
812.000000	72.371	-131.6055
825.000000	72.486	-130.5563
838.000000	72.603	-129.5844
850.000000	72.711	-128.7401
862.000000	72.819	-127.9314
875.000000	72.937	-127.0918
885.000000	73.030	-126.4762
900.000000	73.170	-125.6122
912.000000	73.280	-124.9708
925.000000	73.395	-124.3094
938.000000	73.505	-123.6657
950.000000	73.604	-123.0826
962.000000	73.703	-122.5143
975.000000	73.808	-121.9201
988.000000	73.911	-121.3480
1000.000000	74.008	-120.8401
1015.000000	74.133	-120.2309
1030.000000	74.262	-119.6402
1044.000000	74.381	-119.1075
1060.000000	74.516	-118.5374
1075.000000	74.643	-118.0538
1090.000000	74.772	-117.6187
1106.000000	74.909	-117.1988
1120.000000	75.029	-116.8705
1138.000000	75.178	-116.5193
1150.000000	75.272	-116.3326
1172.000000	75.423	-116.0386
1180.000000	75.470	-115.9198
1206.000000	75.608	-115.3516
1220.000000	75.692	-114.9302
1241.000000	75.843	-114.2769
1250.000000	75.914	-114.0212
1265.000000	76.036	-113.6425
1280.000000	76.157	-113.3190
1315.000000	76.430	-112.7036
1320.000000	76.468	-112.6251
1340.000000	76.614	-112.3279
1360.000000	76.754	-112.0535
1380.000000	76.885	-111.7970
1400.000000	77.011	-111.5574
1430.000000	77.198	-111.2342
1450.000000	77.322	-111.0417
1475.000000	77.479	-110.8223
1500.000000	77.639	-110.6298
1525.000000	77.810	-110.4732
1550.000000	77.995	-110.3498
1575.000000	78.191	-110.2541
1600.000000	78.391	-110.1877
1625.000000	78.594	-110.1547
1650.000000	78.798	-110.1667
1675.000000	79.004	-110.2269
1700.000000	79.211	-110.3318
1725.000000	79.420	-110.4797
1750.000000	79.630	-110.6787
1775.000000	79.838	-110.9383
1800.000000	80.046	-111.2516
1825.000000	80.250	-111.6110
1850.000000	80.451	-112.0190
1875.000000	80.645	-112.4773
1900.000000	80.829	-112.9840
1925.000000	81.001	-113.5395
1950.000000	81.159	-114.1482
1975.000000	81.303	-114.8088
2000.000000	81.439	-115.5128
2030.000000	81.592	-116.4075
2060.000000	81.735	-117.3546
2090.000000	81.867	-118.3514
2120.000000	81.986	-119.3988
2140.000000	82.059	-120.1234
2180.000000	82.188	-121.6196
2200.000000	82.244	-122.3841
2240.000000	82.341	-123.9322
2270.000000	82.400	-125.0958
2300.000000	82.445	-126.2480
2330.000000	82.479	-127.3834
2360.000000	82.500	-128.5032
2400.000000	82.512	-129.9648
2430.000000	82.509	-131.0240
2470.000000	82.493	-132.3714
2500.000000	82.470	-133.3300
2540.000000	82.429	-134.5385
2580.000000	82.377	-135.6663
2620.000000	82.317	-136.7130
2650.000000	82.268	-137.4439
2690.000000	82.196	-138.3423
2720.000000	82.139	-138.9581
2760.000000	82.061	-139.7066
2800.000000	81.981	-140.3777
2850.000000	81.881	-141.1161
2900.000000	81.785	-141.7507
2950.000000	81.694	-142.2962
3000.000000	81.612	-142.7724
3040.000000	81.553	-143.1124
3070.000000	81.513	-143.3483
3110.000000	81.467	-143.6423
3150.000000	81.428	-143.9173
3200.000000	81.389	-144.2440
3250.000000	81.359	-144.5649
3300.000000	81.340	-144.8943
3350.000000	81.330	-145.2471
3400.000000	81.331	-145.6354
3450.000000	81.346	-146.0684
3500.000000	81.372	-146.5484
3550.000000	81.407	-147.0739
3600.000000	81.449	-147.6477
3650.000000	81.495	-148.2807
3700.000000	81.543	-148.9924
3750.000000	81.592	-149.7998
3820.000000	81.654	-151.1031
3870.000000	81.686	-152.1607
3950.000000	81.708	-154.0688
4000.000000	81.701	-155.3833
4060.000000	81.672	-157.0662
4120.000000	81.619	-158.8439
4180.000000	81.539	-160.6930
4250.000000	81.404	-162.9115
4310.000000	81.247	-164.8311
4370.000000	81.048	-166.7250
4440.000000	80.764	-168.8434
4500.000000	80.482	-170.5331
4550.000000	80.224	-171.8283
4620.000000	79.834	-173.4453
4680.000000	79.478	-174.6259
4750.000000	79.046	-175.7370
4820.000000	78.600	-176.5579
4870.000000	78.278	-176.9731
4940.000000	77.826	-177.3208
5000.000000	77.441	-177.3997
5080.000000	76.932	-177.1819
5150.000000	76.490	-176.6667
5220.000000	76.057	-175.7953
5300.000000	75.595	-174.2928
5380.000000	75.223	-172.3556
5450.000000	75.005	-170.6904
5520.000000	74.858	-169.4656
5600.000000	74.684	-168.6136
5700.000000	74.385	-167.6517
5800.000000	74.045	-166.2346
5900.000000	73.729	-164.3597
6000.000000	73.465	-162.2074
6080.000000	73.293	-160.3894
6150.000000	73.168	-158.7740
6220.000000	73.065	-157.1525
6300.000000	72.975	-155.2972
6400.000000	72.904	-152.9843
6500.000000	72.880	-150.6859
6600.000000	72.901	-148.3911
6700.000000	72.981	-146.0953
6800.000000	73.139	-143.8278
6900.000000	73.390	-141.6425
7000.000000	73.737	-139.6176
7100.000000	74.183	-137.8665
7200.000000	74.733	-136.5484
7300.000000	75.388	-135.8557
7400.000000	76.138	-136.0122
7500.000000	76.960	-137.2969
7620.000000	77.974	-140.7897
7750.000000	78.960	-147.5353
7880.000000	79.632	-157.5246
8000.000000	79.822	-168.8741
8120.000000	79.524	179.3204
8250.000000	78.678	168.0458
8380.000000	77.415	159.7327
8500.000000	76.033	154.9256
8620.000000	74.581	152.4778
8750.000000	73.043	151.8450
8850.000000	71.930	152.4033
9000.000000	70.414	154.4571
9120.000000	69.340	156.8725
9250.000000	68.307	160.0587
9380.000000	67.400	163.7234
9500.000000	66.666	167.4848
9620.000000	66.023	171.5838
9750.000000	65.426	176.4007
9880.000000	64.946	-178.3622
10000.000000	64.634	-173.1390
10150.000000	64.478	-166.1735
10300.000000	64.655	-159.0479
10440.000000	65.159	-152.8161
10600.000000	66.070	-147.1482
10750.000000	67.084	-144.0602
10900.000000	68.074	-143.4290
11060.000000	68.971	-145.0921
11200.000000	69.588	-147.8371
11380.000000	70.206	-152.1236
11500.000000	70.566	-155.2009
11720.000000	71.175	-161.8531
11800.000000	71.356	-164.7845
12060.000000	71.636	-176.0321
12200.000000	71.550	177.3740
12410.000000	71.106	167.9430
12500.000000	70.811	164.3547
12650.000000	70.211	159.2391
12800.000000	69.513	155.3125
13150.000000	67.778	150.5209
13200.000000	67.542	150.2565
13400.000000	66.678	149.9626
13600.000000	65.980	150.5706
13800.000000	65.482	151.7298
14000.000000	65.204	153.1436
14300.000000	65.215	155.2081
14500.000000	65.520	156.2182
14750.000000	66.252	156.4450
15000.000000	67.334	154.5309
15250.000000	68.600	149.0764
15500.000000	69.739	138.7534
15750.000000	70.382	123.6364
16000.000000	70.287	106.3573
16250.000000	69.450	90.8249
16500.000000	68.085	79.4557
16750.000000	66.489	72.3510
17000.000000	64.931	68.4536
17250.000000	63.609	66.6100
17500.000000	62.640	65.8924
17750.000000	62.081	65.4481
18000.000000	61.951	64.2984
18250.000000	62.187	61.2896
18500.000000	62.609	55.2661
18750.000000	62.948	45.5367
19000.000000	62.944	32.6067
19250.000000	62.461	18.2927
19500.000000	61.503	4.9952
19750.000000	60.259	-5.0157
