* Measurement data measured by REW V5.20.4
* Source: Microphone (USB Sound Device        ), MICROPHONE (Master Volume), R, volume: 0.750
* Format: 256k Log Swept Sine, 1 sweep at -12.0 dBFS with no timing reference
* Dated: 12-Dec-2023 22:15:33
* REW Settings:
*  C-weighting compensation: Off
*  Target level: 75.0 dB
* Note: 
* Measurement: Kiwi Ears Forteza R
* Smoothing: 1/12 octave
* Frequency Step: 1/48 octave
* Start Frequency: 20.300 Hz
*
* Freq(Hz)	SPL(dB)	Phase(degrees)
20.299999	76.762	167.2760
20.600000	76.749	167.1089
20.900000	76.719	166.7593
21.200001	76.690	166.3851
21.400000	76.674	166.1342
21.799999	76.649	165.6182
22.000000	76.638	165.3478
22.400000	76.614	164.7768
22.700001	76.590	164.3388
23.000000	76.559	163.9171
23.299999	76.523	163.5287
23.600000	76.484	163.1775
24.000000	76.432	162.7572
24.299999	76.395	162.4594
24.700001	76.350	162.0622
25.000000	76.319	161.7554
25.400000	76.278	161.3351
25.799999	76.237	160.9102
26.200001	76.197	160.4877
26.500000	76.166	160.1754
26.900000	76.123	159.7688
27.200001	76.090	159.4749
27.600000	76.045	159.0998
28.000000	75.999	158.7385
28.500000	75.944	158.2872
29.000000	75.891	157.8248
29.500000	75.835	157.3709
30.000000	75.779	156.9599
30.400000	75.734	156.6674
30.700001	75.700	156.4613
31.100000	75.655	156.1882
31.500000	75.610	155.9035
32.000000	75.553	155.5157
32.500000	75.500	155.0822
33.000000	75.451	154.6188
33.500000	75.402	154.1873
34.000000	75.353	153.8681
34.500000	75.306	153.6674
35.000000	75.260	153.4904
35.500000	75.197	153.2306
36.000000	75.102	152.9056
36.500000	74.982	152.6343
37.000000	74.873	152.4785
37.500000	74.811	152.3328
38.200001	74.800	151.8283
38.700001	74.803	151.2321
39.500000	74.760	150.3373
40.000000	74.712	149.9948
40.599998	74.652	149.7381
41.200001	74.594	149.4959
41.799999	74.533	149.2168
42.500000	74.462	148.8710
43.099998	74.404	148.5700
43.700001	74.347	148.2642
44.400002	74.273	147.9114
45.000000	74.204	147.6163
45.500000	74.146	147.3705
46.200001	74.067	147.0328
46.799999	74.004	146.7891
47.500000	73.940	146.6300
48.200001	73.892	146.5924
48.700001	73.864	146.5556
49.400002	73.818	146.3516
50.000000	73.760	146.0070
50.799999	73.658	145.4280
51.500000	73.565	144.9512
52.200001	73.484	144.5707
53.000000	73.407	144.2561
53.799999	73.334	144.0139
54.500000	73.270	143.8060
55.200001	73.204	143.5843
56.000000	73.130	143.3279
57.000000	73.040	143.0226
58.000000	72.950	142.7365
59.000000	72.860	142.4668
60.000000	72.769	142.2216
60.799999	72.696	142.0456
61.500000	72.633	141.8930
62.200001	72.572	141.7290
63.000000	72.502	141.5281
64.000000	72.410	141.2803
65.000000	72.314	141.0590
66.000000	72.220	140.8577
67.000000	72.135	140.6541
68.000000	72.066	140.4297
69.000000	72.012	140.1784
70.000000	71.958	139.9150
71.000000	71.887	139.6827
72.000000	71.794	139.5513
73.000000	71.700	139.5393
74.000000	71.625	139.5484
75.000000	71.569	139.4334
76.199997	71.488	139.1059
77.500000	71.378	138.7122
78.800003	71.291	138.3710
80.000000	71.215	138.2059
81.199997	71.109	138.3051
82.500000	70.973	138.4759
83.800003	70.837	138.5658
85.000000	70.718	138.7430
86.199997	70.611	138.9765
87.500000	70.520	139.0637
88.500000	70.466	138.9730
90.000000	70.386	138.7494
91.199997	70.310	138.6298
92.500000	70.218	138.5484
93.800003	70.124	138.4466
95.000000	70.046	138.3341
96.199997	69.988	138.2487
97.500000	69.953	138.2133
98.800003	69.920	138.1715
100.000000	69.861	137.9851
101.500000	69.735	137.4660
103.000000	69.600	136.9224
104.400002	69.492	136.7315
106.000000	69.371	136.8949
107.500000	69.261	137.1004
109.000000	69.161	137.2194
110.599998	69.063	137.3394
112.000000	68.988	137.4280
113.800003	68.914	137.4392
115.000000	68.893	137.4194
117.199997	68.961	137.5299
118.000000	69.011	137.6446
120.599998	68.992	137.9169
122.000000	68.787	137.8723
124.099998	68.425	137.8277
125.000000	68.302	137.8671
126.500000	68.141	138.0019
128.000000	68.020	138.1628
131.500000	67.854	138.1901
132.000000	67.838	138.1608
134.000000	67.774	138.0565
136.000000	67.697	138.0691
138.000000	67.606	138.2865
140.000000	67.513	138.6373
143.000000	67.399	139.2793
145.000000	67.337	139.6461
147.500000	67.237	139.8329
150.000000	67.121	139.9151
152.500000	67.026	139.9596
155.000000	66.942	140.0064
157.500000	66.845	140.1227
160.000000	66.757	140.1756
162.500000	66.687	140.0891
165.000000	66.614	140.0543
167.500000	66.525	140.1809
170.000000	66.429	140.3911
172.500000	66.329	140.6059
175.000000	66.223	140.8038
177.500000	66.115	141.0003
180.000000	66.008	141.1882
182.500000	65.906	141.3412
185.000000	65.811	141.4790
187.500000	65.725	141.6513
190.000000	65.647	141.8767
192.500000	65.572	142.1308
195.000000	65.490	142.3829
197.500000	65.396	142.6136
200.000000	65.295	142.8163
203.000000	65.178	143.0616
206.000000	65.077	143.3432
209.000000	64.988	143.6569
212.000000	64.899	144.0029
214.000000	64.841	144.2523
218.000000	64.726	144.7770
220.000000	64.664	145.0455
224.000000	64.533	145.6176
227.000000	64.453	146.1218
230.000000	64.416	146.6837
233.000000	64.411	147.2024
236.000000	64.415	147.6011
240.000000	64.413	147.9509
243.000000	64.401	148.0986
247.000000	64.356	148.1585
250.000000	64.296	148.1544
254.000000	64.194	148.2243
258.000000	64.095	148.4431
262.000000	64.006	148.7480
265.000000	63.941	148.9906
269.000000	63.858	149.2697
272.000000	63.798	149.4504
276.000000	63.719	149.7052
280.000000	63.641	149.9811
285.000000	63.545	150.3722
290.000000	63.456	150.8312
295.000000	63.373	151.2864
300.000000	63.288	151.7147
304.000000	63.216	152.0630
307.000000	63.164	152.3363
311.000000	63.105	152.7358
315.000000	63.052	153.1872
320.000000	62.984	153.7662
325.000000	62.908	154.2710
330.000000	62.833	154.6967
335.000000	62.763	155.1063
340.000000	62.694	155.5630
345.000000	62.630	156.0824
350.000000	62.580	156.6078
355.000000	62.541	157.0588
360.000000	62.506	157.4465
365.000000	62.474	157.8137
370.000000	62.446	158.1437
375.000000	62.421	158.3970
382.000000	62.365	158.6044
387.000000	62.298	158.6886
395.000000	62.148	158.7823
400.000000	62.028	158.9001
406.000000	61.856	159.2312
412.000000	61.668	159.8972
418.000000	61.504	160.9221
425.000000	61.382	162.3702
431.000000	61.332	163.6010
437.000000	61.312	164.6987
444.000000	61.303	165.7991
450.000000	61.301	166.5991
455.000000	61.303	167.1695
462.000000	61.304	167.8474
468.000000	61.296	168.3759
475.000000	61.273	169.0011
482.000000	61.242	169.6432
487.000000	61.219	170.1214
494.000000	61.190	170.8344
500.000000	61.176	171.4738
508.000000	61.165	172.3459
515.000000	61.158	173.1360
522.000000	61.154	173.9660
530.000000	61.167	174.9643
538.000000	61.201	175.9554
545.000000	61.234	176.7402
552.000000	61.263	177.4296
560.000000	61.295	178.1575
570.000000	61.339	179.0461
580.000000	61.387	179.8872
590.000000	61.434	-179.3329
600.000000	61.481	-178.6436
608.000000	61.522	-178.1566
615.000000	61.561	-177.7573
622.000000	61.602	-177.3564
630.000000	61.645	-176.8951
640.000000	61.698	-176.3727
650.000000	61.746	-175.9274
660.000000	61.788	-175.5461
670.000000	61.831	-175.2034
680.000000	61.866	-174.8203
690.000000	61.885	-174.3623
700.000000	61.893	-173.8561
710.000000	61.903	-173.3237
720.000000	61.922	-172.7935
730.000000	61.951	-172.3072
740.000000	61.982	-171.8481
750.000000	62.011	-171.3518
762.000000	62.041	-170.6651
775.000000	62.074	-169.8761
788.000000	62.112	-169.1273
800.000000	62.152	-168.4596
812.000000	62.199	-167.8018
825.000000	62.256	-167.0729
838.000000	62.312	-166.2947
850.000000	62.359	-165.5549
862.000000	62.407	-164.8319
875.000000	62.473	-164.0850
885.000000	62.535	-163.5431
900.000000	62.638	-162.7735
912.000000	62.717	-162.1859
925.000000	62.794	-161.5447
938.000000	62.873	-160.8799
950.000000	62.953	-160.2817
962.000000	63.038	-159.7429
975.000000	63.135	-159.2255
988.000000	63.236	-158.7222
1000.000000	63.330	-158.2215
1015.000000	63.450	-157.5756
1030.000000	63.571	-156.9880
1044.000000	63.690	-156.4988
1060.000000	63.830	-156.0161
1075.000000	63.964	-155.6626
1090.000000	64.099	-155.3779
1106.000000	64.244	-155.0887
1120.000000	64.371	-154.8271
1138.000000	64.529	-154.4872
1150.000000	64.628	-154.2780
1172.000000	64.799	-153.9607
1180.000000	64.861	-153.8660
1206.000000	65.072	-153.6301
1220.000000	65.190	-153.5433
1241.000000	65.357	-153.4444
1250.000000	65.425	-153.4071
1265.000000	65.535	-153.3412
1280.000000	65.643	-153.2589
1315.000000	65.887	-153.0672
1320.000000	65.920	-153.0474
1340.000000	66.048	-152.9779
1360.000000	66.170	-152.9124
1380.000000	66.289	-152.8399
1400.000000	66.407	-152.7568
1430.000000	66.581	-152.6052
1450.000000	66.697	-152.4815
1475.000000	66.840	-152.3101
1500.000000	66.983	-152.1649
1525.000000	67.140	-152.0771
1550.000000	67.315	-152.0253
1575.000000	67.504	-151.9821
1600.000000	67.696	-151.9322
1625.000000	67.890	-151.8599
1650.000000	68.090	-151.7622
1675.000000	68.296	-151.6685
1700.000000	68.505	-151.6112
1725.000000	68.716	-151.5970
1750.000000	68.928	-151.6126
1775.000000	69.149	-151.6382
1800.000000	69.378	-151.6799
1825.000000	69.611	-151.7653
1850.000000	69.841	-151.9086
1875.000000	70.068	-152.1021
1900.000000	70.289	-152.3347
1925.000000	70.502	-152.6130
1950.000000	70.707	-152.9424
1975.000000	70.902	-153.3173
2000.000000	71.090	-153.7299
2030.000000	71.311	-154.2771
2060.000000	71.528	-154.8935
2090.000000	71.740	-155.5840
2120.000000	71.948	-156.3485
2140.000000	72.082	-156.8981
2180.000000	72.336	-158.0842
2200.000000	72.456	-158.7220
2240.000000	72.682	-160.0862
2270.000000	72.838	-161.1661
2300.000000	72.980	-162.2696
2330.000000	73.109	-163.3844
2360.000000	73.223	-164.5060
2400.000000	73.353	-166.0090
2430.000000	73.433	-167.1390
2470.000000	73.516	-168.6408
2500.000000	73.562	-169.7419
2540.000000	73.605	-171.1443
2580.000000	73.629	-172.4601
2620.000000	73.636	-173.6824
2650.000000	73.629	-174.5352
2690.000000	73.608	-175.5856
2720.000000	73.583	-176.3063
2760.000000	73.538	-177.1778
2800.000000	73.483	-177.9495
2850.000000	73.404	-178.7832
2900.000000	73.316	-179.4702
2950.000000	73.222	179.9911
3000.000000	73.122	179.5712
3040.000000	73.039	179.3154
3070.000000	72.976	179.1757
3110.000000	72.892	179.0618
3150.000000	72.808	179.0338
3200.000000	72.704	179.1316
3250.000000	72.601	179.3863
3300.000000	72.501	179.8028
3350.000000	72.407	-179.6175
3400.000000	72.330	-178.8661
3450.000000	72.278	-177.9301
3500.000000	72.259	-176.8140
3550.000000	72.280	-175.5503
3600.000000	72.351	-174.1910
3650.000000	72.480	-172.8174
3700.000000	72.669	-171.5548
3750.000000	72.909	-170.5406
3820.000000	73.296	-169.7406
3870.000000	73.574	-169.6925
3950.000000	73.965	-170.4521
4000.000000	74.153	-171.3096
4060.000000	74.314	-172.5471
4120.000000	74.412	-173.8389
4180.000000	74.458	-175.0516
4250.000000	74.462	-176.2812
4310.000000	74.431	-177.1674
4370.000000	74.374	-177.9150
4440.000000	74.287	-178.6354
4500.000000	74.202	-179.1357
4550.000000	74.127	-179.4779
4620.000000	74.019	-179.8625
4680.000000	73.924	179.8871
4750.000000	73.812	179.6826
4820.000000	73.698	179.5553
4870.000000	73.618	179.5049
4940.000000	73.508	179.4853
5000.000000	73.415	179.5092
5080.000000	73.290	179.5945
5150.000000	73.179	179.7201
5220.000000	73.065	179.8952
5300.000000	72.931	-179.8413
5380.000000	72.792	-179.4879
5450.000000	72.668	-179.0775
5520.000000	72.543	-178.5660
5600.000000	72.401	-177.8710
5700.000000	72.230	-176.8582
5800.000000	72.070	-175.6775
5900.000000	71.921	-174.3246
6000.000000	71.785	-172.8361
6080.000000	71.687	-171.5625
6150.000000	71.611	-170.3869
6220.000000	71.546	-169.1498
6300.000000	71.488	-167.6563
6400.000000	71.444	-165.6878
6500.000000	71.437	-163.6273
6600.000000	71.475	-161.4856
6700.000000	71.569	-159.2972
6800.000000	71.733	-157.0995
6900.000000	71.978	-154.9235
7000.000000	72.321	-152.8375
7100.000000	72.774	-151.0132
7200.000000	73.333	-149.7056
7300.000000	73.977	-149.1264
7400.000000	74.684	-149.4390
7500.000000	75.429	-150.8445
7620.000000	76.315	-154.3279
7750.000000	77.133	-160.6606
7880.000000	77.639	-169.5199
8000.000000	77.719	-179.0947
8120.000000	77.396	171.3177
8250.000000	76.639	162.3755
8380.000000	75.580	155.8116
8500.000000	74.467	151.9249
8620.000000	73.336	149.7544
8750.000000	72.175	148.7753
8850.000000	71.361	148.6441
9000.000000	70.283	148.9758
9120.000000	69.531	149.4146
9250.000000	68.804	149.8647
9380.000000	68.141	150.1803
9500.000000	67.566	150.3381
9620.000000	67.009	150.3890
9750.000000	66.417	150.3047
9880.000000	65.823	150.0480
10000.000000	65.254	149.6866
10150.000000	64.494	149.1816
10300.000000	63.666	148.8279
10440.000000	62.832	148.8665
10600.000000	61.817	149.5509
10750.000000	60.825	150.9081
10900.000000	59.822	152.9647
11060.000000	58.764	155.9240
11200.000000	57.871	159.1432
11380.000000	56.802	164.0510
11500.000000	56.155	167.7566
11720.000000	55.139	175.3261
11800.000000	54.832	178.2639
12060.000000	54.098	-172.0043
12200.000000	53.898	-166.8282
12410.000000	53.893	-159.3266
12500.000000	53.998	-156.2751
12650.000000	54.310	-151.5500
12800.000000	54.793	-147.4796
13150.000000	56.476	-142.6053
13200.000000	56.747	-142.7097
13400.000000	57.744	-145.7193
13600.000000	58.398	-152.7190
13800.000000	58.511	-162.0875
14000.000000	58.037	-170.9770
14300.000000	56.518	-178.6267
14500.000000	55.299	-179.3189
14750.000000	53.944	-176.3672
15000.000000	53.198	-170.6936
15250.000000	53.540	-164.5061
15500.000000	54.916	-161.6663
15750.000000	56.427	-166.7921
16000.000000	57.199	179.3097
16250.000000	56.884	161.7537
16500.000000	55.569	146.6314
16750.000000	53.587	134.3461
17000.000000	51.376	113.8254
17250.000000	49.325	50.4187
17500.000000	47.611	-137.0338
17750.000000	46.293	126.2162
18000.000000	45.353	-56.6306
18250.000000	44.709	-59.4580
18500.000000	44.273	-156.7568
18750.000000	43.959	144.9033
19000.000000	43.715	-151.5391
19250.000000	43.560	153.4346
19500.000000	43.513	-147.8223
19750.000000	43.599	-42.2305
