* Measurement data measured by REW V5.20.4
* Source: Microphone (USB Sound Device        ), MICROPHONE (Master Volume), L, volume: 0.750
* Format: 256k Log Swept Sine, 1 sweep at -12.0 dBFS with no timing reference
* Dated: 13-Aug-2023 13:51:19
* REW Settings:
*  C-weighting compensation: Off
*  Target level: 75.0 dB
* Note: 
* Measurement: KZ Krila Up L
* Smoothing: 1/12 octave
* Frequency Step: 1/48 octave
* Start Frequency: 20.300 Hz
*
* Freq(Hz)	SPL(dB)	Phase(degrees)
20.299999	78.926	-174.0057
20.600000	78.968	-174.2798
20.900000	79.057	-174.8975
21.200001	79.119	-175.6899
21.400000	79.132	-176.2822
21.799999	79.090	-177.5211
22.000000	79.041	-178.1159
22.400000	78.907	-179.1750
22.700001	78.800	-179.8495
23.000000	78.706	179.5408
23.299999	78.631	178.9458
23.600000	78.570	178.3452
24.000000	78.499	177.5596
24.299999	78.441	177.0519
24.700001	78.348	176.5966
25.000000	78.270	176.4715
25.400000	78.169	176.5812
25.799999	78.085	176.8919
26.200001	78.030	177.2387
26.500000	78.009	177.4363
26.900000	78.005	177.5488
27.200001	78.018	177.4966
27.600000	78.048	177.2390
28.000000	78.080	176.7900
28.500000	78.103	176.0551
29.000000	78.095	175.2949
29.500000	78.068	174.6394
30.000000	78.045	174.0873
30.400000	78.039	173.6469
30.700001	78.039	173.2837
31.100000	78.037	172.7532
31.500000	78.023	172.2098
32.000000	77.980	171.6010
32.500000	77.918	171.1250
33.000000	77.853	170.7497
33.500000	77.801	170.4057
34.000000	77.771	170.0572
34.500000	77.766	169.7256
35.000000	77.783	169.4520
35.500000	77.808	169.2569
36.000000	77.825	169.1203
36.500000	77.817	168.9940
37.000000	77.777	168.8238
37.500000	77.707	168.5780
38.200001	77.586	168.1027
38.700001	77.504	167.6956
39.500000	77.401	167.0300
40.000000	77.350	166.6705
40.599998	77.300	166.3224
41.200001	77.257	166.0134
41.799999	77.218	165.6768
42.500000	77.171	165.2535
43.099998	77.129	164.9309
43.700001	77.087	164.6693
44.400002	77.034	164.4066
45.000000	76.982	164.1913
45.500000	76.937	164.0119
46.200001	76.879	163.7473
46.799999	76.834	163.5085
47.500000	76.785	163.2492
48.200001	76.738	163.0242
48.700001	76.708	162.8649
49.400002	76.668	162.6229
50.000000	76.638	162.4124
50.799999	76.605	162.1679
51.500000	76.575	162.0114
52.200001	76.539	161.8969
53.000000	76.490	161.7114
53.799999	76.426	161.3422
54.500000	76.356	160.9169
55.200001	76.282	160.5366
56.000000	76.209	160.2352
57.000000	76.131	159.9905
58.000000	76.045	159.8140
59.000000	75.961	159.6483
60.000000	75.899	159.4261
60.799999	75.860	159.2125
61.500000	75.820	159.0269
62.200001	75.769	158.8714
63.000000	75.697	158.7583
64.000000	75.610	158.6956
65.000000	75.541	158.6054
66.000000	75.485	158.3948
67.000000	75.426	158.1017
68.000000	75.361	157.8464
69.000000	75.288	157.7157
70.000000	75.212	157.6911
71.000000	75.144	157.6740
72.000000	75.090	157.5926
73.000000	75.042	157.4610
74.000000	74.993	157.3158
75.000000	74.938	157.1650
76.199997	74.869	156.9807
77.500000	74.792	156.8020
78.800003	74.710	156.6527
80.000000	74.627	156.5368
81.199997	74.538	156.4691
82.500000	74.440	156.4832
83.800003	74.352	156.5356
85.000000	74.283	156.5483
86.199997	74.222	156.5158
87.500000	74.160	156.4490
88.500000	74.114	156.3925
90.000000	74.045	156.3379
91.199997	73.990	156.3323
92.500000	73.931	156.3615
93.800003	73.875	156.4226
95.000000	73.826	156.4953
96.199997	73.775	156.5750
97.500000	73.712	156.6777
98.800003	73.641	156.7811
100.000000	73.570	156.8313
101.500000	73.481	156.7984
103.000000	73.405	156.7164
104.400002	73.348	156.6940
106.000000	73.289	156.7994
107.500000	73.223	156.9807
109.000000	73.145	157.1218
110.599998	73.067	157.1816
112.000000	73.015	157.2455
113.800003	72.966	157.5528
115.000000	72.941	157.9912
117.199997	72.927	159.4133
118.000000	72.936	160.0695
120.599998	72.897	161.0274
122.000000	72.790	160.3247
124.099998	72.613	159.0404
125.000000	72.551	158.7050
126.500000	72.467	158.4424
128.000000	72.399	158.4271
131.500000	72.263	158.6781
132.000000	72.247	158.7183
134.000000	72.184	158.9005
136.000000	72.109	159.1186
138.000000	72.023	159.3342
140.000000	71.942	159.5161
143.000000	71.838	159.7694
145.000000	71.769	159.9812
147.500000	71.682	160.3937
150.000000	71.600	160.8880
152.500000	71.528	161.2763
155.000000	71.462	161.5345
157.500000	71.398	161.8891
160.000000	71.344	162.4340
162.500000	71.302	163.0776
165.000000	71.279	163.6780
167.500000	71.274	164.0927
170.000000	71.263	164.3342
172.500000	71.238	164.5259
175.000000	71.211	164.7109
177.500000	71.182	164.8460
180.000000	71.142	164.9092
182.500000	71.089	164.9432
185.000000	71.032	165.0098
187.500000	70.979	165.1461
190.000000	70.932	165.3430
192.500000	70.889	165.5617
195.000000	70.845	165.7886
197.500000	70.799	166.0430
200.000000	70.749	166.3265
203.000000	70.692	166.6725
206.000000	70.639	166.9963
209.000000	70.587	167.2837
212.000000	70.528	167.5207
214.000000	70.484	167.6697
218.000000	70.396	168.0185
220.000000	70.358	168.2173
224.000000	70.300	168.6506
227.000000	70.262	169.0014
230.000000	70.221	169.3465
233.000000	70.178	169.6676
236.000000	70.138	169.9722
240.000000	70.086	170.3843
243.000000	70.048	170.7093
247.000000	69.996	171.1367
250.000000	69.957	171.4504
254.000000	69.908	171.8797
258.000000	69.862	172.3013
262.000000	69.815	172.7062
265.000000	69.780	173.0063
269.000000	69.737	173.3820
272.000000	69.710	173.6447
276.000000	69.674	174.0092
280.000000	69.635	174.4094
285.000000	69.586	174.9276
290.000000	69.537	175.4324
295.000000	69.495	175.9432
300.000000	69.458	176.4691
304.000000	69.428	176.8837
307.000000	69.405	177.1923
311.000000	69.378	177.6020
315.000000	69.355	178.0083
320.000000	69.324	178.5198
325.000000	69.286	179.0333
330.000000	69.248	179.5092
335.000000	69.212	179.9456
340.000000	69.176	-179.6252
345.000000	69.139	-179.1802
350.000000	69.105	-178.7023
355.000000	69.074	-178.1997
360.000000	69.045	-177.7036
365.000000	69.020	-177.2306
370.000000	68.996	-176.7659
375.000000	68.973	-176.2973
382.000000	68.939	-175.6423
387.000000	68.914	-175.1842
395.000000	68.874	-174.4586
400.000000	68.849	-174.0146
406.000000	68.821	-173.5113
412.000000	68.795	-173.0180
418.000000	68.775	-172.5013
425.000000	68.757	-171.8698
431.000000	68.742	-171.3128
437.000000	68.724	-170.7540
444.000000	68.702	-170.1236
450.000000	68.687	-169.6013
455.000000	68.675	-169.1659
462.000000	68.658	-168.5716
468.000000	68.646	-168.0985
475.000000	68.634	-167.5734
482.000000	68.622	-167.0296
487.000000	68.614	-166.6217
494.000000	68.604	-166.0364
500.000000	68.593	-165.5215
508.000000	68.576	-164.8131
515.000000	68.561	-164.1909
522.000000	68.547	-163.5932
530.000000	68.533	-162.9360
538.000000	68.523	-162.2905
545.000000	68.516	-161.7371
552.000000	68.507	-161.1918
560.000000	68.498	-160.5586
570.000000	68.490	-159.7393
580.000000	68.486	-158.9141
590.000000	68.480	-158.1008
600.000000	68.476	-157.2800
608.000000	68.475	-156.6327
615.000000	68.476	-156.0916
622.000000	68.480	-155.5603
630.000000	68.488	-154.9373
640.000000	68.498	-154.1192
650.000000	68.509	-153.2878
660.000000	68.521	-152.4714
670.000000	68.532	-151.6803
680.000000	68.545	-150.9219
690.000000	68.557	-150.1959
700.000000	68.566	-149.4619
710.000000	68.573	-148.6630
720.000000	68.583	-147.8058
730.000000	68.596	-146.9451
740.000000	68.614	-146.1068
750.000000	68.634	-145.2788
762.000000	68.663	-144.2823
775.000000	68.698	-143.2172
788.000000	68.736	-142.1920
800.000000	68.774	-141.2689
812.000000	68.813	-140.3435
825.000000	68.861	-139.3347
838.000000	68.909	-138.3198
850.000000	68.952	-137.3869
862.000000	68.993	-136.4699
875.000000	69.036	-135.5013
885.000000	69.069	-134.7613
900.000000	69.125	-133.5980
912.000000	69.180	-132.5944
925.000000	69.259	-131.4867
938.000000	69.357	-130.4507
950.000000	69.458	-129.5899
962.000000	69.560	-128.8068
975.000000	69.667	-128.0343
988.000000	69.769	-127.3179
1000.000000	69.859	-126.6750
1015.000000	69.968	-125.8912
1030.000000	70.078	-125.1567
1044.000000	70.182	-124.5112
1060.000000	70.300	-123.8008
1075.000000	70.409	-123.1681
1090.000000	70.518	-122.5863
1106.000000	70.633	-122.0247
1120.000000	70.732	-121.5693
1138.000000	70.856	-121.0056
1150.000000	70.936	-120.6384
1172.000000	71.081	-120.0048
1180.000000	71.133	-119.7924
1206.000000	71.302	-119.1410
1220.000000	71.392	-118.8005
1241.000000	71.526	-118.3185
1250.000000	71.583	-118.1255
1265.000000	71.676	-117.8188
1280.000000	71.762	-117.5236
1315.000000	71.947	-116.8164
1320.000000	71.973	-116.7124
1340.000000	72.072	-116.3054
1360.000000	72.167	-115.9229
1380.000000	72.256	-115.5542
1400.000000	72.339	-115.1917
1430.000000	72.458	-114.6588
1450.000000	72.537	-114.3083
1475.000000	72.634	-113.8765
1500.000000	72.732	-113.4479
1525.000000	72.840	-113.0137
1550.000000	72.965	-112.5742
1575.000000	73.102	-112.1397
1600.000000	73.245	-111.7242
1625.000000	73.388	-111.3333
1650.000000	73.531	-110.9616
1675.000000	73.674	-110.5954
1700.000000	73.819	-110.2295
1725.000000	73.970	-109.8718
1750.000000	74.126	-109.5316
1775.000000	74.286	-109.2071
1800.000000	74.449	-108.8967
1825.000000	74.615	-108.6144
1850.000000	74.780	-108.3736
1875.000000	74.940	-108.1762
1900.000000	75.094	-108.0154
1925.000000	75.239	-107.8852
1950.000000	75.375	-107.7810
1975.000000	75.503	-107.7000
2000.000000	75.628	-107.6429
2030.000000	75.777	-107.6055
2060.000000	75.925	-107.6050
2090.000000	76.069	-107.6427
2120.000000	76.211	-107.7215
2140.000000	76.304	-107.7979
2180.000000	76.491	-107.9989
2200.000000	76.584	-108.1210
2240.000000	76.767	-108.4133
2270.000000	76.901	-108.6738
2300.000000	77.032	-108.9632
2330.000000	77.160	-109.2768
2360.000000	77.283	-109.6140
2400.000000	77.440	-110.1063
2430.000000	77.552	-110.5119
2470.000000	77.694	-111.0975
2500.000000	77.797	-111.5629
2540.000000	77.926	-112.2098
2580.000000	78.045	-112.8856
2620.000000	78.153	-113.5823
2650.000000	78.229	-114.1137
2690.000000	78.321	-114.8248
2720.000000	78.385	-115.3536
2760.000000	78.462	-116.0468
2800.000000	78.530	-116.7232
2850.000000	78.606	-117.5438
2900.000000	78.676	-118.3349
2950.000000	78.744	-119.0979
3000.000000	78.809	-119.8461
3040.000000	78.858	-120.4335
3070.000000	78.894	-120.8610
3110.000000	78.944	-121.4089
3150.000000	78.998	-121.9372
3200.000000	79.073	-122.5977
3250.000000	79.154	-123.2840
3300.000000	79.241	-124.0068
3350.000000	79.334	-124.7878
3400.000000	79.434	-125.6567
3450.000000	79.540	-126.6327
3500.000000	79.646	-127.7150
3550.000000	79.746	-128.8895
3600.000000	79.834	-130.1430
3650.000000	79.910	-131.4698
3700.000000	79.970	-132.8633
3750.000000	80.011	-134.3091
3820.000000	80.034	-136.3751
3870.000000	80.022	-137.8445
3950.000000	79.962	-140.1358
4000.000000	79.905	-141.5142
4060.000000	79.824	-143.1180
4120.000000	79.729	-144.6944
4180.000000	79.620	-146.2698
4250.000000	79.468	-148.1054
4310.000000	79.311	-149.6510
4370.000000	79.125	-151.1445
4440.000000	78.873	-152.7852
4500.000000	78.632	-154.0743
4550.000000	78.416	-155.0512
4620.000000	78.096	-156.2527
4680.000000	77.810	-157.1162
4750.000000	77.467	-157.9222
4820.000000	77.119	-158.5171
4870.000000	76.872	-158.8189
4940.000000	76.530	-159.0673
5000.000000	76.243	-159.1136
5080.000000	75.872	-158.9522
5150.000000	75.562	-158.6385
5220.000000	75.263	-158.1971
5300.000000	74.935	-157.5546
5380.000000	74.621	-156.7589
5450.000000	74.359	-155.9313
5520.000000	74.110	-154.9779
5600.000000	73.844	-153.7379
5700.000000	73.540	-151.9875
5800.000000	73.278	-150.0327
5900.000000	73.061	-147.9036
6000.000000	72.887	-145.6475
6080.000000	72.779	-143.7732
6150.000000	72.708	-142.0879
6220.000000	72.661	-140.3665
6300.000000	72.636	-138.3702
6400.000000	72.653	-135.8533
6500.000000	72.729	-133.3278
6600.000000	72.869	-130.8251
6700.000000	73.078	-128.3905
6800.000000	73.369	-126.0573
6900.000000	73.750	-123.8706
7000.000000	74.223	-121.8984
7100.000000	74.793	-120.2304
7200.000000	75.467	-118.9917
7300.000000	76.249	-118.3578
7400.000000	77.132	-118.5657
7500.000000	78.090	-119.9178
7620.000000	79.267	-123.5570
7750.000000	80.415	-130.5997
7880.000000	81.218	-141.0120
8000.000000	81.499	-152.7505
8120.000000	81.275	-164.7966
8250.000000	80.509	-176.0755
8380.000000	79.353	175.8098
8500.000000	78.110	171.2354
8620.000000	76.844	168.9627
8750.000000	75.560	168.3850
8850.000000	74.674	168.8700
9000.000000	73.536	170.6049
9120.000000	72.794	172.5697
9250.000000	72.153	175.0457
9380.000000	71.670	177.7205
9500.000000	71.353	-179.7347
9620.000000	71.156	-177.2050
9750.000000	71.073	-174.6054
9880.000000	71.117	-172.2985
10000.000000	71.258	-170.5403
10150.000000	71.552	-168.9591
10300.000000	71.961	-168.1806
10440.000000	72.423	-168.3062
10600.000000	73.011	-169.6430
10750.000000	73.573	-172.2456
10900.000000	74.086	-176.3112
11060.000000	74.504	177.7025
11200.000000	74.698	171.2375
11380.000000	74.626	161.9421
11500.000000	74.345	155.8273
11720.000000	73.378	146.9029
11800.000000	72.932	144.7731
12060.000000	71.585	141.3364
12200.000000	71.127	140.2520
12410.000000	70.778	137.4676
12500.000000	70.681	135.6438
12650.000000	70.499	131.8750
12800.000000	70.229	127.5258
13150.000000	69.133	117.3587
13200.000000	68.925	116.0837
13400.000000	67.997	111.7820
13600.000000	66.980	108.9892
13800.000000	65.985	107.7229
14000.000000	65.146	107.5077
14300.000000	64.321	106.8660
14500.000000	63.850	105.3357
14750.000000	62.989	104.9065
15000.000000	62.229	108.7838
15250.000000	62.372	114.1330
15500.000000	63.399	116.9285
15750.000000	64.772	115.2268
16000.000000	66.078	108.6575
16250.000000	67.106	97.9417
16500.000000	67.809	84.3662
16750.000000	68.230	68.7758
17000.000000	68.385	51.0731
17250.000000	68.177	31.0730
17500.000000	67.447	9.8748
17750.000000	66.090	-9.9460
18000.000000	64.122	-25.6896
18250.000000	61.655	-35.6953
18500.000000	58.847	-39.2930
18750.000000	55.889	-36.7108
19000.000000	53.054	-30.0751
19250.000000	50.662	-26.2069
19500.000000	48.889	-41.3022
19750.000000	47.764	-88.3246
