* Measurement data measured by REW V5.20.4
* Source: Input device not selected, no input selected, R, volume: no control
* Format: 256k Log Swept Sine, 1 sweep at -12.0 dBFS with no timing reference
* Dated: 17-Jan-2022 19:24:56
* REW Settings:
*  C-weighting compensation: Off
*  Target level: 75.0 dB
* Note: 
* Measurement: KZ ZSX R
* Smoothing: 1/12 octave
* Frequency Step: 1/48 octave
* Start Frequency: 20.300 Hz
*
* Freq(Hz)	SPL(dB)	Phase(degrees)
20.299999	130.188	-106.6132
20.600000	130.229	-106.9939
20.900000	130.328	-107.8112
21.200001	130.427	-108.7487
21.400000	130.486	-109.4063
21.799999	130.586	-110.7682
22.000000	130.628	-111.4577
22.400000	130.704	-112.8312
22.700001	130.765	-113.8445
23.000000	130.835	-114.8443
23.299999	130.916	-115.8421
23.600000	131.004	-116.8413
24.000000	131.121	-118.1551
24.299999	131.196	-119.0815
24.700001	131.271	-120.1606
25.000000	131.309	-120.8149
25.400000	131.347	-121.4946
25.799999	131.386	-122.0752
26.200001	131.439	-122.7440
26.500000	131.488	-123.3956
26.900000	131.559	-124.4978
27.200001	131.613	-125.4571
27.600000	131.684	-126.8007
28.000000	131.755	-128.0779
28.500000	131.847	-129.4538
29.000000	131.934	-130.5927
29.500000	132.000	-131.5883
30.000000	132.033	-132.5238
30.400000	132.041	-133.2520
30.700001	132.044	-133.7891
31.100000	132.056	-134.4959
31.500000	132.086	-135.1966
32.000000	132.156	-136.0740
32.500000	132.251	-136.9686
33.000000	132.349	-137.8961
33.500000	132.428	-138.8609
34.000000	132.479	-139.8475
34.500000	132.507	-140.8207
35.000000	132.524	-141.7374
35.500000	132.540	-142.5523
36.000000	132.562	-143.2418
36.500000	132.589	-143.8267
37.000000	132.615	-144.3810
37.500000	132.637	-144.9933
38.200001	132.663	-146.0478
38.700001	132.688	-146.9318
39.500000	132.749	-148.4261
40.000000	132.785	-149.2999
40.599998	132.804	-150.1705
41.200001	132.789	-150.8133
41.799999	132.759	-151.3828
42.500000	132.734	-152.3116
43.099998	132.718	-153.4725
43.700001	132.700	-154.7572
44.400002	132.688	-156.0029
45.000000	132.710	-156.7292
45.500000	132.755	-157.2185
46.200001	132.832	-157.9589
46.799999	132.881	-158.6998
47.500000	132.906	-159.5581
48.200001	132.915	-160.3032
48.700001	132.919	-160.7798
49.400002	132.924	-161.4370
50.000000	132.925	-162.0297
50.799999	132.921	-162.8702
51.500000	132.916	-163.6299
52.200001	132.914	-164.3843
53.000000	132.916	-165.2156
53.799999	132.921	-166.0060
54.500000	132.928	-166.6827
55.200001	132.936	-167.3719
56.000000	132.945	-168.1741
57.000000	132.947	-169.1377
58.000000	132.940	-170.0184
59.000000	132.929	-170.8605
60.000000	132.921	-171.7281
60.799999	132.914	-172.4171
61.500000	132.906	-172.9794
62.200001	132.895	-173.5057
63.000000	132.880	-174.0917
64.000000	132.862	-174.8322
65.000000	132.849	-175.6040
66.000000	132.837	-176.3937
67.000000	132.825	-177.1578
68.000000	132.811	-177.8907
69.000000	132.793	-178.5877
70.000000	132.776	-179.2491
71.000000	132.761	-179.9032
72.000000	132.741	179.4663
73.000000	132.718	178.8868
74.000000	132.699	178.3122
75.000000	132.678	177.7006
76.199997	132.647	176.9664
77.500000	132.612	176.1914
78.800003	132.576	175.3807
80.000000	132.543	174.6574
81.199997	132.518	173.9755
82.500000	132.489	173.2199
83.800003	132.445	172.4981
85.000000	132.403	171.9104
86.199997	132.371	171.3181
87.500000	132.328	170.6036
88.500000	132.279	170.0728
90.000000	132.207	169.4382
91.199997	132.182	168.9803
92.500000	132.175	168.3677
93.800003	132.138	167.6465
95.000000	132.062	167.0449
96.199997	131.976	166.6251
97.500000	131.920	166.3088
98.800003	131.909	165.9243
100.000000	131.902	165.3907
101.500000	131.848	164.5681
103.000000	131.750	163.9028
104.400002	131.660	163.7282
106.000000	131.600	163.9871
107.500000	131.592	164.1890
109.000000	131.618	163.9970
110.599998	131.645	163.3796
112.000000	131.647	162.6428
113.800003	131.613	161.6311
115.000000	131.573	160.9255
117.199997	131.474	159.3561
118.000000	131.435	158.7298
120.599998	131.348	157.5451
122.000000	131.345	157.7195
124.099998	131.362	158.3121
125.000000	131.364	158.5220
126.500000	131.357	158.7220
128.000000	131.348	158.6841
131.500000	131.294	157.7559
132.000000	131.276	157.5586
134.000000	131.194	156.6947
136.000000	131.123	155.8028
138.000000	131.075	155.0397
140.000000	131.035	154.4800
143.000000	130.953	153.8049
145.000000	130.888	153.3055
147.500000	130.815	152.6726
150.000000	130.747	152.1393
152.500000	130.675	151.6593
155.000000	130.605	151.1769
157.500000	130.537	150.7007
160.000000	130.469	150.2300
162.500000	130.403	149.7644
165.000000	130.337	149.3016
167.500000	130.272	148.8617
170.000000	130.206	148.4510
172.500000	130.137	148.0707
175.000000	130.066	147.7102
177.500000	129.995	147.3549
180.000000	129.925	146.9983
182.500000	129.857	146.6515
185.000000	129.790	146.3193
187.500000	129.721	145.9938
190.000000	129.651	145.6753
192.500000	129.582	145.3722
195.000000	129.514	145.0872
197.500000	129.447	144.8159
200.000000	129.381	144.5553
203.000000	129.301	144.2606
206.000000	129.224	143.9912
209.000000	129.150	143.7422
212.000000	129.075	143.5084
214.000000	129.026	143.3589
218.000000	128.928	143.0760
220.000000	128.881	142.9430
224.000000	128.791	142.7009
227.000000	128.726	142.5402
230.000000	128.664	142.3856
233.000000	128.603	142.2326
236.000000	128.544	142.0783
240.000000	128.468	141.8552
243.000000	128.414	141.6755
247.000000	128.341	141.4361
250.000000	128.285	141.2571
254.000000	128.210	141.0154
258.000000	128.135	140.7799
262.000000	128.059	140.5633
265.000000	128.003	140.4199
269.000000	127.928	140.2526
272.000000	127.872	140.1422
276.000000	127.798	140.0150
280.000000	127.725	139.9076
285.000000	127.634	139.7911
290.000000	127.547	139.6951
295.000000	127.463	139.6035
300.000000	127.381	139.4902
304.000000	127.318	139.4012
307.000000	127.273	139.3495
311.000000	127.213	139.2981
315.000000	127.154	139.2516
320.000000	127.079	139.1862
325.000000	127.003	139.1201
330.000000	126.927	139.0739
335.000000	126.851	139.0523
340.000000	126.776	139.0374
345.000000	126.705	139.0238
350.000000	126.637	139.0194
355.000000	126.570	139.0244
360.000000	126.503	139.0356
365.000000	126.436	139.0519
370.000000	126.370	139.0745
375.000000	126.305	139.1064
382.000000	126.218	139.1702
387.000000	126.158	139.2278
395.000000	126.066	139.3331
400.000000	126.010	139.4043
406.000000	125.945	139.4959
412.000000	125.881	139.5951
418.000000	125.819	139.7021
425.000000	125.750	139.8398
431.000000	125.692	139.9710
437.000000	125.636	140.1091
444.000000	125.573	140.2748
450.000000	125.523	140.4283
455.000000	125.484	140.5655
462.000000	125.431	140.7636
468.000000	125.386	140.9368
475.000000	125.335	141.1466
482.000000	125.285	141.3657
487.000000	125.250	141.5269
494.000000	125.203	141.7587
500.000000	125.164	141.9632
508.000000	125.113	142.2434
515.000000	125.071	142.4942
522.000000	125.030	142.7506
530.000000	124.986	143.0528
538.000000	124.943	143.3646
545.000000	124.908	143.6426
552.000000	124.873	143.9249
560.000000	124.835	144.2538
570.000000	124.791	144.6747
580.000000	124.751	145.1072
590.000000	124.716	145.5537
600.000000	124.684	146.0121
608.000000	124.663	146.3855
615.000000	124.648	146.7176
622.000000	124.634	147.0547
630.000000	124.621	147.4449
640.000000	124.609	147.9401
650.000000	124.600	148.4409
660.000000	124.595	148.9458
670.000000	124.593	149.4570
680.000000	124.595	149.9750
690.000000	124.600	150.4987
700.000000	124.608	151.0294
710.000000	124.620	151.5658
720.000000	124.635	152.1049
730.000000	124.653	152.6451
740.000000	124.676	153.1856
750.000000	124.704	153.7253
762.000000	124.741	154.3694
775.000000	124.786	155.0588
788.000000	124.836	155.7387
800.000000	124.889	156.3588
812.000000	124.947	156.9680
825.000000	125.018	157.6082
838.000000	125.095	158.2213
850.000000	125.171	158.7584
862.000000	125.252	159.2631
875.000000	125.343	159.7652
885.000000	125.417	160.1100
900.000000	125.529	160.5355
912.000000	125.615	160.7807
925.000000	125.693	160.9650
938.000000	125.747	161.1470
950.000000	125.778	161.4341
962.000000	125.807	161.9160
975.000000	125.862	162.6165
988.000000	125.952	163.3547
1000.000000	126.058	163.9574
1015.000000	126.207	164.5517
1030.000000	126.361	164.9914
1044.000000	126.502	165.3002
1060.000000	126.661	165.5682
1075.000000	126.807	165.7575
1090.000000	126.951	165.8950
1106.000000	127.103	165.9864
1120.000000	127.231	166.0212
1138.000000	127.390	166.0195
1150.000000	127.490	166.0074
1172.000000	127.666	166.0071
1180.000000	127.730	166.0188
1206.000000	127.940	166.0786
1220.000000	128.057	166.1036
1241.000000	128.234	166.1112
1250.000000	128.309	166.1028
1265.000000	128.435	166.0760
1280.000000	128.559	166.0372
1315.000000	128.846	165.9175
1320.000000	128.886	165.8977
1340.000000	129.046	165.8133
1360.000000	129.201	165.7208
1380.000000	129.351	165.6205
1400.000000	129.498	165.5128
1430.000000	129.718	165.3400
1450.000000	129.867	165.2157
1475.000000	130.058	165.0429
1500.000000	130.257	164.8470
1525.000000	130.472	164.6255
1550.000000	130.704	164.3762
1575.000000	130.950	164.0973
1600.000000	131.203	163.7835
1625.000000	131.462	163.4297
1650.000000	131.726	163.0308
1675.000000	131.996	162.5819
1700.000000	132.272	162.0784
1725.000000	132.555	161.5157
1750.000000	132.843	160.8924
1775.000000	133.134	160.2061
1800.000000	133.428	159.4486
1825.000000	133.726	158.6060
1850.000000	134.024	157.6623
1875.000000	134.319	156.6050
1900.000000	134.606	155.4307
1925.000000	134.879	154.1422
1950.000000	135.137	152.7423
1975.000000	135.379	151.2333
2000.000000	135.609	149.6167
2030.000000	135.869	147.5357
2060.000000	136.108	145.3036
2090.000000	136.325	142.9276
2120.000000	136.515	140.4208
2140.000000	136.626	138.6871
2180.000000	136.805	135.1064
2200.000000	136.872	133.2773
2240.000000	136.960	129.5901
2270.000000	136.984	126.8387
2300.000000	136.973	124.1366
2330.000000	136.929	121.5135
2360.000000	136.855	118.9955
2400.000000	136.714	115.8389
2430.000000	136.581	113.6430
2470.000000	136.374	110.9634
2500.000000	136.201	109.1458
2540.000000	135.953	106.9796
2580.000000	135.691	105.1015
2620.000000	135.419	103.4977
2650.000000	135.213	102.4637
2690.000000	134.937	101.2950
2720.000000	134.731	100.5649
2760.000000	134.458	99.7703
2800.000000	134.190	99.1643
2850.000000	133.862	98.6516
2900.000000	133.543	98.3974
2950.000000	133.235	98.4023
3000.000000	132.939	98.6802
3040.000000	132.715	99.1092
3070.000000	132.558	99.5501
3110.000000	132.369	100.2787
3150.000000	132.205	101.1325
3200.000000	132.034	102.3257
3250.000000	131.897	103.6457
3300.000000	131.798	105.1016
3350.000000	131.748	106.6600
3400.000000	131.754	108.2305
3450.000000	131.815	109.7117
3500.000000	131.919	111.0402
3550.000000	132.050	112.2010
3600.000000	132.199	113.2124
3650.000000	132.360	114.1046
3700.000000	132.531	114.9039
3750.000000	132.714	115.6241
3820.000000	132.990	116.4954
3870.000000	133.204	116.9935
3950.000000	133.576	117.4774
4000.000000	133.824	117.5200
4060.000000	134.130	117.2470
4120.000000	134.434	116.5763
4180.000000	134.719	115.4781
4250.000000	134.998	113.6616
4310.000000	135.165	111.7172
4370.000000	135.244	109.5621
4440.000000	135.216	107.0676
4500.000000	135.102	105.2249
4550.000000	134.962	104.0500
4620.000000	134.742	103.0453
4680.000000	134.576	102.7051
4750.000000	134.448	102.6664
4820.000000	134.406	102.6935
4870.000000	134.424	102.5886
4940.000000	134.502	102.0797
5000.000000	134.591	101.1713
5080.000000	134.689	99.1440
5150.000000	134.694	96.6506
5220.000000	134.578	93.7500
5300.000000	134.271	90.4606
5380.000000	133.793	87.7663
5450.000000	133.270	86.1871
5520.000000	132.693	85.4049
5600.000000	132.007	85.4243
5700.000000	131.162	86.6281
5800.000000	130.367	88.9088
5900.000000	129.648	92.0493
6000.000000	129.019	95.8622
6080.000000	128.585	99.2769
6150.000000	128.256	102.4760
6220.000000	127.975	105.8442
6300.000000	127.713	109.8610
6400.000000	127.479	115.0607
6500.000000	127.350	120.3830
6600.000000	127.328	125.7612
6700.000000	127.423	131.1316
6800.000000	127.647	136.4174
6900.000000	128.010	141.5178
7000.000000	128.516	146.2948
7100.000000	129.164	150.5530
7200.000000	129.944	154.0214
7300.000000	130.826	156.3508
7400.000000	131.746	157.1605
7500.000000	132.615	156.1559
7620.000000	133.460	152.5316
7750.000000	133.994	146.3837
7880.000000	134.076	139.4008
8000.000000	133.790	133.4260
8120.000000	133.222	128.5941
8250.000000	132.362	125.0593
8380.000000	131.316	123.5415
8500.000000	130.251	124.0118
8620.000000	129.152	126.2211
8750.000000	127.997	130.3807
8850.000000	127.176	134.6265
9000.000000	126.119	142.3133
9120.000000	125.461	149.3082
9250.000000	124.969	157.3935
9380.000000	124.725	165.6163
9500.000000	124.707	172.9589
9620.000000	124.850	179.7507
9750.000000	125.120	-173.7356
9880.000000	125.434	-168.1211
10000.000000	125.718	-163.5723
10150.000000	126.043	-158.3761
10300.000000	126.351	-153.3503
10440.000000	126.660	-148.6221
10600.000000	127.081	-143.1526
10750.000000	127.578	-138.0776
10900.000000	128.197	-133.2461
11060.000000	129.005	-128.6249
11200.000000	129.838	-125.2894
11380.000000	131.059	-122.4284
11500.000000	131.933	-121.7255
11720.000000	133.520	-123.7920
11800.000000	134.043	-125.8176
12060.000000	135.276	-137.3254
12200.000000	135.515	-145.9559
12410.000000	135.190	-159.4384
12500.000000	134.804	-164.5315
12650.000000	133.881	-171.1721
12800.000000	132.694	-175.0509
13150.000000	129.562	-174.1303
13200.000000	129.138	-173.1295
13400.000000	127.668	-167.9230
13600.000000	126.686	-162.0481
13800.000000	126.222	-157.1378
14000.000000	126.091	-154.4917
14300.000000	125.839	-155.3139
14500.000000	125.263	-157.0688
14750.000000	123.995	-156.5526
15000.000000	122.533	-151.8759
15250.000000	121.329	-145.7565
15500.000000	120.328	-138.5391
15750.000000	119.727	-128.7859
16000.000000	120.091	-118.2808
16250.000000	121.258	-111.8504
16500.000000	122.361	-112.6505
16750.000000	122.877	-118.8867
17000.000000	122.813	-126.3567
17250.000000	122.506	-132.8757
17500.000000	122.274	-139.8217
17750.000000	122.033	-149.2780
18000.000000	121.450	-160.8077
18250.000000	120.326	-171.6519
18500.000000	118.732	-179.5389
18750.000000	116.945	175.3384
19000.000000	115.298	171.0109
19250.000000	114.011	165.3201
19500.000000	113.058	157.3740
19750.000000	112.289	148.8308
