* Measurement data measured by REW V5.20.4
* Source: Microphone (2- USB Sound Device        ), MICROPHONE (Master Volume), L, volume: 0.750
* Format: 256k Log Swept Sine, 1 sweep at -12.0 dBFS with no timing reference
* Dated: 18-Aug-2023 22:39:57
* REW Settings:
*  C-weighting compensation: Off
*  Target level: 75.0 dB
* Note: 
* Measurement: L Basshead
* Smoothing: 1/12 octave
* Frequency Step: 1/48 octave
* Start Frequency: 20.300 Hz
*
* Freq(Hz)	SPL(dB)	Phase(degrees)
20.299999	72.914	149.4931
20.600000	72.888	149.5377
20.900000	72.824	149.6212
21.200001	72.750	149.6792
21.400000	72.698	149.6955
21.799999	72.588	149.6919
22.000000	72.532	149.6862
22.400000	72.423	149.7040
22.700001	72.351	149.7577
23.000000	72.293	149.8396
23.299999	72.249	149.9259
23.600000	72.217	149.9967
24.000000	72.184	150.0529
24.299999	72.157	150.0803
24.700001	72.112	150.1400
25.000000	72.071	150.2316
25.400000	72.014	150.4264
25.799999	71.962	150.6649
26.200001	71.918	150.8720
26.500000	71.887	150.9680
26.900000	71.845	151.0027
27.200001	71.808	150.9774
27.600000	71.752	150.9233
28.000000	71.695	150.8994
28.500000	71.637	150.9333
29.000000	71.605	150.9719
29.500000	71.589	150.9375
30.000000	71.569	150.8399
30.400000	71.540	150.7767
30.700001	71.513	150.7634
31.100000	71.477	150.7849
31.500000	71.446	150.8109
32.000000	71.418	150.7822
32.500000	71.393	150.6819
33.000000	71.368	150.5848
33.500000	71.340	150.5434
34.000000	71.303	150.5394
34.500000	71.239	150.5551
35.000000	71.141	150.6434
35.500000	71.031	150.8609
36.000000	70.949	151.1245
36.500000	70.924	151.2178
37.000000	70.944	150.9679
37.500000	70.974	150.4304
38.200001	70.988	149.6487
38.700001	70.981	149.3085
39.500000	70.966	149.0464
40.000000	70.952	148.8884
40.599998	70.923	148.6514
41.200001	70.883	148.4140
41.799999	70.843	148.2037
42.500000	70.793	147.9819
43.099998	70.744	147.8079
43.700001	70.691	147.6497
44.400002	70.631	147.4756
45.000000	70.587	147.3337
45.500000	70.555	147.2267
46.200001	70.513	147.0882
46.799999	70.478	146.9516
47.500000	70.430	146.7350
48.200001	70.374	146.4737
48.700001	70.331	146.2944
49.400002	70.275	146.0876
50.000000	70.235	145.9389
50.799999	70.187	145.7350
51.500000	70.142	145.5434
52.200001	70.090	145.3574
53.000000	70.028	145.1470
53.799999	69.966	144.9086
54.500000	69.913	144.6725
55.200001	69.860	144.4339
56.000000	69.800	144.2033
57.000000	69.727	144.0083
58.000000	69.663	143.8139
59.000000	69.600	143.5442
60.000000	69.528	143.3209
60.799999	69.465	143.2216
61.500000	69.410	143.1448
62.200001	69.355	143.0271
63.000000	69.295	142.8235
64.000000	69.226	142.5310
65.000000	69.162	142.3172
66.000000	69.099	142.1826
67.000000	69.031	142.0153
68.000000	68.953	141.7704
69.000000	68.876	141.5249
70.000000	68.807	141.3694
71.000000	68.743	141.3055
72.000000	68.675	141.2733
73.000000	68.608	141.2197
74.000000	68.547	141.1101
75.000000	68.489	140.9273
76.199997	68.407	140.6175
77.500000	68.296	140.2709
78.800003	68.182	140.0635
80.000000	68.092	140.0166
81.199997	68.022	140.0105
82.500000	67.955	139.9402
83.800003	67.877	139.8350
85.000000	67.795	139.7255
86.199997	67.712	139.5731
87.500000	67.626	139.4272
88.500000	67.564	139.3902
90.000000	67.473	139.4482
91.199997	67.409	139.5338
92.500000	67.358	139.5728
93.800003	67.306	139.4979
95.000000	67.236	139.3607
96.199997	67.138	139.2173
97.500000	67.022	139.0853
98.800003	66.921	138.9787
100.000000	66.848	138.8864
101.500000	66.772	138.7664
103.000000	66.690	138.6946
104.400002	66.603	138.7431
106.000000	66.508	138.9328
107.500000	66.431	139.1181
109.000000	66.358	139.1797
110.599998	66.283	139.1273
112.000000	66.224	139.0559
113.800003	66.161	138.9901
115.000000	66.136	138.9703
117.199997	66.158	138.9263
118.000000	66.182	138.9114
120.599998	66.138	138.9952
122.000000	65.990	139.1409
124.099998	65.743	139.3883
125.000000	65.659	139.4801
126.500000	65.549	139.6139
128.000000	65.468	139.7344
131.500000	65.306	139.8425
132.000000	65.280	139.8366
134.000000	65.167	139.8109
136.000000	65.057	139.8029
138.000000	64.965	139.8198
140.000000	64.891	139.9178
143.000000	64.783	140.2799
145.000000	64.698	140.5892
147.500000	64.589	140.8710
150.000000	64.491	141.1256
152.500000	64.403	141.4193
155.000000	64.325	141.5445
157.500000	64.247	141.4526
160.000000	64.151	141.3215
162.500000	64.035	141.2851
165.000000	63.907	141.3614
167.500000	63.770	141.5165
170.000000	63.638	141.6925
172.500000	63.526	141.9054
175.000000	63.437	142.3094
177.500000	63.355	142.9924
180.000000	63.258	143.8401
182.500000	63.151	144.6749
185.000000	63.057	145.4343
187.500000	62.994	146.0944
190.000000	62.968	146.5746
192.500000	62.981	146.8721
195.000000	63.013	147.0708
197.500000	63.026	147.1941
200.000000	63.010	147.2500
203.000000	62.973	147.3125
206.000000	62.935	147.4583
209.000000	62.891	147.7107
212.000000	62.846	148.0040
214.000000	62.816	148.1635
218.000000	62.762	148.3292
220.000000	62.740	148.3387
224.000000	62.703	148.2954
227.000000	62.670	148.3925
230.000000	62.618	148.7205
233.000000	62.546	149.1498
236.000000	62.471	149.5520
240.000000	62.391	149.9819
243.000000	62.339	150.2196
247.000000	62.281	150.4255
250.000000	62.248	150.5345
254.000000	62.205	150.7591
258.000000	62.163	151.1155
262.000000	62.125	151.4977
265.000000	62.094	151.7768
269.000000	62.044	152.1486
272.000000	62.003	152.4173
276.000000	61.954	152.7533
280.000000	61.921	153.0599
285.000000	61.894	153.4133
290.000000	61.879	153.8400
295.000000	61.861	154.2934
300.000000	61.823	154.7220
304.000000	61.788	155.1246
307.000000	61.769	155.5032
311.000000	61.755	156.0709
315.000000	61.747	156.6506
320.000000	61.729	157.3586
325.000000	61.701	158.0266
330.000000	61.678	158.6505
335.000000	61.668	159.2460
340.000000	61.673	159.8040
345.000000	61.689	160.3185
350.000000	61.706	160.7652
355.000000	61.717	161.1296
360.000000	61.725	161.4430
365.000000	61.731	161.7551
370.000000	61.739	162.0809
375.000000	61.749	162.4178
382.000000	61.752	162.9547
387.000000	61.741	163.4091
395.000000	61.701	164.1449
400.000000	61.671	164.5333
406.000000	61.638	164.9453
412.000000	61.615	165.3576
418.000000	61.610	165.7937
425.000000	61.615	166.3508
431.000000	61.613	166.8862
437.000000	61.605	167.4254
444.000000	61.596	167.9692
450.000000	61.597	168.3699
455.000000	61.600	168.6692
462.000000	61.594	169.0112
468.000000	61.574	169.2285
475.000000	61.542	169.4250
482.000000	61.516	169.6248
487.000000	61.505	169.8006
494.000000	61.493	170.1042
500.000000	61.484	170.3734
508.000000	61.470	170.6327
515.000000	61.459	170.7631
522.000000	61.447	170.8679
530.000000	61.429	171.0082
538.000000	61.411	171.2064
545.000000	61.400	171.4166
552.000000	61.399	171.6308
560.000000	61.398	171.8377
570.000000	61.386	172.0150
580.000000	61.367	172.2280
590.000000	61.355	172.5182
600.000000	61.351	172.7901
608.000000	61.348	172.9821
615.000000	61.346	173.1682
622.000000	61.345	173.3911
630.000000	61.338	173.6551
640.000000	61.317	173.9107
650.000000	61.294	174.0827
660.000000	61.277	174.2358
670.000000	61.265	174.4335
680.000000	61.254	174.7042
690.000000	61.245	175.0225
700.000000	61.236	175.3604
710.000000	61.226	175.7151
720.000000	61.219	176.0437
730.000000	61.219	176.3019
740.000000	61.218	176.5331
750.000000	61.215	176.8007
762.000000	61.207	177.1575
775.000000	61.200	177.5471
788.000000	61.203	177.9536
800.000000	61.216	178.3739
812.000000	61.227	178.7642
825.000000	61.234	179.0744
838.000000	61.246	179.3726
850.000000	61.270	179.7603
862.000000	61.299	-179.7769
875.000000	61.326	-179.2975
885.000000	61.348	-178.9656
900.000000	61.395	-178.4684
912.000000	61.439	-178.0884
925.000000	61.487	-177.7313
938.000000	61.537	-177.3990
950.000000	61.586	-177.0847
962.000000	61.634	-176.7936
975.000000	61.684	-176.5593
988.000000	61.740	-176.3884
1000.000000	61.803	-176.1931
1015.000000	61.888	-175.8399
1030.000000	61.968	-175.4803
1044.000000	62.040	-175.2242
1060.000000	62.127	-175.0380
1075.000000	62.216	-174.9532
1090.000000	62.304	-174.9262
1106.000000	62.391	-174.9035
1120.000000	62.461	-174.8701
1138.000000	62.547	-174.8446
1150.000000	62.602	-174.8564
1172.000000	62.704	-174.9488
1180.000000	62.742	-175.0063
1206.000000	62.866	-175.2258
1220.000000	62.934	-175.3145
1241.000000	63.037	-175.4355
1250.000000	63.081	-175.5107
1265.000000	63.151	-175.6820
1280.000000	63.215	-175.8866
1315.000000	63.361	-176.2628
1320.000000	63.382	-176.3039
1340.000000	63.465	-176.4824
1360.000000	63.541	-176.7024
1380.000000	63.614	-176.9482
1400.000000	63.688	-177.1750
1430.000000	63.798	-177.4524
1450.000000	63.867	-177.6058
1475.000000	63.952	-177.7692
1500.000000	64.036	-177.9360
1525.000000	64.123	-178.1332
1550.000000	64.221	-178.3698
1575.000000	64.323	-178.6145
1600.000000	64.425	-178.8205
1625.000000	64.527	-178.9928
1650.000000	64.628	-179.1293
1675.000000	64.728	-179.2506
1700.000000	64.835	-179.4080
1725.000000	64.953	-179.5959
1750.000000	65.082	-179.7689
1775.000000	65.219	-179.9083
1800.000000	65.361	179.9587
1825.000000	65.508	179.7953
1850.000000	65.665	179.5860
1875.000000	65.829	179.3286
1900.000000	65.999	179.0238
1925.000000	66.177	178.6790
1950.000000	66.364	178.3025
1975.000000	66.559	177.8984
2000.000000	66.759	177.4695
2030.000000	67.001	176.9086
2060.000000	67.248	176.2500
2090.000000	67.503	175.4604
2120.000000	67.769	174.5325
2140.000000	67.951	173.8397
2180.000000	68.323	172.2901
2200.000000	68.511	171.4348
2240.000000	68.885	169.5326
2270.000000	69.157	167.9289
2300.000000	69.418	166.1867
2330.000000	69.665	164.3146
2360.000000	69.899	162.3246
2400.000000	70.191	159.5150
2430.000000	70.397	157.3090
2470.000000	70.652	154.2450
2500.000000	70.826	151.8512
2540.000000	71.029	148.5451
2580.000000	71.196	145.1485
2620.000000	71.325	141.7182
2650.000000	71.398	139.1551
2690.000000	71.468	135.7845
2720.000000	71.500	133.3224
2760.000000	71.519	130.2311
2800.000000	71.514	127.5917
2850.000000	71.492	125.3586
2900.000000	71.459	124.4185
2950.000000	71.403	124.3663
3000.000000	71.322	124.7758
3040.000000	71.241	125.2915
3070.000000	71.172	125.7631
3110.000000	71.074	126.5012
3150.000000	70.970	127.3613
3200.000000	70.837	128.5939
3250.000000	70.701	129.9963
3300.000000	70.560	131.5694
3350.000000	70.417	133.3141
3400.000000	70.273	135.2186
3450.000000	70.127	137.2719
3500.000000	69.985	139.4677
3550.000000	69.848	141.7993
3600.000000	69.716	144.2455
3650.000000	69.589	146.7856
3700.000000	69.465	149.4191
3750.000000	69.346	152.1638
3820.000000	69.185	156.2178
3870.000000	69.071	159.2394
3950.000000	68.895	164.2428
4000.000000	68.793	167.4705
4060.000000	68.678	171.4436
4120.000000	68.569	175.5067
4180.000000	68.466	179.6297
4250.000000	68.353	-175.5435
4310.000000	68.263	-171.4721
4370.000000	68.180	-167.6561
4440.000000	68.081	-164.0034
4500.000000	67.987	-161.9285
4550.000000	67.902	-160.9368
4620.000000	67.788	-160.2803
4680.000000	67.697	-160.0326
4750.000000	67.600	-159.8450
4820.000000	67.509	-159.6382
4870.000000	67.452	-159.4422
4940.000000	67.393	-159.0980
5000.000000	67.365	-158.7794
5080.000000	67.359	-158.4149
5150.000000	67.373	-158.2076
5220.000000	67.398	-158.1297
5300.000000	67.436	-158.2516
5380.000000	67.474	-158.6423
5450.000000	67.497	-159.1817
5520.000000	67.505	-159.8689
5600.000000	67.487	-160.7701
5700.000000	67.418	-161.9350
5800.000000	67.304	-163.0365
5900.000000	67.153	-164.0338
6000.000000	66.974	-164.8517
6080.000000	66.818	-165.3420
6150.000000	66.677	-165.6639
6220.000000	66.537	-165.8925
6300.000000	66.379	-166.0382
6400.000000	66.188	-166.0632
6500.000000	66.011	-165.9659
6600.000000	65.851	-165.7715
6700.000000	65.708	-165.4993
6800.000000	65.577	-165.1813
6900.000000	65.464	-164.8055
7000.000000	65.375	-164.3453
7100.000000	65.314	-163.8155
7200.000000	65.285	-163.2743
7300.000000	65.294	-162.7704
7400.000000	65.353	-162.3260
7500.000000	65.469	-162.0014
7620.000000	65.694	-161.9649
7750.000000	66.044	-162.8047
7880.000000	66.444	-165.2029
8000.000000	66.741	-169.1776
8120.000000	66.841	-174.6336
8250.000000	66.624	178.8074
8380.000000	66.059	173.0338
8500.000000	65.311	169.2658
8620.000000	64.462	167.1287
8750.000000	63.537	166.3120
8850.000000	62.871	166.4428
9000.000000	61.984	167.4639
9120.000000	61.377	168.7790
9250.000000	60.819	170.5512
9380.000000	60.361	172.5101
9500.000000	60.018	174.2986
9620.000000	59.744	175.9502
9750.000000	59.511	177.5497
9880.000000	59.333	178.9702
10000.000000	59.206	-179.8853
10150.000000	59.083	-178.7433
10300.000000	58.984	-178.0448
10440.000000	58.893	-177.8453
10600.000000	58.765	-178.1211
10750.000000	58.605	-178.7671
10900.000000	58.388	-179.6251
11060.000000	58.087	179.4382
11200.000000	57.755	178.8036
11380.000000	57.227	178.4187
11500.000000	56.818	178.4719
11720.000000	55.989	179.3779
11800.000000	55.669	179.9920
12060.000000	54.585	-176.8919
12200.000000	53.987	-174.3671
12410.000000	53.101	-169.1060
12500.000000	52.743	-166.2001
12650.000000	52.219	-160.3815
12800.000000	51.857	-153.3799
13150.000000	52.147	-134.4460
13200.000000	52.355	-131.7507
13400.000000	53.598	-121.7957
13600.000000	55.360	-113.8014
13800.000000	57.484	-108.4052
14000.000000	59.803	-106.2888
14300.000000	63.147	-111.7097
14500.000000	64.865	-122.9324
14750.000000	65.939	-144.8694
15000.000000	65.588	-168.5004
15250.000000	64.053	174.6423
15500.000000	61.898	166.6105
15750.000000	59.704	164.9029
16000.000000	57.887	166.7412
16250.000000	56.626	170.3328
16500.000000	55.923	174.5173
16750.000000	55.722	178.4309
17000.000000	55.963	-178.4566
17250.000000	56.609	-176.6510
17500.000000	57.600	-177.0639
17750.000000	58.758	178.9316
18000.000000	59.784	169.8544
18250.000000	60.336	155.3949
18500.000000	60.140	137.9254
18750.000000	59.094	121.9779
19000.000000	57.304	111.2883
19250.000000	55.008	106.6665
19500.000000	52.507	106.4408
19750.000000	50.192	108.0474
