* Measurement data measured by REW V5.19
* Source: Headset (USB-C to 3.5mm Headphone Jack Adapter), no input selected, L, volume: no control
* Format: 256k Log Swept Sine, 1 sweep at -12.0 dBFS  With no timing reference
* Dated: 30-Oct-2021 17:48:39
* REW Settings:
*  C-weighting compensation: Off
*  Target level: 75.0 dB
* Note: 
* Measurement: Moondrop Aria L
* Smoothing: 1/12 octave
* Frequency Step: 1/48 octave
* Start Frequency: 20.3 Hz
*
* Freq(Hz)	SPL(dB)	Phase(degrees)
20.291	120.985	-103.831
20.586	121.017	-104.171
20.885	121.097	-104.932
21.189	121.188	-105.836
21.497	121.282	-106.808
21.810	121.374	-107.808
22.127	121.463	-108.821
22.449	121.549	-109.846
22.776	121.633	-110.887
23.107	121.715	-111.945
23.443	121.795	-113.014
23.784	121.873	-114.088
24.130	121.950	-115.158
24.481	122.026	-116.216
24.837	122.101	-117.257
25.198	122.176	-118.277
25.565	122.251	-119.279
25.937	122.327	-120.271
26.314	122.403	-121.262
26.697	122.476	-122.260
27.085	122.544	-123.266
27.479	122.607	-124.278
27.879	122.663	-125.286
28.284	122.715	-126.283
28.696	122.763	-127.265
29.113	122.811	-128.236
29.537	122.861	-129.204
29.966	122.913	-130.180
30.402	122.968	-131.173
30.844	123.025	-132.186
31.293	123.082	-133.216
31.748	123.138	-134.253
32.210	123.190	-135.280
32.678	123.238	-136.273
33.154	123.282	-137.214
33.636	123.324	-138.100
34.125	123.364	-138.947
34.621	123.401	-139.781
35.125	123.430	-140.618
35.636	123.449	-141.459
36.154	123.459	-142.313
36.680	123.463	-143.210
37.214	123.461	-144.185
37.755	123.453	-145.266
38.304	123.439	-146.482
38.861	123.414	-147.868
39.427	123.361	-149.378
40.000	123.268	-150.776
40.582	123.152	-151.741
41.172	123.077	-152.133
41.771	123.101	-152.213
42.379	123.223	-152.451
42.995	123.382	-153.118
43.620	123.520	-154.118
44.255	123.616	-155.193
44.898	123.676	-156.171
45.552	123.712	-157.023
46.214	123.726	-157.772
46.886	123.724	-158.449
47.568	123.710	-159.083
48.260	123.692	-159.704
48.962	123.681	-160.357
49.674	123.679	-161.102
50.397	123.684	-161.967
51.130	123.690	-162.912
51.874	123.695	-163.868
52.628	123.701	-164.788
53.394	123.706	-165.660
54.170	123.706	-166.479
54.958	123.696	-167.239
55.758	123.676	-167.943
56.569	123.646	-168.611
57.391	123.612	-169.267
58.226	123.580	-169.940
59.073	123.555	-170.667
59.932	123.540	-171.478
60.804	123.530	-172.370
61.688	123.519	-173.298
62.586	123.501	-174.196
63.496	123.475	-174.999
64.420	123.443	-175.672
65.357	123.410	-176.247
66.307	123.377	-176.794
67.272	123.339	-177.368
68.250	123.294	-177.981
69.243	123.245	-178.620
70.250	123.194	-179.259
71.272	123.148	-179.878
72.309	123.107	179.535
73.360	123.067	178.986
74.427	123.017	178.512
75.510	122.953	178.178
76.608	122.880	178.020
77.723	122.807	177.994
78.853	122.742	177.992
80.000	122.688	177.884
81.164	122.637	177.535
82.344	122.568	176.922
83.542	122.463	176.241
84.757	122.338	175.782
85.990	122.234	175.698
87.241	122.191	175.921
88.510	122.223	176.242
89.797	122.315	176.422
91.103	122.433	176.306
92.428	122.546	175.854
93.773	122.632	175.115
95.137	122.683	174.184
96.520	122.695	173.164
97.924	122.672	172.147
99.349	122.623	171.197
100.794	122.560	170.343
102.260	122.498	169.583
103.747	122.443	168.896
105.256	122.395	168.255
106.787	122.348	167.641
108.340	122.299	167.052
109.916	122.250	166.516
111.515	122.206	166.112
113.137	122.171	165.969
114.783	122.147	166.178
116.452	122.134	166.642
118.146	122.127	166.996
119.865	122.100	166.804
121.608	122.025	165.947
123.377	121.905	164.731
125.171	121.781	163.567
126.992	121.681	162.681
128.839	121.608	162.083
130.713	121.546	161.664
132.615	121.485	161.311
134.543	121.424	160.970
136.500	121.365	160.640
138.486	121.306	160.326
140.500	121.247	160.017
142.544	121.186	159.705
144.617	121.126	159.399
146.721	121.066	159.112
148.855	121.006	158.843
151.020	120.946	158.589
153.217	120.884	158.353
155.445	120.821	158.144
157.706	120.758	157.970
160.000	120.695	157.825
162.327	120.633	157.696
164.688	120.573	157.575
167.084	120.514	157.460
169.514	120.456	157.346
171.980	120.398	157.224
174.481	120.342	157.090
177.019	120.290	156.958
179.594	120.245	156.840
182.206	120.205	156.724
184.856	120.167	156.584
187.545	120.127	156.406
190.273	120.084	156.207
193.041	120.038	156.011
195.849	119.988	155.842
198.697	119.933	155.711
201.587	119.873	155.615
204.520	119.812	155.534
207.494	119.757	155.431
210.512	119.709	155.296
213.574	119.664	155.151
216.681	119.616	155.018
219.833	119.563	154.905
223.030	119.508	154.811
226.274	119.452	154.736
229.565	119.397	154.678
232.905	119.343	154.634
236.292	119.289	154.604
239.729	119.237	154.591
243.216	119.187	154.592
246.754	119.139	154.597
250.343	119.092	154.592
253.984	119.045	154.578
257.678	118.997	154.565
261.426	118.949	154.560
265.229	118.901	154.563
269.087	118.854	154.572
273.001	118.808	154.591
276.972	118.763	154.621
281.000	118.720	154.662
285.088	118.678	154.709
289.234	118.636	154.761
293.441	118.594	154.819
297.710	118.551	154.883
302.040	118.508	154.958
306.433	118.465	155.043
310.890	118.421	155.133
315.412	118.379	155.217
320.000	118.342	155.288
324.655	118.308	155.350
329.377	118.276	155.417
334.168	118.243	155.499
339.028	118.207	155.595
343.959	118.169	155.698
348.962	118.131	155.805
354.038	118.094	155.918
359.188	118.058	156.037
364.412	118.024	156.162
369.713	117.989	156.291
375.090	117.956	156.423
380.546	117.924	156.561
386.081	117.893	156.707
391.697	117.864	156.861
397.395	117.837	157.018
403.175	117.810	157.176
409.039	117.783	157.332
414.989	117.758	157.489
421.025	117.734	157.654
427.149	117.711	157.831
433.362	117.690	158.022
439.665	117.670	158.223
446.060	117.649	158.431
452.548	117.630	158.639
459.131	117.613	158.847
465.809	117.599	159.053
472.584	117.585	159.262
479.458	117.571	159.479
486.432	117.557	159.707
493.507	117.542	159.943
500.686	117.528	160.182
507.968	117.515	160.424
515.357	117.503	160.671
522.853	117.492	160.924
530.458	117.481	161.186
538.174	117.470	161.458
546.002	117.461	161.739
553.943	117.452	162.028
562.001	117.445	162.326
570.175	117.440	162.632
578.469	117.435	162.945
586.883	117.431	163.265
595.419	117.429	163.591
604.080	117.428	163.928
612.866	117.431	164.277
621.780	117.435	164.636
630.824	117.442	165.003
640.000	117.451	165.376
649.309	117.462	165.760
658.753	117.475	166.154
668.335	117.490	166.559
678.056	117.506	166.973
687.919	117.524	167.394
697.925	117.544	167.825
708.076	117.567	168.269
718.376	117.591	168.728
728.825	117.617	169.202
739.426	117.646	169.687
750.181	117.677	170.182
761.093	117.711	170.686
772.163	117.748	171.201
783.394	117.789	171.726
794.789	117.833	172.259
806.349	117.881	172.798
818.078	117.932	173.344
829.977	117.988	173.895
842.050	118.047	174.452
854.297	118.111	175.011
866.724	118.180	175.569
879.330	118.253	176.124
892.120	118.331	176.671
905.097	118.413	177.210
918.262	118.501	177.738
931.618	118.594	178.252
945.169	118.690	178.748
958.917	118.791	179.221
972.864	118.896	179.668
987.015	119.004	-179.914
1001.371	119.114	-179.527
1015.937	119.227	-179.170
1030.714	119.341	-178.840
1045.706	119.459	-178.537
1060.916	119.581	-178.272
1076.347	119.704	-178.059
1092.003	119.825	-177.903
1107.887	119.940	-177.783
1124.001	120.047	-177.658
1140.350	120.152	-177.484
1156.937	120.262	-177.247
1173.765	120.383	-176.977
1190.838	120.519	-176.728
1208.159	120.664	-176.542
1225.732	120.813	-176.434
1243.561	120.962	-176.396
1261.649	121.108	-176.412
1280.000	121.249	-176.465
1298.618	121.386	-176.545
1317.507	121.518	-176.643
1336.670	121.644	-176.756
1356.113	121.763	-176.879
1375.838	121.876	-177.009
1395.850	121.983	-177.146
1416.153	122.087	-177.286
1436.751	122.189	-177.429
1457.649	122.290	-177.573
1478.851	122.393	-177.716
1500.362	122.500	-177.860
1522.185	122.613	-178.003
1544.326	122.735	-178.148
1566.789	122.865	-178.295
1589.578	123.000	-178.446
1612.699	123.139	-178.601
1636.156	123.280	-178.761
1659.955	123.424	-178.925
1684.099	123.571	-179.095
1708.595	123.722	-179.273
1733.447	123.877	-179.460
1758.661	124.035	-179.662
1784.241	124.196	-179.883
1810.193	124.357	179.871
1836.523	124.518	179.594
1863.236	124.677	179.285
1890.338	124.829	178.943
1917.833	124.973	178.571
1945.729	125.107	178.168
1974.030	125.232	177.738
2002.743	125.349	177.280
2031.873	125.461	176.794
2061.428	125.568	176.281
2091.412	125.671	175.739
2121.832	125.770	175.170
2152.695	125.864	174.573
2184.007	125.953	173.953
2215.774	126.037	173.311
2248.003	126.113	172.651
2280.701	126.183	171.978
2313.874	126.244	171.295
2347.530	126.297	170.607
2381.676	126.341	169.919
2416.318	126.375	169.237
2451.464	126.401	168.567
2487.122	126.416	167.917
2523.298	126.423	167.294
2560.000	126.419	166.706
2597.236	126.406	166.159
2635.014	126.383	165.661
2673.341	126.352	165.221
2712.226	126.311	164.847
2751.676	126.263	164.548
2791.700	126.208	164.335
2832.306	126.149	164.214
2873.503	126.089	164.187
2915.299	126.033	164.245
2957.703	125.982	164.372
3000.724	125.939	164.542
3044.370	125.901	164.733
3088.652	125.867	164.935
3133.577	125.832	165.150
3179.156	125.795	165.391
3225.398	125.756	165.676
3272.312	125.717	166.018
3319.909	125.681	166.421
3368.198	125.650	166.884
3417.190	125.630	167.394
3466.894	125.621	167.939
3517.321	125.623	168.502
3568.482	125.635	169.070
3620.387	125.654	169.630
3673.046	125.679	170.168
3726.472	125.705	170.676
3780.675	125.729	171.145
3835.666	125.747	171.572
3891.457	125.757	171.962
3948.060	125.756	172.319
4005.486	125.744	172.650
4063.747	125.721	172.960
4122.855	125.686	173.256
4182.824	125.638	173.546
4243.664	125.575	173.839
4305.390	125.496	174.136
4368.013	125.398	174.434
4431.547	125.281	174.728
4496.005	125.143	175.019
4561.401	124.981	175.318
4627.749	124.793	175.651
4695.061	124.577	176.059
4763.352	124.332	176.589
4832.637	124.062	177.293
4902.929	123.771	178.213
4974.244	123.466	179.378
5046.596	123.153	-179.206
5120.000	122.835	-177.547
5194.472	122.518	-175.660
5270.027	122.203	-173.563
5346.682	121.891	-171.264
5424.451	121.584	-168.766
5503.352	121.283	-166.066
5583.399	120.988	-163.160
5664.612	120.703	-160.042
5747.006	120.429	-156.711
5830.598	120.168	-153.172
5915.406	119.925	-149.436
6001.447	119.702	-145.520
6088.740	119.500	-141.443
6177.303	119.319	-137.217
6267.154	119.161	-132.840
6358.312	119.028	-128.313
6450.796	118.927	-123.643
6544.625	118.864	-118.848
6639.818	118.845	-113.954
6736.397	118.876	-108.988
6834.380	118.965	-103.979
6933.789	119.114	-98.964
7034.643	119.326	-93.987
7136.964	119.606	-89.109
7240.773	119.958	-84.413
7346.093	120.386	-80.012
7452.944	120.886	-76.059
7561.350	121.445	-72.756
7671.332	122.035	-70.337
7782.915	122.609	-69.041
7896.120	123.109	-69.034
8010.971	123.474	-70.328
8127.493	123.650	-72.692
8245.711	123.594	-75.632
8365.647	123.289	-78.478
8487.328	122.741	-80.556
8610.779	121.982	-81.370
8736.026	121.060	-80.685
8863.095	120.028	-78.483
8992.011	118.937	-74.880
9122.803	117.832	-70.040
9255.497	116.748	-64.132
9390.121	115.708	-57.309
9526.704	114.731	-49.710
9665.273	113.825	-41.451
9805.857	112.997	-32.626
9948.487	112.247	-23.303
10093.191	111.573	-13.529
10240.000	110.973	-3.323
10388.944	110.445	7.329
10540.055	109.992	18.473
10693.363	109.624	30.177
10848.902	109.366	42.519
11006.703	109.271	55.553
11166.799	109.429	69.240
11329.224	109.944	83.346
11494.012	110.872	97.370
11661.195	112.160	110.562
11830.812	113.675	122.117
12002.895	115.285	131.436
12177.480	116.903	138.277
12354.606	118.473	142.618
12534.309	119.935	144.372
12716.624	121.198	143.271
12901.592	122.146	139.148
13089.250	122.668	132.513
13279.637	122.689	124.887
13472.794	122.197	118.413
13668.760	121.253	114.904
13867.577	119.982	115.128
14069.285	118.553	118.814
14273.928	117.154	125.122
14481.547	115.960	133.098
14692.186	115.092	141.891
14905.889	114.603	150.805
15122.700	114.478	159.258
15342.664	114.663	166.711
15565.829	115.069	172.615
15792.239	115.579	176.420
16021.942	116.057	177.706
16254.986	116.372	176.396
16491.422	116.414	172.974
16731.295	116.110	168.521
16974.656	115.431	164.447
17221.559	114.405	161.955
17472.053	113.124	161.439
17726.189	111.738	162.279
17984.021	110.404	163.311
18245.605	109.207	163.491
18510.994	108.134	162.149
18780.242	107.109	158.978
19053.408	106.046	154.078
19330.547	104.894	148.084
19611.715	103.703	142.208
19896.975	102.730	137.992
