* Measurement data measured by REW V5.20.4
* Source: Microphone (2- USB Sound Device        ), MICROPHONE (Master Volume), R, volume: 0.750
* Format: 256k Log Swept Sine, 1 sweep at -12.0 dBFS with no timing reference
* Dated: 18-Aug-2023 23:18:48
* REW Settings:
*  C-weighting compensation: Off
*  Target level: 75.0 dB
* Note: 
* Measurement: R Basshead
* Smoothing: 1/12 octave
* Frequency Step: 1/48 octave
* Start Frequency: 20.300 Hz
*
* Freq(Hz)	SPL(dB)	Phase(degrees)
20.299999	71.902	150.2424
20.600000	71.871	150.4675
20.900000	71.800	150.9278
21.200001	71.735	151.3799
21.400000	71.699	151.6390
21.799999	71.642	152.0529
22.000000	71.619	152.2163
22.400000	71.581	152.4926
22.700001	71.558	152.6556
23.000000	71.536	152.7439
23.299999	71.508	152.7125
23.600000	71.464	152.5569
24.000000	71.364	152.2304
24.299999	71.259	152.0258
24.700001	71.097	151.9929
25.000000	70.987	152.2156
25.400000	70.891	152.7861
25.799999	70.871	153.4434
26.200001	70.901	153.9404
26.500000	70.925	154.1422
26.900000	70.926	154.2243
27.200001	70.891	154.2265
27.600000	70.801	154.2468
28.000000	70.685	154.3142
28.500000	70.550	154.3631
29.000000	70.453	154.2335
29.500000	70.395	153.9596
30.000000	70.361	153.7651
30.400000	70.350	153.8023
30.700001	70.351	153.9514
31.100000	70.363	154.2381
31.500000	70.377	154.5152
32.000000	70.378	154.7148
32.500000	70.344	154.7361
33.000000	70.281	154.6680
33.500000	70.212	154.5698
34.000000	70.157	154.4229
34.500000	70.118	154.1983
35.000000	70.090	153.9238
35.500000	70.071	153.6641
36.000000	70.065	153.4538
36.500000	70.068	153.2882
37.000000	70.068	153.1712
37.500000	70.053	153.1373
38.200001	70.003	153.2761
38.700001	69.959	153.4521
39.500000	69.895	153.5625
40.000000	69.860	153.3861
40.599998	69.812	152.9331
41.200001	69.746	152.4027
41.799999	69.668	152.0234
42.500000	69.590	151.8958
43.099998	69.550	151.9378
43.700001	69.521	151.9465
44.400002	69.477	151.8586
45.000000	69.423	151.7924
45.500000	69.379	151.8136
46.200001	69.343	151.9443
46.799999	69.340	152.0469
47.500000	69.336	152.0509
48.200001	69.296	151.9732
48.700001	69.244	151.9291
49.400002	69.163	151.8943
50.000000	69.111	151.8181
50.799999	69.070	151.5941
51.500000	69.038	151.3988
52.200001	68.997	151.3301
53.000000	68.940	151.3566
53.799999	68.875	151.3297
54.500000	68.814	151.2174
55.200001	68.755	151.0596
56.000000	68.691	150.8704
57.000000	68.608	150.6507
58.000000	68.518	150.4695
59.000000	68.429	150.3912
60.000000	68.357	150.4063
60.799999	68.313	150.3954
61.500000	68.276	150.3403
62.200001	68.236	150.2648
63.000000	68.182	150.2041
64.000000	68.105	150.2346
65.000000	68.034	150.3511
66.000000	67.975	150.4251
67.000000	67.915	150.4232
68.000000	67.845	150.3870
69.000000	67.770	150.3035
70.000000	67.692	150.1613
71.000000	67.614	150.0460
72.000000	67.544	150.0569
73.000000	67.485	150.1588
74.000000	67.428	150.2621
75.000000	67.368	150.3185
76.199997	67.296	150.2993
77.500000	67.210	150.2304
78.800003	67.114	150.1819
80.000000	67.024	150.1529
81.199997	66.944	150.1269
82.500000	66.870	150.1178
83.800003	66.792	150.1878
85.000000	66.714	150.3479
86.199997	66.635	150.5620
87.500000	66.549	150.8091
88.500000	66.484	150.9654
90.000000	66.399	151.0799
91.199997	66.344	151.1118
92.500000	66.282	151.1787
93.800003	66.207	151.2685
95.000000	66.129	151.3020
96.199997	66.048	151.3074
97.500000	65.961	151.3741
98.800003	65.882	151.5300
100.000000	65.819	151.7149
101.500000	65.746	151.9354
103.000000	65.674	152.1068
104.400002	65.605	152.2704
106.000000	65.522	152.5065
107.500000	65.440	152.7605
109.000000	65.358	153.0411
110.599998	65.279	153.3302
112.000000	65.218	153.5289
113.800003	65.143	153.7246
115.000000	65.089	153.8632
117.199997	64.989	154.1976
118.000000	64.952	154.3407
120.599998	64.824	154.7811
122.000000	64.751	154.9783
124.099998	64.643	155.2583
125.000000	64.599	155.3813
126.500000	64.530	155.6195
128.000000	64.466	155.9203
131.500000	64.321	156.7360
132.000000	64.301	156.8498
134.000000	64.220	157.2662
136.000000	64.132	157.6232
138.000000	64.050	157.9499
140.000000	63.978	158.2690
143.000000	63.868	158.7346
145.000000	63.790	159.1095
147.500000	63.694	159.6349
150.000000	63.603	160.1051
152.500000	63.522	160.5804
155.000000	63.446	161.1168
157.500000	63.371	161.6115
160.000000	63.289	162.0184
162.500000	63.207	162.4156
165.000000	63.138	162.9337
167.500000	63.071	163.5731
170.000000	62.997	164.1592
172.500000	62.924	164.6603
175.000000	62.859	165.1849
177.500000	62.801	165.7318
180.000000	62.743	166.2424
182.500000	62.682	166.6892
185.000000	62.621	167.0909
187.500000	62.562	167.5191
190.000000	62.502	168.0185
192.500000	62.440	168.5535
195.000000	62.377	169.0755
197.500000	62.316	169.5504
200.000000	62.262	169.9848
203.000000	62.206	170.5340
206.000000	62.163	171.1558
209.000000	62.125	171.8750
212.000000	62.086	172.6608
214.000000	62.058	173.1570
218.000000	61.998	173.9986
220.000000	61.965	174.3667
224.000000	61.890	175.0666
227.000000	61.833	175.5969
230.000000	61.792	176.1144
233.000000	61.763	176.5675
236.000000	61.728	176.9680
240.000000	61.670	177.4987
243.000000	61.627	177.8841
247.000000	61.580	178.3654
250.000000	61.552	178.7595
254.000000	61.520	179.3618
258.000000	61.490	179.9846
262.000000	61.453	-179.4676
265.000000	61.424	-179.1129
269.000000	61.387	-178.6523
272.000000	61.363	-178.2915
276.000000	61.334	-177.8050
280.000000	61.316	-177.2900
285.000000	61.309	-176.5636
290.000000	61.307	-175.8056
295.000000	61.303	-175.1032
300.000000	61.301	-174.5522
304.000000	61.300	-174.1769
307.000000	61.298	-173.9115
311.000000	61.291	-173.5626
315.000000	61.283	-173.1990
320.000000	61.279	-172.7108
325.000000	61.287	-172.2617
330.000000	61.300	-171.9565
335.000000	61.308	-171.7358
340.000000	61.306	-171.4737
345.000000	61.295	-171.1062
350.000000	61.280	-170.6653
355.000000	61.270	-170.1935
360.000000	61.269	-169.6879
365.000000	61.271	-169.1737
370.000000	61.273	-168.6810
375.000000	61.272	-168.2080
382.000000	61.259	-167.5840
387.000000	61.242	-167.1222
395.000000	61.220	-166.2047
400.000000	61.212	-165.5505
406.000000	61.208	-164.7904
412.000000	61.216	-164.1215
418.000000	61.239	-163.5651
425.000000	61.280	-162.9813
431.000000	61.313	-162.4512
437.000000	61.336	-161.9054
444.000000	61.354	-161.2945
450.000000	61.359	-160.7817
455.000000	61.357	-160.3654
462.000000	61.352	-159.7999
468.000000	61.355	-159.3155
475.000000	61.371	-158.7728
482.000000	61.391	-158.2729
487.000000	61.399	-157.9024
494.000000	61.399	-157.3269
500.000000	61.392	-156.8224
508.000000	61.386	-156.2052
515.000000	61.387	-155.7124
522.000000	61.389	-155.2286
530.000000	61.385	-154.6552
538.000000	61.381	-154.0493
545.000000	61.381	-153.4669
552.000000	61.382	-152.8547
560.000000	61.379	-152.1975
570.000000	61.379	-151.4533
580.000000	61.391	-150.7509
590.000000	61.396	-150.0689
600.000000	61.395	-149.3556
608.000000	61.392	-148.7703
615.000000	61.388	-148.2377
622.000000	61.386	-147.7116
630.000000	61.384	-147.2021
640.000000	61.367	-146.6819
650.000000	61.346	-146.0870
660.000000	61.340	-145.3079
670.000000	61.344	-144.3871
680.000000	61.343	-143.4204
690.000000	61.334	-142.4943
700.000000	61.326	-141.6675
710.000000	61.318	-140.9234
720.000000	61.304	-140.2261
730.000000	61.289	-139.5302
740.000000	61.279	-138.7838
750.000000	61.277	-137.9938
762.000000	61.283	-137.0413
775.000000	61.296	-136.0258
788.000000	61.307	-134.9897
800.000000	61.313	-133.9862
812.000000	61.321	-132.9279
825.000000	61.332	-131.7114
838.000000	61.349	-130.4951
850.000000	61.367	-129.4550
862.000000	61.387	-128.4677
875.000000	61.410	-127.3724
885.000000	61.426	-126.4926
900.000000	61.448	-125.1757
912.000000	61.472	-124.1758
925.000000	61.507	-123.1472
938.000000	61.559	-122.1378
950.000000	61.621	-121.2045
962.000000	61.689	-120.2731
975.000000	61.760	-119.2710
988.000000	61.820	-118.2927
1000.000000	61.866	-117.4308
1015.000000	61.923	-116.3819
1030.000000	61.988	-115.3073
1044.000000	62.058	-114.3055
1060.000000	62.143	-113.2263
1075.000000	62.227	-112.2745
1090.000000	62.311	-111.3392
1106.000000	62.400	-110.3371
1120.000000	62.476	-109.4680
1138.000000	62.565	-108.4099
1150.000000	62.620	-107.7554
1172.000000	62.720	-106.6392
1180.000000	62.759	-106.2445
1206.000000	62.892	-104.9064
1220.000000	62.962	-104.1608
1241.000000	63.058	-103.1208
1250.000000	63.096	-102.7126
1265.000000	63.155	-102.0551
1280.000000	63.211	-101.4004
1315.000000	63.335	-99.7942
1320.000000	63.352	-99.5543
1340.000000	63.419	-98.5925
1360.000000	63.488	-97.6585
1380.000000	63.562	-96.7529
1400.000000	63.636	-95.8659
1430.000000	63.741	-94.5096
1450.000000	63.801	-93.5629
1475.000000	63.873	-92.3688
1500.000000	63.949	-91.1751
1525.000000	64.030	-89.9581
1550.000000	64.114	-88.7168
1575.000000	64.199	-87.4708
1600.000000	64.288	-86.2189
1625.000000	64.381	-84.9334
1650.000000	64.479	-83.6237
1675.000000	64.582	-82.3147
1700.000000	64.689	-81.0338
1725.000000	64.800	-79.7496
1750.000000	64.920	-78.4180
1775.000000	65.047	-77.0733
1800.000000	65.175	-75.7638
1825.000000	65.308	-74.4987
1850.000000	65.449	-73.2645
1875.000000	65.596	-72.0520
1900.000000	65.749	-70.8596
1925.000000	65.909	-69.6910
1950.000000	66.077	-68.5574
1975.000000	66.255	-67.4667
2000.000000	66.441	-66.4128
2030.000000	66.674	-65.1893
2060.000000	66.914	-64.0429
2090.000000	67.162	-63.0450
2120.000000	67.423	-62.3083
2140.000000	67.601	-62.0453
2180.000000	67.957	-62.2448
2200.000000	68.133	-62.7085
2240.000000	68.482	-64.1820
2270.000000	68.744	-65.5989
2300.000000	69.004	-67.2010
2330.000000	69.259	-68.9751
2360.000000	69.505	-70.9187
2400.000000	69.813	-73.7620
2430.000000	70.026	-76.0573
2470.000000	70.286	-79.2826
2500.000000	70.459	-81.8024
2540.000000	70.659	-85.2763
2580.000000	70.824	-88.8445
2620.000000	70.955	-92.4690
2650.000000	71.035	-95.2139
2690.000000	71.118	-98.8893
2720.000000	71.166	-101.6463
2760.000000	71.208	-105.3108
2800.000000	71.230	-108.9483
2850.000000	71.232	-113.4372
2900.000000	71.207	-117.8533
2950.000000	71.160	-122.1964
3000.000000	71.097	-126.4704
3040.000000	71.036	-129.8475
3070.000000	70.984	-132.3554
3110.000000	70.906	-135.6569
3150.000000	70.821	-138.8991
3200.000000	70.709	-142.8741
3250.000000	70.591	-146.7706
3300.000000	70.463	-150.5107
3350.000000	70.329	-153.8788
3400.000000	70.198	-156.5828
3450.000000	70.081	-158.4826
3500.000000	69.973	-159.7331
3550.000000	69.863	-160.6089
3600.000000	69.749	-161.2986
3650.000000	69.635	-161.8784
3700.000000	69.524	-162.3951
3750.000000	69.419	-162.8875
3820.000000	69.282	-163.5453
3870.000000	69.191	-163.9764
3950.000000	69.052	-164.6407
4000.000000	68.966	-165.0815
4060.000000	68.863	-165.6275
4120.000000	68.764	-166.1547
4180.000000	68.665	-166.6509
4250.000000	68.547	-167.2178
4310.000000	68.445	-167.7033
4370.000000	68.343	-168.1789
4440.000000	68.225	-168.7197
4500.000000	68.120	-169.1885
4550.000000	68.027	-169.5876
4620.000000	67.888	-170.1395
4680.000000	67.757	-170.5745
4750.000000	67.594	-170.9973
4820.000000	67.423	-171.3030
4870.000000	67.302	-171.4403
4940.000000	67.138	-171.5130
5000.000000	67.007	-171.4742
5080.000000	66.844	-171.3169
5150.000000	66.715	-171.1294
5220.000000	66.597	-170.9244
5300.000000	66.475	-170.6702
5380.000000	66.370	-170.4135
5450.000000	66.293	-170.2095
5520.000000	66.227	-170.0457
5600.000000	66.162	-169.9328
5700.000000	66.089	-169.8946
5800.000000	66.017	-169.9424
5900.000000	65.946	-170.0533
6000.000000	65.867	-170.2096
6080.000000	65.797	-170.3628
6150.000000	65.733	-170.5171
6220.000000	65.667	-170.6951
6300.000000	65.586	-170.9310
6400.000000	65.476	-171.2615
6500.000000	65.358	-171.5811
6600.000000	65.233	-171.8416
6700.000000	65.100	-172.0034
6800.000000	64.961	-172.0465
6900.000000	64.822	-172.0071
7000.000000	64.686	-171.8961
7100.000000	64.554	-171.6533
7200.000000	64.434	-171.2062
7300.000000	64.345	-170.5398
7400.000000	64.307	-169.7192
7500.000000	64.334	-168.8344
7620.000000	64.473	-167.8148
7750.000000	64.783	-167.1114
7880.000000	65.252	-167.5679
8000.000000	65.742	-169.7422
8120.000000	66.141	-173.9378
8250.000000	66.302	179.6516
8380.000000	66.081	172.6558
8500.000000	65.555	167.0635
8620.000000	64.818	163.0667
8750.000000	63.920	160.6306
8850.000000	63.233	159.8532
9000.000000	62.285	159.8717
9120.000000	61.625	160.5090
9250.000000	61.008	161.5502
9380.000000	60.481	162.8062
9500.000000	60.070	164.0713
9620.000000	59.734	165.3840
9750.000000	59.441	166.7928
9880.000000	59.197	168.0795
10000.000000	59.003	169.0775
10150.000000	58.801	170.0195
10300.000000	58.626	170.5591
10440.000000	58.464	170.6719
10600.000000	58.256	170.4283
10750.000000	58.029	169.9998
10900.000000	57.756	169.4870
11060.000000	57.401	168.9628
11200.000000	57.038	168.6613
11380.000000	56.519	168.6435
11500.000000	56.149	168.9424
11720.000000	55.418	170.2653
11800.000000	55.133	170.9955
12060.000000	54.156	174.3759
12200.000000	53.612	176.9919
12410.000000	52.819	-177.6829
12500.000000	52.510	-174.7920
12650.000000	52.082	-169.1398
12800.000000	51.831	-162.6222
13150.000000	52.363	-146.2125
13200.000000	52.583	-143.9708
13400.000000	53.753	-136.0050
13600.000000	55.239	-130.3068
13800.000000	56.886	-127.2425
14000.000000	58.605	-126.8914
14300.000000	61.162	-131.8694
14500.000000	62.698	-139.4853
14750.000000	64.151	-154.7028
15000.000000	64.754	-175.3456
15250.000000	64.287	163.0989
15500.000000	62.821	146.3609
15750.000000	60.672	137.1154
16000.000000	58.243	134.6000
16250.000000	55.928	136.7814
16500.000000	54.034	141.7919
16750.000000	52.747	148.1809
17000.000000	52.163	154.8402
17250.000000	52.265	160.7877
17500.000000	52.906	164.9843
17750.000000	53.860	166.2660
18000.000000	54.872	163.4183
18250.000000	55.666	155.8314
18500.000000	55.994	144.2527
18750.000000	55.710	130.9424
19000.000000	54.804	118.8058
19250.000000	53.392	109.9103
19500.000000	51.700	104.8024
19750.000000	50.075	102.7800
