* Measurement data measured by REW V5.20.4
* Source: Microphone (2- USB Sound Device        ), MICROPHONE (Master Volume), R, volume: 0.750
* Format: 256k Log Swept Sine, 1 sweep at -12.0 dBFS with no timing reference
* Dated: 18-Aug-2023 23:23:13
* REW Settings:
*  C-weighting compensation: Off
*  Target level: 75.0 dB
* Note: 
* Measurement: R Reference
* Smoothing: 1/12 octave
* Frequency Step: 1/48 octave
* Start Frequency: 20.300 Hz
*
* Freq(Hz)	SPL(dB)	Phase(degrees)
20.299999	69.585	149.9438
20.600000	69.549	149.9203
20.900000	69.467	149.8927
21.200001	69.400	149.9294
21.400000	69.376	149.9861
21.799999	69.376	150.1089
22.000000	69.395	150.1396
22.400000	69.439	150.0904
22.700001	69.452	150.0041
23.000000	69.428	149.9872
23.299999	69.371	150.1527
23.600000	69.294	150.5466
24.000000	69.191	151.3799
24.299999	69.134	152.0916
24.700001	69.088	152.9225
25.000000	69.065	153.3467
25.400000	69.025	153.6412
25.799999	68.959	153.7658
26.200001	68.875	153.8701
26.500000	68.813	153.9523
26.900000	68.743	154.0011
27.200001	68.699	153.9292
27.600000	68.641	153.6597
28.000000	68.569	153.2752
28.500000	68.459	152.8719
29.000000	68.363	152.7291
29.500000	68.317	152.7675
30.000000	68.326	152.7866
30.400000	68.353	152.7398
30.700001	68.377	152.6986
31.100000	68.405	152.6995
31.500000	68.424	152.8042
32.000000	68.430	153.0838
32.500000	68.405	153.4955
33.000000	68.347	154.0074
33.500000	68.273	154.5678
34.000000	68.208	155.0651
34.500000	68.162	155.4023
35.000000	68.129	155.6017
35.500000	68.099	155.7916
36.000000	68.073	156.0559
36.500000	68.055	156.3316
37.000000	68.045	156.4628
37.500000	68.037	156.3652
38.200001	68.026	155.9931
38.700001	68.029	155.7724
39.500000	68.053	155.7708
40.000000	68.056	155.9775
40.599998	68.022	156.3403
41.200001	67.957	156.6890
41.799999	67.897	156.8623
42.500000	67.878	156.7007
43.099998	67.900	156.3090
43.700001	67.921	155.9014
44.400002	67.907	155.6576
45.000000	67.862	155.6885
45.500000	67.817	155.7901
46.200001	67.766	155.8894
46.799999	67.742	155.8860
47.500000	67.727	155.8614
48.200001	67.704	155.9110
48.700001	67.678	155.9885
49.400002	67.632	156.0717
50.000000	67.592	156.0450
50.799999	67.551	155.8741
51.500000	67.529	155.7103
52.200001	67.519	155.5910
53.000000	67.512	155.4399
53.799999	67.494	155.2470
54.500000	67.472	155.1331
55.200001	67.456	155.1169
56.000000	67.447	155.1563
57.000000	67.436	155.1456
58.000000	67.419	154.9829
59.000000	67.397	154.7803
60.000000	67.369	154.7199
60.799999	67.343	154.7338
61.500000	67.317	154.7129
62.200001	67.292	154.6451
63.000000	67.268	154.5574
64.000000	67.243	154.5148
65.000000	67.214	154.5172
66.000000	67.176	154.4163
67.000000	67.129	154.1521
68.000000	67.068	153.8743
69.000000	67.000	153.7340
70.000000	66.947	153.6545
71.000000	66.915	153.5099
72.000000	66.889	153.3456
73.000000	66.857	153.2514
74.000000	66.819	153.2122
75.000000	66.785	153.1605
76.199997	66.755	153.0707
77.500000	66.731	152.9814
78.800003	66.694	152.9007
80.000000	66.639	152.8577
81.199997	66.582	152.8510
82.500000	66.544	152.9012
83.800003	66.524	153.0608
85.000000	66.494	153.2523
86.199997	66.442	153.3452
87.500000	66.377	153.2495
88.500000	66.333	153.1088
90.000000	66.275	153.0122
91.199997	66.234	153.0654
92.500000	66.197	153.1339
93.800003	66.164	153.1497
95.000000	66.128	153.1425
96.199997	66.085	153.1532
97.500000	66.031	153.1927
98.800003	65.967	153.2668
100.000000	65.905	153.3699
101.500000	65.838	153.4925
103.000000	65.787	153.5883
104.400002	65.741	153.6662
106.000000	65.681	153.7168
107.500000	65.618	153.7537
109.000000	65.554	153.8340
110.599998	65.495	154.0174
112.000000	65.455	154.2504
113.800003	65.410	154.5733
115.000000	65.382	154.7639
117.199997	65.357	154.9764
118.000000	65.358	155.0021
120.599998	65.317	155.0006
122.000000	65.239	155.0261
124.099998	65.092	155.1160
125.000000	65.033	155.1596
126.500000	64.954	155.2282
128.000000	64.903	155.2869
131.500000	64.803	155.3648
132.000000	64.785	155.3735
134.000000	64.711	155.4423
136.000000	64.649	155.5822
138.000000	64.595	155.7489
140.000000	64.538	155.9072
143.000000	64.462	156.1376
145.000000	64.420	156.2678
147.500000	64.347	156.4054
150.000000	64.262	156.6435
152.500000	64.192	156.9367
155.000000	64.135	157.1373
157.500000	64.083	157.2260
160.000000	64.028	157.2749
162.500000	63.969	157.3748
165.000000	63.914	157.5038
167.500000	63.853	157.6468
170.000000	63.788	157.8744
172.500000	63.731	158.1735
175.000000	63.680	158.4785
177.500000	63.627	158.7470
180.000000	63.572	158.9696
182.500000	63.519	159.1898
185.000000	63.461	159.4253
187.500000	63.398	159.6600
190.000000	63.335	159.9042
192.500000	63.283	160.2003
195.000000	63.244	160.5535
197.500000	63.218	160.9117
200.000000	63.201	161.2147
203.000000	63.184	161.4541
206.000000	63.163	161.6134
209.000000	63.141	161.8338
212.000000	63.123	162.1853
214.000000	63.107	162.4757
218.000000	63.063	163.0462
220.000000	63.037	163.2646
224.000000	62.988	163.5708
227.000000	62.960	163.7803
230.000000	62.939	163.9975
233.000000	62.919	164.2060
236.000000	62.901	164.4542
240.000000	62.871	164.8569
243.000000	62.847	165.1448
247.000000	62.820	165.5002
250.000000	62.808	165.7740
254.000000	62.799	166.1050
258.000000	62.798	166.4057
262.000000	62.795	166.7542
265.000000	62.788	167.0248
269.000000	62.777	167.3132
272.000000	62.772	167.4927
276.000000	62.763	167.7857
280.000000	62.744	168.1348
285.000000	62.723	168.5483
290.000000	62.720	168.9200
295.000000	62.736	169.2214
300.000000	62.748	169.4467
304.000000	62.746	169.6650
307.000000	62.745	169.8586
311.000000	62.749	170.1127
315.000000	62.758	170.3395
320.000000	62.772	170.6020
325.000000	62.781	170.8237
330.000000	62.793	170.9762
335.000000	62.807	171.0879
340.000000	62.810	171.2111
345.000000	62.807	171.3659
350.000000	62.813	171.4983
355.000000	62.827	171.5968
360.000000	62.843	171.7142
365.000000	62.849	171.8344
370.000000	62.841	171.9209
375.000000	62.831	171.9849
382.000000	62.838	172.0548
387.000000	62.853	172.0704
395.000000	62.884	172.0729
400.000000	62.900	172.1088
406.000000	62.905	172.1874
412.000000	62.900	172.2851
418.000000	62.900	172.3947
425.000000	62.899	172.5297
431.000000	62.893	172.6054
437.000000	62.882	172.6057
444.000000	62.866	172.5166
450.000000	62.852	172.4276
455.000000	62.842	172.3911
462.000000	62.835	172.4045
468.000000	62.837	172.4488
475.000000	62.839	172.5245
482.000000	62.835	172.6226
487.000000	62.831	172.7012
494.000000	62.826	172.7977
500.000000	62.818	172.8524
508.000000	62.802	172.9372
515.000000	62.791	173.0633
522.000000	62.789	173.2045
530.000000	62.793	173.3262
538.000000	62.788	173.4005
545.000000	62.776	173.4672
552.000000	62.765	173.5503
560.000000	62.758	173.6394
570.000000	62.759	173.7310
580.000000	62.768	173.8214
590.000000	62.778	173.8895
600.000000	62.790	173.9766
608.000000	62.798	174.0713
615.000000	62.804	174.1626
622.000000	62.808	174.2477
630.000000	62.810	174.3388
640.000000	62.812	174.4417
650.000000	62.815	174.5190
660.000000	62.815	174.5737
670.000000	62.813	174.6006
680.000000	62.811	174.6304
690.000000	62.811	174.7141
700.000000	62.808	174.8780
710.000000	62.804	175.1529
720.000000	62.802	175.5903
730.000000	62.805	176.2032
740.000000	62.811	176.9554
750.000000	62.821	177.8203
762.000000	62.836	178.9904
775.000000	62.855	-179.6537
788.000000	62.871	-178.2976
800.000000	62.879	-177.0218
812.000000	62.885	-175.6925
825.000000	62.902	-174.2520
838.000000	62.925	-172.8503
850.000000	62.951	-171.5861
862.000000	62.983	-170.3109
875.000000	63.017	-168.8556
885.000000	63.042	-167.6897
900.000000	63.081	-165.9319
912.000000	63.116	-164.5238
925.000000	63.156	-162.9632
938.000000	63.199	-161.3831
950.000000	63.243	-159.9521
962.000000	63.294	-158.5415
975.000000	63.356	-156.9836
988.000000	63.419	-155.3895
1000.000000	63.474	-153.9417
1015.000000	63.538	-152.2005
1030.000000	63.602	-150.4853
1044.000000	63.668	-148.8840
1060.000000	63.752	-147.0485
1075.000000	63.834	-145.3084
1090.000000	63.916	-143.5967
1106.000000	64.006	-141.9362
1120.000000	64.084	-140.7047
1138.000000	64.173	-139.4633
1150.000000	64.224	-138.8552
1172.000000	64.318	-138.1013
1180.000000	64.354	-137.8939
1206.000000	64.473	-137.3098
1220.000000	64.535	-137.0485
1241.000000	64.623	-136.7428
1250.000000	64.660	-136.6227
1265.000000	64.723	-136.3982
1280.000000	64.786	-136.1420
1315.000000	64.924	-135.5536
1320.000000	64.943	-135.4726
1340.000000	65.017	-135.1461
1360.000000	65.083	-134.8101
1380.000000	65.142	-134.4592
1400.000000	65.199	-134.1160
1430.000000	65.288	-133.6633
1450.000000	65.349	-133.3649
1475.000000	65.421	-132.9042
1500.000000	65.492	-132.3553
1525.000000	65.566	-131.7885
1550.000000	65.644	-131.2277
1575.000000	65.724	-130.6802
1600.000000	65.807	-130.1522
1625.000000	65.894	-129.6328
1650.000000	65.985	-129.1091
1675.000000	66.076	-128.5846
1700.000000	66.172	-128.0416
1725.000000	66.278	-127.4648
1750.000000	66.392	-126.8709
1775.000000	66.509	-126.2888
1800.000000	66.626	-125.7224
1825.000000	66.747	-125.1561
1850.000000	66.879	-124.6029
1875.000000	67.023	-124.0793
1900.000000	67.178	-123.5748
1925.000000	67.341	-123.0915
1950.000000	67.510	-122.6544
1975.000000	67.681	-122.2778
2000.000000	67.857	-121.9421
2030.000000	68.077	-121.5715
2060.000000	68.310	-121.2592
2090.000000	68.555	-121.0331
2120.000000	68.806	-120.9144
2140.000000	68.976	-120.9009
2180.000000	69.321	-121.0422
2200.000000	69.494	-121.2057
2240.000000	69.841	-121.7061
2270.000000	70.099	-122.2252
2300.000000	70.352	-122.8841
2330.000000	70.598	-123.6873
2360.000000	70.835	-124.6303
2400.000000	71.130	-126.0889
2430.000000	71.337	-127.3093
2470.000000	71.589	-129.0739
2500.000000	71.756	-130.4839
2540.000000	71.949	-132.4492
2580.000000	72.107	-134.4768
2620.000000	72.232	-136.5321
2650.000000	72.307	-138.0695
2690.000000	72.382	-140.0986
2720.000000	72.420	-141.6052
2760.000000	72.448	-143.5805
2800.000000	72.453	-145.4847
2850.000000	72.438	-147.7339
2900.000000	72.400	-149.8394
2950.000000	72.341	-151.8260
3000.000000	72.265	-153.7024
3040.000000	72.194	-155.1202
3070.000000	72.136	-156.1375
3110.000000	72.051	-157.4330
3150.000000	71.959	-158.6563
3200.000000	71.835	-160.0887
3250.000000	71.705	-161.4189
3300.000000	71.570	-162.6479
3350.000000	71.433	-163.7791
3400.000000	71.293	-164.8164
3450.000000	71.155	-165.7667
3500.000000	71.018	-166.6301
3550.000000	70.885	-167.4139
3600.000000	70.756	-168.1343
3650.000000	70.631	-168.8033
3700.000000	70.510	-169.4277
3750.000000	70.394	-170.0163
3820.000000	70.236	-170.7949
3870.000000	70.125	-171.3213
3950.000000	69.952	-172.1149
4000.000000	69.848	-172.5845
4060.000000	69.726	-173.1312
4120.000000	69.605	-173.6737
4180.000000	69.482	-174.2103
4250.000000	69.339	-174.8396
4310.000000	69.218	-175.3969
4370.000000	69.094	-175.9668
4440.000000	68.947	-176.6268
4500.000000	68.816	-177.1695
4550.000000	68.703	-177.5990
4620.000000	68.535	-178.1537
4680.000000	68.383	-178.5775
4750.000000	68.197	-179.0120
4820.000000	68.001	-179.3505
4870.000000	67.858	-179.4950
4940.000000	67.663	-179.5400
5000.000000	67.507	-179.4536
5080.000000	67.318	-179.2249
5150.000000	67.169	-178.9818
5220.000000	67.039	-178.7298
5300.000000	66.912	-178.4546
5380.000000	66.803	-178.2245
5450.000000	66.721	-178.0872
5520.000000	66.648	-178.0212
5600.000000	66.572	-178.0339
5700.000000	66.477	-178.1638
5800.000000	66.366	-178.3819
5900.000000	66.236	-178.6505
6000.000000	66.091	-178.9250
6080.000000	65.973	-179.1237
6150.000000	65.870	-179.2749
6220.000000	65.770	-179.4080
6300.000000	65.657	-179.5583
6400.000000	65.515	-179.7729
6500.000000	65.369	-179.9951
6600.000000	65.214	179.8334
6700.000000	65.048	179.8202
6800.000000	64.873	-179.7727
6900.000000	64.690	-178.3441
7000.000000	64.511	-174.9633
7100.000000	64.346	-169.0347
7200.000000	64.186	-160.8889
7300.000000	64.034	-151.3252
7400.000000	63.905	-140.9673
7500.000000	63.813	-130.1852
7620.000000	63.777	-116.9933
7750.000000	63.877	-102.6921
7880.000000	64.133	-88.9055
8000.000000	64.443	-77.2751
8120.000000	64.702	-67.0883
8250.000000	64.773	-57.4048
8380.000000	64.535	-48.0607
8500.000000	64.058	-38.6349
8620.000000	63.418	-27.7769
8750.000000	62.658	-14.2802
8850.000000	62.084	-2.8958
9000.000000	61.295	15.2668
9120.000000	60.742	30.4060
9250.000000	60.228	47.2208
9380.000000	59.798	64.3430
9500.000000	59.466	80.3698
9620.000000	59.185	96.5784
9750.000000	58.932	114.2825
9880.000000	58.729	132.0371
10000.000000	58.582	148.3821
10150.000000	58.440	168.6992
10300.000000	58.329	-171.1483
10440.000000	58.227	-152.5470
10600.000000	58.074	-131.7175
10750.000000	57.878	-113.0229
10900.000000	57.638	-95.9774
11060.000000	57.320	-80.8735
11200.000000	56.968	-70.6154
11380.000000	56.430	-60.2205
11500.000000	56.035	-54.0635
11720.000000	55.279	-42.8632
11800.000000	55.000	-38.6505
12060.000000	54.098	-24.1854
12200.000000	53.612	-15.7203
12410.000000	52.875	-1.6735
12500.000000	52.572	4.9639
12650.000000	52.139	16.9124
12800.000000	51.877	29.8668
13150.000000	52.425	61.8436
13200.000000	52.652	66.3008
13400.000000	53.862	83.0115
13600.000000	55.407	97.3499
13800.000000	57.119	109.0455
14000.000000	58.893	118.0385
14300.000000	61.506	125.8358
14500.000000	63.065	126.4939
14750.000000	64.516	121.4504
15000.000000	65.079	111.0778
15250.000000	64.558	100.1506
15500.000000	63.048	94.3392
15750.000000	60.878	96.0995
16000.000000	58.456	104.5802
16250.000000	56.159	117.7114
16500.000000	54.294	133.5432
16750.000000	53.059	150.5851
17000.000000	52.508	167.7793
17250.000000	52.613	-175.7888
17500.000000	53.258	-161.2278
17750.000000	54.220	-149.6942
18000.000000	55.218	-142.3572
18250.000000	55.963	-139.7482
18500.000000	56.210	-140.8933
18750.000000	55.828	-143.3530
19000.000000	54.826	-144.4727
19250.000000	53.340	-142.9274
19500.000000	51.590	-139.3088
19750.000000	49.885	-135.4758
