* Measurement data measured by REW V5.20.4
* Source: Microphone (USB Sound Device        ), MICROPHONE (Master Volume), R, volume: 0.750
* Format: 256k Log Swept Sine, 1 sweep at -12.0 dBFS with no timing reference
* Dated: 31-Oct-2023 22:19:49
* REW Settings:
*  C-weighting compensation: Off
*  Target level: 75.0 dB
* Note: 
* Measurement: Simgot EA1000 Red R
* Smoothing: 1/12 octave
* Frequency Step: 1/48 octave
* Start Frequency: 20.300 Hz
*
* Freq(Hz)	SPL(dB)	Phase(degrees)
20.299999	80.934	-151.3966
20.600000	80.942	-151.6107
20.900000	80.960	-152.0648
21.200001	80.981	-152.5682
21.400000	80.996	-152.9101
21.799999	81.031	-153.5981
22.000000	81.049	-153.9394
22.400000	81.088	-154.6109
22.700001	81.117	-155.0953
23.000000	81.144	-155.5559
23.299999	81.169	-155.9938
23.600000	81.193	-156.4156
24.000000	81.220	-156.9678
24.299999	81.236	-157.3842
24.700001	81.254	-157.9464
25.000000	81.265	-158.3688
25.400000	81.278	-158.9222
25.799999	81.292	-159.4535
26.200001	81.307	-159.9574
26.500000	81.319	-160.3177
26.900000	81.334	-160.7782
27.200001	81.344	-161.1143
27.600000	81.355	-161.5611
28.000000	81.361	-162.0201
28.500000	81.362	-162.6190
29.000000	81.360	-163.2243
29.500000	81.361	-163.8004
30.000000	81.373	-164.3301
30.400000	81.389	-164.7271
30.700001	81.403	-165.0136
31.100000	81.420	-165.3833
31.500000	81.433	-165.7441
32.000000	81.444	-166.2087
32.500000	81.451	-166.7265
33.000000	81.451	-167.2925
33.500000	81.451	-167.8376
34.000000	81.462	-168.3033
34.500000	81.491	-168.7408
35.000000	81.527	-169.2679
35.500000	81.539	-169.9216
36.000000	81.505	-170.5683
36.500000	81.438	-171.0228
37.000000	81.377	-171.2313
37.500000	81.352	-171.3266
38.200001	81.372	-171.5921
38.700001	81.393	-171.9283
39.500000	81.400	-172.5141
40.000000	81.392	-172.8589
40.599998	81.379	-173.2910
41.200001	81.365	-173.7595
41.799999	81.353	-174.2231
42.500000	81.342	-174.7105
43.099998	81.333	-175.0820
43.700001	81.321	-175.4314
44.400002	81.305	-175.8485
45.000000	81.291	-176.2396
45.500000	81.278	-176.5830
46.200001	81.258	-177.0476
46.799999	81.238	-177.3972
47.500000	81.214	-177.7599
48.200001	81.193	-178.1303
48.700001	81.180	-178.4200
49.400002	81.167	-178.8454
50.000000	81.161	-179.1979
50.799999	81.160	-179.6262
51.500000	81.159	-179.9624
52.200001	81.152	179.7305
53.000000	81.137	179.3891
53.799999	81.114	179.0370
54.500000	81.087	178.7440
55.200001	81.058	178.4845
56.000000	81.023	178.1967
57.000000	80.979	177.7881
58.000000	80.935	177.3195
59.000000	80.898	176.8030
60.000000	80.862	176.3132
60.799999	80.834	175.9973
61.500000	80.812	175.7687
62.200001	80.792	175.5586
63.000000	80.772	175.3086
64.000000	80.742	174.9387
65.000000	80.701	174.5244
66.000000	80.647	174.1629
67.000000	80.591	173.9004
68.000000	80.538	173.6760
69.000000	80.489	173.4043
70.000000	80.436	173.0616
71.000000	80.372	172.6714
72.000000	80.299	172.2839
73.000000	80.232	171.9391
74.000000	80.187	171.6184
75.000000	80.151	171.3220
76.199997	80.093	171.0693
77.500000	80.004	170.8939
78.800003	79.900	170.6582
80.000000	79.807	170.4483
81.199997	79.731	170.3868
82.500000	79.672	170.4539
83.800003	79.639	170.6604
85.000000	79.618	171.0978
86.199997	79.578	171.8563
87.500000	79.543	172.8112
88.500000	79.553	173.3515
90.000000	79.622	173.6201
91.199997	79.687	173.4260
92.500000	79.738	172.9942
93.800003	79.760	172.5082
95.000000	79.758	172.0558
96.199997	79.742	171.5755
97.500000	79.713	171.0108
98.800003	79.676	170.4468
100.000000	79.640	170.0226
101.500000	79.598	169.6931
103.000000	79.555	169.4923
104.400002	79.513	169.3138
106.000000	79.464	169.0896
107.500000	79.415	168.8819
109.000000	79.359	168.6639
110.599998	79.294	168.3975
112.000000	79.234	168.1672
113.800003	79.160	167.9299
115.000000	79.113	167.8187
117.199997	79.020	167.7167
118.000000	78.985	167.7020
120.599998	78.888	167.5516
122.000000	78.851	167.3610
124.099998	78.797	167.0810
125.000000	78.771	166.9924
126.500000	78.722	166.8827
128.000000	78.670	166.8061
131.500000	78.547	166.7079
132.000000	78.530	166.6996
134.000000	78.462	166.6749
136.000000	78.393	166.6592
138.000000	78.326	166.6405
140.000000	78.264	166.6204
143.000000	78.172	166.6301
145.000000	78.115	166.6772
147.500000	78.049	166.7479
150.000000	77.986	166.8114
152.500000	77.925	166.8576
155.000000	77.863	166.8779
157.500000	77.800	166.8807
160.000000	77.734	166.8828
162.500000	77.666	166.9040
165.000000	77.594	166.9596
167.500000	77.517	167.0653
170.000000	77.437	167.2335
172.500000	77.359	167.4780
175.000000	77.285	167.8115
177.500000	77.225	168.2257
180.000000	77.184	168.6673
182.500000	77.165	169.0425
185.000000	77.158	169.2825
187.500000	77.155	169.3796
190.000000	77.146	169.3696
192.500000	77.127	169.3080
195.000000	77.094	169.2463
197.500000	77.051	169.2106
200.000000	77.003	169.2073
203.000000	76.941	169.2375
206.000000	76.874	169.2808
209.000000	76.803	169.3304
212.000000	76.734	169.4115
214.000000	76.688	169.4882
218.000000	76.601	169.6730
220.000000	76.559	169.7737
224.000000	76.478	169.9902
227.000000	76.420	170.1711
230.000000	76.363	170.3712
233.000000	76.308	170.5822
236.000000	76.255	170.7952
240.000000	76.185	171.0815
243.000000	76.133	171.2998
247.000000	76.065	171.5970
250.000000	76.016	171.8201
254.000000	75.951	172.1144
258.000000	75.889	172.4190
262.000000	75.830	172.7333
265.000000	75.789	172.9689
269.000000	75.734	173.2859
272.000000	75.693	173.5279
276.000000	75.640	173.8562
280.000000	75.587	174.1873
285.000000	75.522	174.6003
290.000000	75.461	175.0257
295.000000	75.401	175.4696
300.000000	75.346	175.9095
304.000000	75.302	176.2516
307.000000	75.267	176.5024
311.000000	75.220	176.8372
315.000000	75.175	177.1841
320.000000	75.123	177.6364
325.000000	75.071	178.0973
330.000000	75.018	178.5536
335.000000	74.966	179.0065
340.000000	74.918	179.4580
345.000000	74.874	179.9017
350.000000	74.830	-179.6632
355.000000	74.786	-179.2384
360.000000	74.743	-178.8169
365.000000	74.702	-178.3824
370.000000	74.660	-177.9282
375.000000	74.619	-177.4634
382.000000	74.564	-176.8111
387.000000	74.528	-176.3443
395.000000	74.473	-175.5979
400.000000	74.442	-175.1415
406.000000	74.405	-174.6064
412.000000	74.370	-174.0781
418.000000	74.336	-173.5485
425.000000	74.300	-172.9240
431.000000	74.271	-172.3833
437.000000	74.244	-171.8363
444.000000	74.214	-171.1906
450.000000	74.191	-170.6492
455.000000	74.173	-170.2137
462.000000	74.147	-169.6070
468.000000	74.127	-169.0741
475.000000	74.104	-168.4408
482.000000	74.082	-167.8072
487.000000	74.064	-167.3634
494.000000	74.040	-166.7566
500.000000	74.020	-166.2385
508.000000	73.997	-165.5301
515.000000	73.978	-164.8952
522.000000	73.960	-164.2585
530.000000	73.941	-163.5361
538.000000	73.925	-162.8272
545.000000	73.913	-162.2198
552.000000	73.902	-161.6163
560.000000	73.889	-160.9263
570.000000	73.871	-160.0658
580.000000	73.857	-159.1977
590.000000	73.845	-158.3313
600.000000	73.837	-157.4753
608.000000	73.834	-156.7902
615.000000	73.836	-156.1908
622.000000	73.840	-155.5956
630.000000	73.846	-154.9243
640.000000	73.853	-154.0957
650.000000	73.859	-153.2686
660.000000	73.867	-152.4324
670.000000	73.875	-151.5891
680.000000	73.885	-150.7464
690.000000	73.898	-149.9058
700.000000	73.913	-149.0627
710.000000	73.928	-148.2203
720.000000	73.944	-147.3820
730.000000	73.960	-146.5455
740.000000	73.979	-145.7055
750.000000	74.001	-144.8640
762.000000	74.030	-143.8622
775.000000	74.065	-142.7826
788.000000	74.103	-141.7021
800.000000	74.139	-140.7083
812.000000	74.179	-139.7266
825.000000	74.228	-138.6863
838.000000	74.280	-137.6582
850.000000	74.330	-136.7056
862.000000	74.381	-135.7550
875.000000	74.441	-134.7401
885.000000	74.489	-133.9776
900.000000	74.561	-132.8694
912.000000	74.616	-132.0006
925.000000	74.676	-131.0389
938.000000	74.744	-130.0216
950.000000	74.825	-129.0630
962.000000	74.921	-128.1631
975.000000	75.029	-127.3003
988.000000	75.132	-126.5279
1000.000000	75.220	-125.8606
1015.000000	75.323	-125.0674
1030.000000	75.425	-124.3033
1044.000000	75.523	-123.6097
1060.000000	75.637	-122.8475
1075.000000	75.746	-122.1616
1090.000000	75.855	-121.5034
1106.000000	75.971	-120.8407
1120.000000	76.074	-120.3009
1138.000000	76.204	-119.6621
1150.000000	76.290	-119.2605
1172.000000	76.443	-118.5468
1180.000000	76.498	-118.2965
1206.000000	76.676	-117.5312
1220.000000	76.769	-117.1405
1241.000000	76.906	-116.5739
1250.000000	76.964	-116.3388
1265.000000	77.057	-115.9565
1280.000000	77.148	-115.5821
1315.000000	77.356	-114.7325
1320.000000	77.385	-114.6163
1340.000000	77.498	-114.1654
1360.000000	77.604	-113.7289
1380.000000	77.704	-113.2955
1400.000000	77.798	-112.8614
1430.000000	77.936	-112.2188
1450.000000	78.027	-111.7995
1475.000000	78.142	-111.2862
1500.000000	78.261	-110.7882
1525.000000	78.391	-110.3028
1550.000000	78.535	-109.8237
1575.000000	78.690	-109.3441
1600.000000	78.851	-108.8650
1625.000000	79.015	-108.3913
1650.000000	79.183	-107.9324
1675.000000	79.357	-107.4973
1700.000000	79.539	-107.0958
1725.000000	79.725	-106.7399
1750.000000	79.915	-106.4302
1775.000000	80.103	-106.1524
1800.000000	80.291	-105.8954
1825.000000	80.478	-105.6567
1850.000000	80.664	-105.4408
1875.000000	80.849	-105.2500
1900.000000	81.032	-105.0834
1925.000000	81.210	-104.9441
1950.000000	81.384	-104.8397
1975.000000	81.555	-104.7768
2000.000000	81.726	-104.7594
2030.000000	81.930	-104.8064
2060.000000	82.137	-104.9409
2090.000000	82.345	-105.1726
2120.000000	82.553	-105.5062
2140.000000	82.690	-105.7865
2180.000000	82.957	-106.4869
2200.000000	83.087	-106.9065
2240.000000	83.333	-107.8725
2270.000000	83.504	-108.6926
2300.000000	83.663	-109.5801
2330.000000	83.808	-110.5231
2360.000000	83.940	-111.5078
2400.000000	84.095	-112.8623
2430.000000	84.197	-113.9001
2470.000000	84.315	-115.3072
2500.000000	84.391	-116.3774
2540.000000	84.474	-117.8188
2580.000000	84.539	-119.2653
2620.000000	84.583	-120.7009
2650.000000	84.602	-121.7622
2690.000000	84.610	-123.1473
2720.000000	84.604	-124.1551
2760.000000	84.578	-125.4451
2800.000000	84.535	-126.6606
2850.000000	84.463	-128.0559
2900.000000	84.377	-129.3021
2950.000000	84.285	-130.4126
3000.000000	84.192	-131.4295
3040.000000	84.117	-132.2083
3070.000000	84.058	-132.7801
3110.000000	83.973	-133.5184
3150.000000	83.878	-134.2073
3200.000000	83.747	-134.9614
3250.000000	83.605	-135.5616
3300.000000	83.458	-135.9805
3350.000000	83.315	-136.2125
3400.000000	83.185	-136.2771
3450.000000	83.079	-136.2135
3500.000000	83.002	-136.0765
3550.000000	82.951	-135.9242
3600.000000	82.917	-135.7977
3650.000000	82.890	-135.7099
3700.000000	82.866	-135.6482
3750.000000	82.842	-135.5901
3820.000000	82.807	-135.4883
3870.000000	82.780	-135.3951
3950.000000	82.741	-135.2075
4000.000000	82.720	-135.0695
4060.000000	82.703	-134.8880
4120.000000	82.695	-134.6989
4180.000000	82.699	-134.5231
4250.000000	82.713	-134.3641
4310.000000	82.729	-134.2789
4370.000000	82.743	-134.2434
4440.000000	82.759	-134.2650
4500.000000	82.775	-134.3403
4550.000000	82.791	-134.4460
4620.000000	82.816	-134.6637
4680.000000	82.841	-134.9191
4750.000000	82.873	-135.3021
4820.000000	82.909	-135.7784
4870.000000	82.937	-136.1738
4940.000000	82.976	-136.8005
5000.000000	83.008	-137.4049
5080.000000	83.044	-138.3132
5150.000000	83.065	-139.2032
5220.000000	83.075	-140.1665
5300.000000	83.069	-141.3308
5380.000000	83.042	-142.5388
5450.000000	83.001	-143.6097
5520.000000	82.944	-144.6713
5600.000000	82.860	-145.8498
5700.000000	82.729	-147.2356
5800.000000	82.573	-148.4859
5900.000000	82.399	-149.5686
6000.000000	82.211	-150.4621
6080.000000	82.056	-151.0289
6150.000000	81.921	-151.4192
6220.000000	81.790	-151.7267
6300.000000	81.647	-152.0026
6400.000000	81.477	-152.2531
6500.000000	81.323	-152.3866
6600.000000	81.189	-152.3993
6700.000000	81.086	-152.3123
6800.000000	81.025	-152.1532
6900.000000	81.014	-151.9582
7000.000000	81.055	-151.7799
7100.000000	81.147	-151.6900
7200.000000	81.290	-151.7800
7300.000000	81.483	-152.1492
7400.000000	81.721	-152.8964
7500.000000	81.993	-154.1234
7620.000000	82.348	-156.3711
7750.000000	82.719	-159.9208
7880.000000	83.007	-164.7198
8000.000000	83.145	-170.1950
8120.000000	83.115	-176.4282
8250.000000	82.860	176.4485
8380.000000	82.366	169.5673
8500.000000	81.719	163.9355
8620.000000	80.925	159.3035
8750.000000	79.955	155.5428
8850.000000	79.167	153.5155
9000.000000	77.975	151.7237
9120.000000	77.047	151.1961
9250.000000	76.092	151.3463
9380.000000	75.204	152.0902
9500.000000	74.450	153.1880
9620.000000	73.759	154.5865
9750.000000	73.079	156.3506
9880.000000	72.467	158.2997
10000.000000	71.959	160.2169
10150.000000	71.396	162.7228
10300.000000	70.904	165.3141
10440.000000	70.500	167.8154
10600.000000	70.098	170.8146
10750.000000	69.781	173.7897
10900.000000	69.529	176.9142
11060.000000	69.341	-179.6162
11200.000000	69.252	-176.5036
11380.000000	69.253	-172.4905
11500.000000	69.332	-169.8571
11720.000000	69.656	-165.2093
11800.000000	69.837	-163.6039
12060.000000	70.707	-158.8954
12200.000000	71.380	-156.8396
12410.000000	72.678	-154.7326
12500.000000	73.335	-154.3188
12650.000000	74.542	-154.5287
12800.000000	75.842	-156.2091
13150.000000	78.777	-168.3456
13200.000000	79.130	-171.2126
13400.000000	80.226	174.4906
13600.000000	80.673	156.9865
13800.000000	80.395	139.4226
14000.000000	79.504	124.9987
14300.000000	77.582	111.5020
14500.000000	76.324	106.6646
14750.000000	75.117	102.9558
15000.000000	74.442	99.9913
15250.000000	74.275	96.3210
15500.000000	74.488	90.7202
15750.000000	74.866	82.1633
16000.000000	75.134	70.2251
16250.000000	75.048	55.6424
16500.000000	74.469	40.3484
16750.000000	73.405	26.5300
17000.000000	71.991	15.4054
17250.000000	70.424	6.8879
17500.000000	68.882	0.1684
17750.000000	67.478	-5.7397
18000.000000	66.236	-11.7292
18250.000000	65.088	-18.3149
18500.000000	63.901	-25.2552
18750.000000	62.539	-31.3029
19000.000000	60.987	-35.0615
19250.000000	59.453	-36.9642
19500.000000	58.229	-39.2017
19750.000000	57.394	-42.5726
