* Measurement data measured by REW V5.20.4
* Source: Microphone (USB Sound Device        ), MICROPHONE (Master Volume), L, volume: 0.750
* Format: 256k Log Swept Sine, 1 sweep at -12.0 dBFS with no timing reference
* Dated: 04-Jun-2023 18:19:32
* REW Settings:
*  C-weighting compensation: Off
*  Target level: 75.0 dB
* Note: 
* Measurement: Soundpeats Engine 4 L
* Smoothing: 1/12 octave
* Frequency Step: 1/48 octave
* Start Frequency: 20.300 Hz
*
* Freq(Hz)	SPL(dB)	Phase(degrees)
20.299999	76.886	156.4497
20.600000	76.890	157.0092
20.900000	76.902	158.1648
21.200001	76.924	159.3464
21.400000	76.945	160.0727
21.799999	76.997	161.3683
22.000000	77.028	161.9510
22.400000	77.095	163.0552
22.700001	77.155	163.8710
23.000000	77.226	164.6887
23.299999	77.309	165.4888
23.600000	77.405	166.2435
24.000000	77.547	167.1374
24.299999	77.657	167.7080
24.700001	77.802	168.3462
25.000000	77.907	168.7536
25.400000	78.040	169.2276
25.799999	78.163	169.6350
26.200001	78.276	169.9716
26.500000	78.355	170.1710
26.900000	78.454	170.3583
27.200001	78.528	170.4334
27.600000	78.630	170.4377
28.000000	78.741	170.3292
28.500000	78.887	170.0664
29.000000	79.029	169.7563
29.500000	79.150	169.4998
30.000000	79.243	169.3194
30.400000	79.302	169.1685
30.700001	79.343	169.0018
31.100000	79.400	168.6445
31.500000	79.475	168.0930
32.000000	79.604	167.1306
32.500000	79.768	165.9698
33.000000	79.936	164.8370
33.500000	80.068	163.9875
34.000000	80.141	163.6036
34.500000	80.156	163.6597
35.000000	80.134	163.9299
35.500000	80.098	164.0974
36.000000	80.066	163.9575
36.500000	80.048	163.5002
37.000000	80.049	162.8612
37.500000	80.067	162.1936
38.200001	80.106	161.3692
38.700001	80.128	160.8632
39.500000	80.137	160.0851
40.000000	80.132	159.5647
40.599998	80.125	158.8954
41.200001	80.119	158.2174
41.799999	80.115	157.5779
42.500000	80.109	156.8869
43.099998	80.102	156.2990
43.700001	80.090	155.6884
44.400002	80.068	154.9725
45.000000	80.045	154.3897
45.500000	80.024	153.9265
46.200001	79.992	153.2850
46.799999	79.962	152.7248
47.500000	79.923	152.0712
48.200001	79.885	151.4424
48.700001	79.858	151.0120
49.400002	79.819	150.4230
50.000000	79.782	149.9166
50.799999	79.726	149.2335
51.500000	79.673	148.6377
52.200001	79.620	148.0536
53.000000	79.559	147.4078
53.799999	79.497	146.7900
54.500000	79.440	146.2708
55.200001	79.382	145.7681
56.000000	79.316	145.2121
57.000000	79.234	144.5423
58.000000	79.152	143.8916
59.000000	79.068	143.2544
60.000000	78.980	142.6348
60.799999	78.907	142.1533
61.500000	78.840	141.7354
62.200001	78.772	141.3162
63.000000	78.691	140.8469
64.000000	78.588	140.3029
65.000000	78.488	139.8058
66.000000	78.387	139.3338
67.000000	78.283	138.8787
68.000000	78.180	138.4295
69.000000	78.080	137.9713
70.000000	77.982	137.5048
71.000000	77.883	137.0517
72.000000	77.781	136.6391
73.000000	77.679	136.2704
74.000000	77.578	135.9255
75.000000	77.475	135.5826
76.199997	77.347	135.1617
77.500000	77.204	134.7157
78.800003	77.065	134.3228
80.000000	76.940	134.0161
81.199997	76.817	133.7343
82.500000	76.687	133.4266
83.800003	76.556	133.1215
85.000000	76.434	132.8533
86.199997	76.311	132.5972
87.500000	76.179	132.3311
88.500000	76.079	132.1391
90.000000	75.930	131.8895
91.199997	75.811	131.7295
92.500000	75.684	131.5906
93.800003	75.560	131.4770
95.000000	75.448	131.3785
96.199997	75.336	131.2715
97.500000	75.213	131.1563
98.800003	75.093	131.0581
100.000000	74.983	130.9712
101.500000	74.837	130.8804
103.000000	74.676	130.8679
104.400002	74.526	130.8997
106.000000	74.369	130.8910
107.500000	74.228	130.8604
109.000000	74.083	130.8664
110.599998	73.929	130.8941
112.000000	73.802	130.9260
113.800003	73.662	130.9157
115.000000	73.591	130.7896
117.199997	73.527	130.1276
118.000000	73.521	129.7917
120.599998	73.399	129.5148
122.000000	73.216	130.1876
124.099998	72.910	131.3238
125.000000	72.799	131.6698
126.500000	72.647	132.0873
128.000000	72.516	132.4085
131.500000	72.211	133.0975
132.000000	72.166	133.1936
134.000000	71.988	133.5818
136.000000	71.822	133.9939
138.000000	71.681	134.4135
140.000000	71.560	134.7919
143.000000	71.397	135.3001
145.000000	71.279	135.7160
147.500000	71.112	136.3733
150.000000	70.950	137.0588
152.500000	70.794	137.7590
155.000000	70.630	138.4535
157.500000	70.465	139.1166
160.000000	70.296	139.8246
162.500000	70.124	140.6767
165.000000	69.956	141.6758
167.500000	69.791	142.8277
170.000000	69.629	144.2242
172.500000	69.488	145.9666
175.000000	69.417	148.0748
177.500000	69.465	150.3077
180.000000	69.630	152.1251
182.500000	69.848	153.0913
185.000000	70.042	153.2021
187.500000	70.160	152.7645
190.000000	70.183	152.1546
192.500000	70.136	151.6450
195.000000	70.058	151.3564
197.500000	69.969	151.2940
200.000000	69.876	151.3954
203.000000	69.765	151.6377
206.000000	69.660	151.9659
209.000000	69.570	152.3846
212.000000	69.496	152.8784
214.000000	69.454	153.2311
218.000000	69.385	153.9247
220.000000	69.352	154.2381
224.000000	69.287	154.8422
227.000000	69.242	155.3597
230.000000	69.204	155.9209
233.000000	69.167	156.4863
236.000000	69.130	157.0530
240.000000	69.083	157.8086
243.000000	69.049	158.3591
247.000000	69.003	159.0421
250.000000	68.971	159.5021
254.000000	68.939	160.0647
258.000000	68.912	160.6045
262.000000	68.888	161.1490
265.000000	68.871	161.5772
269.000000	68.850	162.1918
272.000000	68.836	162.6711
276.000000	68.818	163.2869
280.000000	68.803	163.8425
285.000000	68.787	164.4627
290.000000	68.770	165.0421
295.000000	68.753	165.6165
300.000000	68.739	166.1702
304.000000	68.730	166.5907
307.000000	68.723	166.9178
311.000000	68.712	167.3848
315.000000	68.701	167.8720
320.000000	68.691	168.4669
325.000000	68.684	169.0006
330.000000	68.676	169.5043
335.000000	68.666	170.0227
340.000000	68.654	170.5467
345.000000	68.641	171.0841
350.000000	68.635	171.6346
355.000000	68.637	172.1944
360.000000	68.644	172.7692
365.000000	68.658	173.3564
370.000000	68.680	173.9507
375.000000	68.710	174.5251
382.000000	68.764	175.1816
387.000000	68.808	175.5189
395.000000	68.874	175.9385
400.000000	68.909	176.1673
406.000000	68.949	176.4260
412.000000	68.991	176.6631
418.000000	69.032	176.8733
425.000000	69.077	177.1042
431.000000	69.115	177.2998
437.000000	69.154	177.4811
444.000000	69.197	177.6497
450.000000	69.229	177.7508
455.000000	69.252	177.8119
462.000000	69.280	177.8721
468.000000	69.304	177.9021
475.000000	69.332	177.9115
482.000000	69.357	177.9111
487.000000	69.372	177.9124
494.000000	69.385	177.9096
500.000000	69.392	177.9007
508.000000	69.402	177.8910
515.000000	69.408	177.8820
522.000000	69.409	177.8556
530.000000	69.405	177.8113
538.000000	69.397	177.7893
545.000000	69.385	177.7894
552.000000	69.368	177.7816
560.000000	69.349	177.7544
570.000000	69.321	177.7306
580.000000	69.286	177.7433
590.000000	69.244	177.7906
600.000000	69.200	177.8886
608.000000	69.167	177.9941
615.000000	69.141	178.0906
622.000000	69.116	178.1871
630.000000	69.087	178.3144
640.000000	69.046	178.5231
650.000000	69.000	178.7691
660.000000	68.954	179.0321
670.000000	68.907	179.3209
680.000000	68.859	179.6483
690.000000	68.816	-179.9851
700.000000	68.781	-179.5820
710.000000	68.745	-179.1471
720.000000	68.709	-178.6807
730.000000	68.678	-178.1835
740.000000	68.655	-177.6798
750.000000	68.635	-177.1948
762.000000	68.609	-176.6120
775.000000	68.580	-175.9281
788.000000	68.560	-175.2023
800.000000	68.553	-174.5207
812.000000	68.556	-173.8382
825.000000	68.566	-173.1038
838.000000	68.580	-172.3676
850.000000	68.594	-171.6810
862.000000	68.611	-170.9971
875.000000	68.633	-170.2690
885.000000	68.653	-169.7183
900.000000	68.692	-168.9182
912.000000	68.732	-168.3086
925.000000	68.781	-167.6748
938.000000	68.834	-167.0517
950.000000	68.887	-166.4795
962.000000	68.945	-165.9247
975.000000	69.008	-165.3670
988.000000	69.071	-164.8607
1000.000000	69.132	-164.4189
1015.000000	69.218	-163.8788
1030.000000	69.310	-163.3735
1044.000000	69.396	-162.9599
1060.000000	69.496	-162.5508
1075.000000	69.592	-162.2050
1090.000000	69.687	-161.8972
1106.000000	69.790	-161.6195
1120.000000	69.882	-161.4132
1138.000000	70.000	-161.1935
1150.000000	70.076	-161.0743
1172.000000	70.215	-160.9001
1180.000000	70.265	-160.8494
1206.000000	70.425	-160.7400
1220.000000	70.512	-160.7058
1241.000000	70.639	-160.6534
1250.000000	70.693	-160.6277
1265.000000	70.781	-160.5910
1280.000000	70.867	-160.5805
1315.000000	71.062	-160.6493
1320.000000	71.089	-160.6622
1340.000000	71.195	-160.7158
1360.000000	71.293	-160.7791
1380.000000	71.383	-160.8599
1400.000000	71.470	-160.9600
1430.000000	71.596	-161.1257
1450.000000	71.679	-161.2332
1475.000000	71.786	-161.3727
1500.000000	71.898	-161.5404
1525.000000	72.019	-161.7497
1550.000000	72.151	-161.9812
1575.000000	72.294	-162.2185
1600.000000	72.445	-162.4700
1625.000000	72.597	-162.7419
1650.000000	72.750	-163.0381
1675.000000	72.905	-163.3654
1700.000000	73.061	-163.7240
1725.000000	73.219	-164.1097
1750.000000	73.379	-164.5168
1775.000000	73.540	-164.9441
1800.000000	73.702	-165.4000
1825.000000	73.864	-165.8845
1850.000000	74.023	-166.4032
1875.000000	74.178	-166.9684
1900.000000	74.326	-167.5727
1925.000000	74.464	-168.2038
1950.000000	74.591	-168.8620
1975.000000	74.707	-169.5544
2000.000000	74.818	-170.2790
2030.000000	74.943	-171.1765
2060.000000	75.062	-172.0984
2090.000000	75.175	-173.0494
2120.000000	75.283	-174.0417
2140.000000	75.352	-174.7275
2180.000000	75.484	-176.1382
2200.000000	75.546	-176.8582
2240.000000	75.661	-178.3241
2270.000000	75.739	-179.4411
2300.000000	75.812	179.4346
2330.000000	75.880	178.3128
2360.000000	75.942	177.1977
2400.000000	76.018	175.6994
2430.000000	76.070	174.5488
2470.000000	76.125	172.9863
2500.000000	76.157	171.8143
2540.000000	76.187	170.2711
2580.000000	76.206	168.7651
2620.000000	76.215	167.3102
2650.000000	76.216	166.2589
2690.000000	76.212	164.9151
2720.000000	76.206	163.9453
2760.000000	76.196	162.6855
2800.000000	76.182	161.4420
2850.000000	76.160	159.8959
2900.000000	76.135	158.3582
2950.000000	76.108	156.8397
3000.000000	76.076	155.3580
3040.000000	76.048	154.1940
3070.000000	76.026	153.3262
3110.000000	75.998	152.1697
3150.000000	75.972	151.0069
3200.000000	75.940	149.5290
3250.000000	75.906	148.0068
3300.000000	75.866	146.4296
3350.000000	75.822	144.7957
3400.000000	75.771	143.0942
3450.000000	75.714	141.3209
3500.000000	75.643	139.4848
3550.000000	75.553	137.5923
3600.000000	75.435	135.6581
3650.000000	75.285	133.7126
3700.000000	75.098	131.7954
3750.000000	74.874	129.9536
3820.000000	74.497	127.6076
3870.000000	74.183	126.1743
3950.000000	73.613	124.4284
4000.000000	73.228	123.7220
4060.000000	72.751	123.2845
4120.000000	72.276	123.2807
4180.000000	71.815	123.6760
4250.000000	71.311	124.5851
4310.000000	70.912	125.6729
4370.000000	70.542	126.9529
4440.000000	70.146	128.5938
4500.000000	69.835	130.0934
4550.000000	69.592	131.4045
4620.000000	69.277	133.3257
4680.000000	69.030	135.0288
4750.000000	68.770	137.0513
4820.000000	68.541	139.1220
4870.000000	68.398	140.6394
4940.000000	68.226	142.8173
5000.000000	68.103	144.7327
5080.000000	67.971	147.3419
5150.000000	67.884	149.6581
5220.000000	67.822	151.9868
5300.000000	67.780	154.6530
5380.000000	67.770	157.3091
5450.000000	67.787	159.6017
5520.000000	67.829	161.8493
5600.000000	67.906	164.3589
5700.000000	68.037	167.4266
5800.000000	68.202	170.4256
5900.000000	68.408	173.3468
6000.000000	68.657	176.1601
6080.000000	68.880	178.3111
6150.000000	69.092	-179.8796
6220.000000	69.322	-178.1353
6300.000000	69.608	-176.2258
6400.000000	70.002	-174.0050
6500.000000	70.439	-172.0235
6600.000000	70.924	-170.3104
6700.000000	71.464	-168.9101
6800.000000	72.065	-167.9141
6900.000000	72.722	-167.4456
7000.000000	73.415	-167.6266
7100.000000	74.116	-168.5727
7200.000000	74.797	-170.3769
7300.000000	75.420	-173.0863
7400.000000	75.952	-176.6631
7500.000000	76.362	179.0486
7620.000000	76.668	173.3344
7750.000000	76.766	167.0257
7880.000000	76.651	161.1438
8000.000000	76.405	156.3529
8120.000000	76.078	152.1973
8250.000000	75.673	148.2782
8380.000000	75.235	144.7661
8500.000000	74.801	141.7397
8620.000000	74.329	138.8514
8750.000000	73.759	135.8795
8850.000000	73.273	133.7576
9000.000000	72.460	131.0168
9120.000000	71.740	129.3574
9250.000000	70.901	128.2023
9380.000000	70.020	127.7526
9500.000000	69.191	127.9638
9620.000000	68.365	128.7623
9750.000000	67.489	130.2495
9880.000000	66.642	132.3023
10000.000000	65.894	134.5939
10150.000000	65.011	137.8481
10300.000000	64.189	141.4574
10440.000000	63.478	145.1183
10600.000000	62.731	149.6193
10750.000000	62.096	154.1031
10900.000000	61.524	158.7618
11060.000000	60.976	163.8380
11200.000000	60.540	168.3222
11380.000000	60.040	174.1330
11500.000000	59.741	178.0436
11720.000000	59.259	-174.7027
11800.000000	59.106	-172.0367
12060.000000	58.696	-163.3020
12200.000000	58.543	-158.5925
12410.000000	58.418	-151.5646
12500.000000	58.399	-148.5708
12650.000000	58.408	-143.5958
12800.000000	58.467	-138.6373
13150.000000	58.797	-127.2910
13200.000000	58.868	-125.7268
13400.000000	59.222	-119.6946
13600.000000	59.715	-114.0764
13800.000000	60.369	-108.9376
14000.000000	61.200	-104.4160
14300.000000	62.739	-99.4151
14500.000000	63.898	-97.8725
14750.000000	65.353	-98.8047
15000.000000	66.637	-103.4435
15250.000000	67.599	-111.5979
15500.000000	68.138	-122.4345
15750.000000	68.159	-134.5765
16000.000000	67.622	-146.0207
16250.000000	66.625	-155.0251
16500.000000	65.348	-161.1347
16750.000000	63.933	-164.7138
17000.000000	62.478	-166.1754
17250.000000	61.074	-165.9180
17500.000000	59.796	-164.4428
17750.000000	58.680	-162.2483
18000.000000	57.737	-159.5956
18250.000000	56.955	-156.6641
18500.000000	56.320	-153.6242
18750.000000	55.837	-150.5754
19000.000000	55.515	-147.7014
19250.000000	55.346	-145.3769
19500.000000	55.328	-143.8439
19750.000000	55.434	-142.9454
