* Measurement data measured by REW V5.20.4
* Source: Microphone (USB Sound Device        ), MICROPHONE (Master Volume), R, volume: 0.750
* Format: 256k Log Swept Sine, 1 sweep at -12.0 dBFS with no timing reference
* Dated: 07-Oct-2023 19:54:10
* REW Settings:
*  C-weighting compensation: Off
*  Target level: 75.0 dB
* Note: 
* Measurement: Truthear Nova R
* Smoothing: 1/12 octave
* Frequency Step: 1/48 octave
* Start Frequency: 20.300 Hz
*
* Freq(Hz)	SPL(dB)	Phase(degrees)
20.299999	76.597	169.0392
20.600000	76.583	168.8179
20.900000	76.549	168.3627
21.200001	76.516	167.9012
21.400000	76.497	167.6136
21.799999	76.469	167.0762
22.000000	76.458	166.8194
22.400000	76.438	166.3174
22.700001	76.419	165.9709
23.000000	76.395	165.6863
23.299999	76.366	165.4911
23.600000	76.338	165.3861
24.000000	76.309	165.3419
24.299999	76.297	165.3086
24.700001	76.287	165.1614
25.000000	76.276	164.9309
25.400000	76.244	164.4753
25.799999	76.183	163.9467
26.200001	76.102	163.4664
26.500000	76.038	163.1794
26.900000	75.963	162.8853
27.200001	75.920	162.6904
27.600000	75.880	162.4021
28.000000	75.848	162.0429
28.500000	75.801	161.5281
29.000000	75.738	161.0499
29.500000	75.667	160.6768
30.000000	75.603	160.3761
30.400000	75.562	160.1310
30.700001	75.536	159.9254
31.100000	75.505	159.6239
31.500000	75.476	159.3102
32.000000	75.441	158.9320
32.500000	75.404	158.5775
33.000000	75.361	158.2348
33.500000	75.306	157.9045
34.000000	75.242	157.6022
34.500000	75.178	157.3217
35.000000	75.125	157.0257
35.500000	75.086	156.6883
36.000000	75.053	156.3450
36.500000	75.024	156.0681
37.000000	74.997	155.8924
37.500000	74.972	155.7709
38.200001	74.923	155.5464
38.700001	74.864	155.3233
39.500000	74.738	154.9886
40.000000	74.662	154.8219
40.599998	74.591	154.6092
41.200001	74.536	154.3352
41.799999	74.488	154.0238
42.500000	74.431	153.6655
43.099998	74.382	153.3649
43.700001	74.328	153.0659
44.400002	74.252	152.7605
45.000000	74.180	152.5829
45.500000	74.122	152.4944
46.200001	74.052	152.3980
46.799999	74.007	152.2583
47.500000	73.965	151.9633
48.200001	73.918	151.5579
48.700001	73.877	151.2632
49.400002	73.808	150.9346
50.000000	73.744	150.7583
50.799999	73.663	150.6139
51.500000	73.595	150.4904
52.200001	73.525	150.3469
53.000000	73.442	150.1923
53.799999	73.360	150.0631
54.500000	73.292	149.9454
55.200001	73.228	149.7988
56.000000	73.156	149.6034
57.000000	73.066	149.3847
58.000000	72.972	149.2444
59.000000	72.875	149.1397
60.000000	72.782	149.0009
60.799999	72.715	148.8581
61.500000	72.662	148.7291
62.200001	72.612	148.6122
63.000000	72.555	148.4990
64.000000	72.479	148.3744
65.000000	72.395	148.2423
66.000000	72.301	148.1044
67.000000	72.204	147.9870
68.000000	72.113	147.8902
69.000000	72.029	147.8028
70.000000	71.947	147.7315
71.000000	71.867	147.6745
72.000000	71.791	147.6159
73.000000	71.719	147.5573
74.000000	71.647	147.5151
75.000000	71.572	147.4869
76.199997	71.481	147.4521
77.500000	71.385	147.4213
78.800003	71.297	147.4053
80.000000	71.218	147.4064
81.199997	71.132	147.4286
82.500000	71.032	147.4591
83.800003	70.936	147.4784
85.000000	70.854	147.5048
86.199997	70.774	147.5486
87.500000	70.684	147.5845
88.500000	70.614	147.5828
90.000000	70.510	147.5600
91.199997	70.430	147.5685
92.500000	70.348	147.6183
93.800003	70.272	147.7076
95.000000	70.204	147.8197
96.199997	70.133	147.9353
97.500000	70.051	148.0358
98.800003	69.968	148.1166
100.000000	69.893	148.1959
101.500000	69.802	148.3236
103.000000	69.712	148.5051
104.400002	69.628	148.7219
106.000000	69.528	148.9681
107.500000	69.437	149.1421
109.000000	69.348	149.2650
110.599998	69.260	149.3803
112.000000	69.194	149.4792
113.800003	69.120	149.5690
115.000000	69.078	149.6010
117.199997	69.026	149.6031
118.000000	69.014	149.5967
120.599998	68.918	149.9056
122.000000	68.799	150.3557
124.099998	68.606	151.0117
125.000000	68.538	151.2281
126.500000	68.446	151.5354
128.000000	68.374	151.8190
131.500000	68.247	152.4435
132.000000	68.231	152.5275
134.000000	68.156	152.8477
136.000000	68.055	153.1541
138.000000	67.945	153.4501
140.000000	67.849	153.7496
143.000000	67.729	154.2776
145.000000	67.651	154.6336
147.500000	67.551	155.0557
150.000000	67.458	155.4985
152.500000	67.368	155.9496
155.000000	67.275	156.4021
157.500000	67.183	156.8703
160.000000	67.092	157.4267
162.500000	66.999	158.1236
165.000000	66.905	158.8563
167.500000	66.822	159.5257
170.000000	66.753	160.1562
172.500000	66.690	160.7990
175.000000	66.637	161.4911
177.500000	66.600	162.2095
180.000000	66.566	162.9065
182.500000	66.521	163.5545
185.000000	66.471	164.1551
187.500000	66.438	164.7670
190.000000	66.429	165.3931
192.500000	66.435	165.9142
195.000000	66.436	166.2983
197.500000	66.423	166.6522
200.000000	66.395	167.0115
203.000000	66.345	167.3672
206.000000	66.290	167.6518
209.000000	66.242	167.9732
212.000000	66.197	168.3748
214.000000	66.166	168.6805
218.000000	66.094	169.3887
220.000000	66.054	169.8013
224.000000	65.983	170.6872
227.000000	65.947	171.3255
230.000000	65.929	171.9162
233.000000	65.922	172.4601
236.000000	65.923	172.9636
240.000000	65.931	173.5756
243.000000	65.933	173.9808
247.000000	65.920	174.4827
250.000000	65.898	174.8614
254.000000	65.860	175.3653
258.000000	65.824	175.8824
262.000000	65.798	176.4436
265.000000	65.783	176.8897
269.000000	65.766	177.4839
272.000000	65.752	177.9035
276.000000	65.734	178.4447
280.000000	65.719	179.0184
285.000000	65.702	179.7789
290.000000	65.694	-179.5235
295.000000	65.689	-178.9076
300.000000	65.681	-178.2887
304.000000	65.672	-177.7624
307.000000	65.666	-177.3622
311.000000	65.658	-176.8465
315.000000	65.653	-176.3522
320.000000	65.651	-175.7332
325.000000	65.651	-175.1089
330.000000	65.651	-174.5154
335.000000	65.647	-173.9628
340.000000	65.640	-173.4366
345.000000	65.637	-172.9169
350.000000	65.642	-172.3799
355.000000	65.654	-171.8292
360.000000	65.667	-171.2893
365.000000	65.673	-170.7772
370.000000	65.673	-170.2885
375.000000	65.670	-169.8134
382.000000	65.671	-169.1608
387.000000	65.674	-168.6865
395.000000	65.681	-167.9024
400.000000	65.689	-167.4145
406.000000	65.704	-166.8395
412.000000	65.725	-166.2678
418.000000	65.748	-165.6969
425.000000	65.775	-165.0753
431.000000	65.792	-164.5925
437.000000	65.806	-164.1314
444.000000	65.823	-163.6324
450.000000	65.842	-163.2550
455.000000	65.859	-162.9585
462.000000	65.882	-162.5300
468.000000	65.900	-162.1277
475.000000	65.915	-161.6375
482.000000	65.924	-161.1557
487.000000	65.930	-160.8228
494.000000	65.942	-160.3648
500.000000	65.955	-159.9594
508.000000	65.975	-159.3956
515.000000	65.991	-158.8979
522.000000	66.004	-158.4091
530.000000	66.014	-157.8743
538.000000	66.022	-157.3631
545.000000	66.031	-156.9208
552.000000	66.045	-156.4853
560.000000	66.063	-156.0021
570.000000	66.084	-155.4125
580.000000	66.097	-154.8029
590.000000	66.103	-154.1628
600.000000	66.115	-153.5172
608.000000	66.134	-152.9980
615.000000	66.154	-152.5387
622.000000	66.172	-152.0881
630.000000	66.189	-151.5923
640.000000	66.204	-150.9798
650.000000	66.217	-150.3516
660.000000	66.234	-149.7180
670.000000	66.258	-149.0981
680.000000	66.284	-148.4798
690.000000	66.308	-147.8466
700.000000	66.331	-147.1983
710.000000	66.356	-146.5322
720.000000	66.382	-145.8642
730.000000	66.411	-145.2144
740.000000	66.440	-144.5706
750.000000	66.468	-143.9152
762.000000	66.503	-143.1126
775.000000	66.545	-142.2342
788.000000	66.591	-141.3377
800.000000	66.631	-140.5255
812.000000	66.669	-139.7266
825.000000	66.717	-138.8509
838.000000	66.776	-137.9795
850.000000	66.832	-137.1772
862.000000	66.890	-136.3858
875.000000	66.954	-135.5541
885.000000	67.005	-134.9366
900.000000	67.086	-134.0447
912.000000	67.155	-133.3426
925.000000	67.233	-132.5825
938.000000	67.313	-131.8308
950.000000	67.390	-131.1492
962.000000	67.471	-130.4906
975.000000	67.563	-129.8256
988.000000	67.657	-129.2158
1000.000000	67.743	-128.6896
1015.000000	67.847	-128.0644
1030.000000	67.944	-127.4746
1044.000000	68.036	-126.9571
1060.000000	68.146	-126.4071
1075.000000	68.254	-125.9432
1090.000000	68.363	-125.5230
1106.000000	68.481	-125.1096
1120.000000	68.580	-124.7846
1138.000000	68.700	-124.4298
1150.000000	68.775	-124.2254
1172.000000	68.908	-123.8922
1180.000000	68.954	-123.7811
1206.000000	69.103	-123.4412
1220.000000	69.181	-123.2700
1241.000000	69.294	-123.0319
1250.000000	69.340	-122.9385
1265.000000	69.415	-122.7946
1280.000000	69.486	-122.6606
1315.000000	69.630	-122.3218
1320.000000	69.649	-122.2660
1340.000000	69.718	-122.0373
1360.000000	69.781	-121.8153
1380.000000	69.839	-121.5978
1400.000000	69.891	-121.3653
1430.000000	69.959	-120.9620
1450.000000	70.002	-120.6589
1475.000000	70.060	-120.2929
1500.000000	70.125	-119.9518
1525.000000	70.196	-119.5933
1550.000000	70.281	-119.1869
1575.000000	70.378	-118.7670
1600.000000	70.483	-118.3647
1625.000000	70.588	-117.9715
1650.000000	70.695	-117.5683
1675.000000	70.809	-117.1533
1700.000000	70.930	-116.7283
1725.000000	71.055	-116.3016
1750.000000	71.183	-115.8947
1775.000000	71.312	-115.5015
1800.000000	71.444	-115.1039
1825.000000	71.577	-114.7154
1850.000000	71.713	-114.3494
1875.000000	71.850	-113.9988
1900.000000	71.984	-113.6629
1925.000000	72.111	-113.3462
1950.000000	72.232	-113.0430
1975.000000	72.350	-112.7479
2000.000000	72.469	-112.4707
2030.000000	72.613	-112.1802
2060.000000	72.759	-111.9348
2090.000000	72.907	-111.7216
2120.000000	73.060	-111.5299
2140.000000	73.164	-111.4197
2180.000000	73.375	-111.2719
2200.000000	73.482	-111.2390
2240.000000	73.702	-111.2436
2270.000000	73.869	-111.3056
2300.000000	74.040	-111.4219
2330.000000	74.212	-111.5923
2360.000000	74.385	-111.8165
2400.000000	74.613	-112.2035
2430.000000	74.782	-112.5632
2470.000000	75.003	-113.1366
2500.000000	75.167	-113.6396
2540.000000	75.381	-114.4136
2580.000000	75.585	-115.3080
2620.000000	75.778	-116.3202
2650.000000	75.915	-117.1500
2690.000000	76.086	-118.3364
2720.000000	76.206	-119.2806
2760.000000	76.351	-120.6150
2800.000000	76.478	-122.0314
2850.000000	76.606	-123.8981
2900.000000	76.702	-125.8424
2950.000000	76.763	-127.8158
3000.000000	76.788	-129.7670
3040.000000	76.785	-131.2920
3070.000000	76.773	-132.4067
3110.000000	76.744	-133.8461
3150.000000	76.703	-135.2253
3200.000000	76.636	-136.8603
3250.000000	76.552	-138.4087
3300.000000	76.454	-139.8849
3350.000000	76.342	-141.2813
3400.000000	76.221	-142.5726
3450.000000	76.096	-143.7337
3500.000000	75.971	-144.7604
3550.000000	75.845	-145.6624
3600.000000	75.720	-146.4464
3650.000000	75.597	-147.1110
3700.000000	75.476	-147.6686
3750.000000	75.359	-148.1426
3820.000000	75.198	-148.6783
3870.000000	75.086	-148.9734
3950.000000	74.911	-149.3423
4000.000000	74.808	-149.5231
4060.000000	74.695	-149.6902
4120.000000	74.593	-149.8116
4180.000000	74.503	-149.9129
4250.000000	74.412	-150.0380
4310.000000	74.342	-150.1675
4370.000000	74.275	-150.3306
4440.000000	74.199	-150.5890
4500.000000	74.137	-150.8875
4550.000000	74.087	-151.2001
4620.000000	74.018	-151.7432
4680.000000	73.957	-152.3052
4750.000000	73.879	-153.0585
4820.000000	73.790	-153.8902
4870.000000	73.720	-154.5193
4940.000000	73.608	-155.4363
5000.000000	73.497	-156.2364
5080.000000	73.328	-157.2814
5150.000000	73.160	-158.1428
5220.000000	72.974	-158.9216
5300.000000	72.743	-159.6809
5380.000000	72.497	-160.2856
5450.000000	72.273	-160.6721
5520.000000	72.044	-160.9131
5600.000000	71.780	-161.0021
5700.000000	71.455	-160.8251
5800.000000	71.147	-160.3634
5900.000000	70.868	-159.6899
6000.000000	70.621	-158.8618
6080.000000	70.447	-158.1241
6150.000000	70.313	-157.4597
6220.000000	70.194	-156.8081
6300.000000	70.076	-156.0966
6400.000000	69.949	-155.2648
6500.000000	69.842	-154.5029
6600.000000	69.753	-153.8273
6700.000000	69.677	-153.2529
6800.000000	69.611	-152.7585
6900.000000	69.556	-152.3140
7000.000000	69.505	-151.9197
7100.000000	69.443	-151.5510
7200.000000	69.361	-151.0857
7300.000000	69.278	-150.3423
7400.000000	69.233	-149.3165
7500.000000	69.245	-148.2076
7620.000000	69.327	-146.9509
7750.000000	69.479	-145.7289
7880.000000	69.679	-144.7089
8000.000000	69.906	-144.0084
8120.000000	70.185	-143.4729
8250.000000	70.602	-142.8292
8380.000000	71.272	-142.2159
8500.000000	72.116	-143.0910
8620.000000	72.879	-146.9907
8750.000000	73.350	-153.8839
8850.000000	73.470	-159.8080
9000.000000	73.352	-168.5249
9120.000000	73.046	-174.9395
9250.000000	72.538	178.9955
9380.000000	71.893	174.0760
9500.000000	71.225	170.6143
9620.000000	70.530	168.1200
9750.000000	69.791	166.3428
9880.000000	69.103	165.3073
10000.000000	68.534	164.8183
10150.000000	67.925	164.5901
10300.000000	67.433	164.5298
10440.000000	67.071	164.4239
10600.000000	66.748	164.0177
10750.000000	66.505	163.1771
10900.000000	66.284	161.7916
11060.000000	66.032	159.7367
11200.000000	65.762	157.5655
11380.000000	65.316	154.5036
11500.000000	64.948	152.4632
11720.000000	64.145	149.1741
11800.000000	63.823	148.2077
12060.000000	62.738	146.0176
12200.000000	62.169	145.3711
12410.000000	61.373	144.9016
12500.000000	61.053	144.8422
12650.000000	60.543	144.9030
12800.000000	60.056	145.1449
13150.000000	58.994	146.3077
13200.000000	58.851	146.5294
13400.000000	58.313	147.5116
13600.000000	57.839	148.6274
13800.000000	57.443	149.8495
14000.000000	57.142	151.1810
14300.000000	56.857	153.4976
14500.000000	56.774	155.1233
14750.000000	56.797	156.9792
15000.000000	56.964	158.5625
15250.000000	57.297	159.8804
15500.000000	57.870	161.0625
15750.000000	58.915	162.4653
16000.000000	60.715	164.0049
16250.000000	62.986	162.6114
16500.000000	64.790	152.5599
16750.000000	65.494	134.3321
17000.000000	65.193	115.4507
17250.000000	64.334	100.6729
17500.000000	63.341	90.0086
17750.000000	62.492	81.6472
18000.000000	61.897	73.6209
18250.000000	61.464	64.4723
18500.000000	60.949	53.9165
18750.000000	60.128	43.2131
19000.000000	58.960	34.0171
19250.000000	57.573	26.8443
19500.000000	56.128	21.3357
19750.000000	54.801	17.3153
