* Measurement data measured by REW V5.20.4
* Source: Microphone (USB Sound Device        ), MICROPHONE (Master Volume), L, volume: 0.750
* Format: 256k Log Swept Sine, 1 sweep at -12.0 dBFS with no timing reference
* Dated: 07-Oct-2023 19:52:37
* REW Settings:
*  C-weighting compensation: Off
*  Target level: 75.0 dB
* Note: 
* Measurement: Truthear Nova L
* Smoothing: 1/12 octave
* Frequency Step: 1/48 octave
* Start Frequency: 20.300 Hz
*
* Freq(Hz)	SPL(dB)	Phase(degrees)
20.299999	75.964	172.0636
20.600000	75.971	171.9745
20.900000	75.988	171.7152
21.200001	76.000	171.2069
21.400000	75.999	170.7107
21.799999	75.964	169.4449
22.000000	75.928	168.7619
22.400000	75.823	167.5307
22.700001	75.734	166.8858
23.000000	75.658	166.5508
23.299999	75.614	166.4630
23.600000	75.604	166.5038
24.000000	75.633	166.5451
24.299999	75.663	166.4441
24.700001	75.685	166.1016
25.000000	75.677	165.7455
25.400000	75.635	165.2427
25.799999	75.580	164.7786
26.200001	75.532	164.3453
26.500000	75.506	164.0179
26.900000	75.481	163.5758
27.200001	75.464	163.2676
27.600000	75.439	162.9377
28.000000	75.415	162.7244
28.500000	75.389	162.5476
29.000000	75.365	162.3042
29.500000	75.327	161.9084
30.000000	75.267	161.4306
30.400000	75.211	161.0734
30.700001	75.171	160.8410
31.100000	75.126	160.5672
31.500000	75.090	160.3087
32.000000	75.050	159.9857
32.500000	75.009	159.6781
33.000000	74.964	159.3930
33.500000	74.919	159.0925
34.000000	74.871	158.7366
34.500000	74.819	158.3485
35.000000	74.772	157.9789
35.500000	74.747	157.6160
36.000000	74.747	157.1722
36.500000	74.749	156.6021
37.000000	74.726	156.0071
37.500000	74.666	155.5713
38.200001	74.553	155.3883
38.700001	74.480	155.4294
39.500000	74.385	155.3690
40.000000	74.329	155.2052
40.599998	74.263	154.9528
41.200001	74.205	154.6694
41.799999	74.148	154.3559
42.500000	74.076	154.0142
43.099998	74.013	153.7948
43.700001	73.957	153.6117
44.400002	73.901	153.3779
45.000000	73.852	153.1588
45.500000	73.809	152.9881
46.200001	73.749	152.7806
46.799999	73.698	152.6177
47.500000	73.632	152.4272
48.200001	73.549	152.2526
48.700001	73.482	152.1555
49.400002	73.395	152.0512
50.000000	73.339	151.9402
50.799999	73.294	151.6894
51.500000	73.264	151.4054
52.200001	73.227	151.1463
53.000000	73.169	150.9177
53.799999	73.099	150.7215
54.500000	73.033	150.5473
55.200001	72.967	150.3633
56.000000	72.897	150.1419
57.000000	72.817	149.8784
58.000000	72.741	149.6887
59.000000	72.667	149.5894
60.000000	72.591	149.5175
60.799999	72.529	149.4380
61.500000	72.475	149.3534
62.200001	72.423	149.2633
63.000000	72.361	149.1575
64.000000	72.276	149.0211
65.000000	72.185	148.8711
66.000000	72.097	148.7140
67.000000	72.015	148.5965
68.000000	71.941	148.5338
69.000000	71.870	148.4886
70.000000	71.793	148.4312
71.000000	71.709	148.3662
72.000000	71.629	148.3006
73.000000	71.559	148.2090
74.000000	71.494	148.0859
75.000000	71.424	147.9663
76.199997	71.335	147.8662
77.500000	71.237	147.8189
78.800003	71.137	147.8009
80.000000	71.041	147.7923
81.199997	70.944	147.8032
82.500000	70.842	147.8308
83.800003	70.752	147.8629
85.000000	70.680	147.8957
86.199997	70.610	147.9299
87.500000	70.529	147.9729
88.500000	70.461	148.0231
90.000000	70.358	148.1081
91.199997	70.279	148.1413
92.500000	70.199	148.1562
93.800003	70.122	148.1788
95.000000	70.048	148.2214
96.199997	69.972	148.3042
97.500000	69.888	148.4335
98.800003	69.807	148.5591
100.000000	69.735	148.6508
101.500000	69.643	148.7634
103.000000	69.551	148.8956
104.400002	69.472	149.0203
106.000000	69.390	149.1646
107.500000	69.314	149.3399
109.000000	69.232	149.5747
110.599998	69.143	149.8539
112.000000	69.065	150.0941
113.800003	68.962	150.3704
115.000000	68.890	150.4513
117.199997	68.739	150.0520
118.000000	68.681	149.7487
120.599998	68.536	149.4239
122.000000	68.503	150.0216
124.099998	68.459	151.1340
125.000000	68.435	151.5077
126.500000	68.393	151.9378
128.000000	68.354	152.1460
131.500000	68.283	152.3476
132.000000	68.269	152.4189
134.000000	68.178	152.8896
136.000000	68.029	153.4329
138.000000	67.874	153.8421
140.000000	67.760	154.1425
143.000000	67.651	154.4346
145.000000	67.581	154.6458
147.500000	67.471	155.1761
150.000000	67.356	156.0527
152.500000	67.243	157.0628
155.000000	67.136	157.9267
157.500000	67.049	158.6672
160.000000	66.986	159.4158
162.500000	66.931	160.1765
165.000000	66.890	160.8633
167.500000	66.896	161.4424
170.000000	66.945	161.9795
172.500000	66.982	162.3703
175.000000	66.974	162.5319
177.500000	66.923	162.6471
180.000000	66.849	162.8411
182.500000	66.773	163.1367
185.000000	66.697	163.5374
187.500000	66.625	164.0362
190.000000	66.560	164.6351
192.500000	66.509	165.3136
195.000000	66.473	166.0126
197.500000	66.458	166.6503
200.000000	66.458	167.1745
203.000000	66.466	167.6091
206.000000	66.463	167.8682
209.000000	66.442	168.0827
212.000000	66.407	168.3279
214.000000	66.377	168.5142
218.000000	66.312	168.9453
220.000000	66.278	169.1981
224.000000	66.215	169.7862
227.000000	66.172	170.2667
230.000000	66.130	170.7475
233.000000	66.090	171.2141
236.000000	66.056	171.6573
240.000000	66.016	172.2187
243.000000	65.989	172.6437
247.000000	65.952	173.2525
250.000000	65.924	173.7349
254.000000	65.888	174.3512
258.000000	65.858	174.9005
262.000000	65.833	175.4506
265.000000	65.815	175.9033
269.000000	65.793	176.5397
272.000000	65.780	177.0191
276.000000	65.763	177.6401
280.000000	65.748	178.2418
285.000000	65.731	178.9825
290.000000	65.718	179.6932
295.000000	65.709	-179.6578
300.000000	65.694	-179.0167
304.000000	65.683	-178.4716
307.000000	65.678	-178.0568
311.000000	65.672	-177.5177
315.000000	65.662	-177.0028
320.000000	65.646	-176.3781
325.000000	65.635	-175.7514
330.000000	65.638	-175.1038
335.000000	65.647	-174.4632
340.000000	65.645	-173.8374
345.000000	65.635	-173.2200
350.000000	65.634	-172.6186
355.000000	65.653	-172.0049
360.000000	65.684	-171.3657
365.000000	65.711	-170.7394
370.000000	65.730	-170.1655
375.000000	65.740	-169.6765
382.000000	65.750	-169.1349
387.000000	65.759	-168.7866
395.000000	65.773	-168.2056
400.000000	65.781	-167.8353
406.000000	65.793	-167.3917
412.000000	65.806	-166.9339
418.000000	65.817	-166.4710
425.000000	65.829	-165.9512
431.000000	65.840	-165.4958
437.000000	65.853	-165.0143
444.000000	65.872	-164.4345
450.000000	65.888	-163.9225
455.000000	65.898	-163.4809
462.000000	65.911	-162.8732
468.000000	65.922	-162.4050
475.000000	65.935	-161.9160
482.000000	65.949	-161.4352
487.000000	65.960	-161.0828
494.000000	65.978	-160.5698
500.000000	65.993	-160.1171
508.000000	66.010	-159.5215
515.000000	66.025	-159.0199
522.000000	66.043	-158.5394
530.000000	66.062	-158.0217
538.000000	66.076	-157.5182
545.000000	66.086	-157.0664
552.000000	66.097	-156.6018
560.000000	66.109	-156.0840
570.000000	66.126	-155.4917
580.000000	66.148	-154.9064
590.000000	66.168	-154.2550
600.000000	66.183	-153.5968
608.000000	66.201	-153.0821
615.000000	66.222	-152.6382
622.000000	66.244	-152.2006
630.000000	66.266	-151.7088
640.000000	66.287	-151.1100
650.000000	66.305	-150.5076
660.000000	66.324	-149.8549
670.000000	66.349	-149.1464
680.000000	66.385	-148.4201
690.000000	66.423	-147.7184
700.000000	66.456	-147.0551
710.000000	66.481	-146.4033
720.000000	66.499	-145.7354
730.000000	66.515	-145.0720
740.000000	66.536	-144.4453
750.000000	66.566	-143.8320
762.000000	66.606	-143.0562
775.000000	66.652	-142.1700
788.000000	66.695	-141.2981
800.000000	66.732	-140.5182
812.000000	66.771	-139.7296
825.000000	66.821	-138.8650
838.000000	66.883	-137.9918
850.000000	66.950	-137.1705
862.000000	67.017	-136.3560
875.000000	67.088	-135.5150
885.000000	67.144	-134.9029
900.000000	67.232	-133.9996
912.000000	67.307	-133.2593
925.000000	67.390	-132.4579
938.000000	67.475	-131.7026
950.000000	67.556	-131.0665
962.000000	67.636	-130.4881
975.000000	67.721	-129.9139
988.000000	67.808	-129.3650
1000.000000	67.891	-128.8552
1015.000000	67.994	-128.2166
1030.000000	68.101	-127.6127
1044.000000	68.203	-127.0914
1060.000000	68.319	-126.5517
1075.000000	68.425	-126.0999
1090.000000	68.530	-125.6819
1106.000000	68.644	-125.2804
1120.000000	68.743	-124.9805
1138.000000	68.870	-124.6476
1150.000000	68.951	-124.4542
1172.000000	69.090	-124.1548
1180.000000	69.139	-124.0543
1206.000000	69.292	-123.7463
1220.000000	69.372	-123.6002
1241.000000	69.482	-123.3853
1250.000000	69.527	-123.2872
1265.000000	69.598	-123.1144
1280.000000	69.666	-122.9368
1315.000000	69.807	-122.5721
1320.000000	69.825	-122.5262
1340.000000	69.895	-122.3382
1360.000000	69.960	-122.1290
1380.000000	70.016	-121.9043
1400.000000	70.066	-121.6851
1430.000000	70.137	-121.3545
1450.000000	70.186	-121.0917
1475.000000	70.249	-120.7321
1500.000000	70.315	-120.3966
1525.000000	70.390	-120.0682
1550.000000	70.475	-119.7024
1575.000000	70.569	-119.2988
1600.000000	70.669	-118.8901
1625.000000	70.774	-118.4925
1650.000000	70.881	-118.1038
1675.000000	70.989	-117.7101
1700.000000	71.101	-117.3062
1725.000000	71.220	-116.9015
1750.000000	71.345	-116.5117
1775.000000	71.474	-116.1295
1800.000000	71.605	-115.7448
1825.000000	71.737	-115.3662
1850.000000	71.872	-114.9937
1875.000000	72.007	-114.6239
1900.000000	72.140	-114.2669
1925.000000	72.267	-113.9270
1950.000000	72.387	-113.6021
1975.000000	72.503	-113.2976
2000.000000	72.620	-113.0219
2030.000000	72.760	-112.7395
2060.000000	72.902	-112.5035
2090.000000	73.049	-112.3061
2120.000000	73.200	-112.1432
2140.000000	73.303	-112.0529
2180.000000	73.514	-111.9235
2200.000000	73.622	-111.8872
2240.000000	73.840	-111.8786
2270.000000	74.006	-111.9345
2300.000000	74.174	-112.0367
2330.000000	74.341	-112.1864
2360.000000	74.508	-112.3964
2400.000000	74.731	-112.7717
2430.000000	74.897	-113.1204
2470.000000	75.116	-113.6743
2500.000000	75.279	-114.1537
2540.000000	75.495	-114.8843
2580.000000	75.705	-115.7317
2620.000000	75.908	-116.6877
2650.000000	76.053	-117.4746
2690.000000	76.234	-118.6231
2720.000000	76.361	-119.5623
2760.000000	76.517	-120.9146
2800.000000	76.655	-122.3648
2850.000000	76.800	-124.2876
2900.000000	76.908	-126.3065
2950.000000	76.979	-128.3798
3000.000000	77.017	-130.4688
3040.000000	77.023	-132.1247
3070.000000	77.015	-133.3450
3110.000000	76.987	-134.9318
3150.000000	76.941	-136.4673
3200.000000	76.861	-138.3045
3250.000000	76.757	-140.0312
3300.000000	76.633	-141.6296
3350.000000	76.494	-143.0817
3400.000000	76.346	-144.3791
3450.000000	76.196	-145.5284
3500.000000	76.047	-146.5388
3550.000000	75.900	-147.4086
3600.000000	75.757	-148.1364
3650.000000	75.623	-148.7454
3700.000000	75.495	-149.2747
3750.000000	75.375	-149.7531
3820.000000	75.212	-150.3566
3870.000000	75.091	-150.7353
3950.000000	74.887	-151.2101
4000.000000	74.757	-151.4050
4060.000000	74.605	-151.5319
4120.000000	74.466	-151.5613
4180.000000	74.348	-151.5339
4250.000000	74.234	-151.4854
4310.000000	74.153	-151.4656
4370.000000	74.083	-151.5084
4440.000000	74.008	-151.6833
4500.000000	73.944	-151.9577
4550.000000	73.886	-152.2753
4620.000000	73.796	-152.8419
4680.000000	73.709	-153.4122
4750.000000	73.592	-154.1271
4820.000000	73.461	-154.8512
4870.000000	73.360	-155.3587
4940.000000	73.209	-156.0458
5000.000000	73.070	-156.6003
5080.000000	72.868	-157.2694
5150.000000	72.678	-157.7794
5220.000000	72.476	-158.2056
5300.000000	72.233	-158.5602
5380.000000	71.979	-158.7456
5450.000000	71.754	-158.7604
5520.000000	71.531	-158.6317
5600.000000	71.281	-158.3023
5700.000000	70.981	-157.6195
5800.000000	70.704	-156.6769
5900.000000	70.456	-155.5299
6000.000000	70.241	-154.2170
6080.000000	70.099	-153.0800
6150.000000	69.996	-152.0482
6220.000000	69.916	-151.0085
6300.000000	69.851	-149.8401
6400.000000	69.814	-148.4480
6500.000000	69.822	-147.1766
6600.000000	69.867	-146.0994
6700.000000	69.942	-145.2681
6800.000000	70.042	-144.6870
6900.000000	70.157	-144.3583
7000.000000	70.271	-144.2626
7100.000000	70.372	-144.3512
7200.000000	70.453	-144.5605
7300.000000	70.515	-144.8083
7400.000000	70.566	-145.0207
7500.000000	70.613	-145.1700
7620.000000	70.680	-145.2437
7750.000000	70.783	-145.1576
7880.000000	70.938	-144.9759
8000.000000	71.144	-144.9008
8120.000000	71.418	-145.0805
8250.000000	71.802	-145.6590
8380.000000	72.313	-146.7563
8500.000000	72.912	-148.8409
8620.000000	73.496	-153.0057
8750.000000	73.867	-159.8801
8850.000000	73.906	-165.9130
9000.000000	73.617	-174.7100
9120.000000	73.153	179.1252
9250.000000	72.479	173.6752
9380.000000	71.694	169.5973
9500.000000	70.927	166.9830
9620.000000	70.167	165.3255
9750.000000	69.392	164.3880
9880.000000	68.693	164.0950
10000.000000	68.129	164.2038
10150.000000	67.538	164.6232
10300.000000	67.069	165.1046
10440.000000	66.727	165.3983
10600.000000	66.424	165.3809
10750.000000	66.196	164.9118
10900.000000	65.989	163.9277
11060.000000	65.751	162.3170
11200.000000	65.499	160.5472
11380.000000	65.084	158.0799
11500.000000	64.748	156.5040
11720.000000	64.029	154.1148
11800.000000	63.744	153.4669
12060.000000	62.806	152.2112
12200.000000	62.333	151.9314
12410.000000	61.714	151.7477
12500.000000	61.480	151.6810
12650.000000	61.124	151.5032
12800.000000	60.791	151.2295
13150.000000	60.033	150.4410
13200.000000	59.921	150.3374
13400.000000	59.452	150.0333
13600.000000	58.962	149.9706
13800.000000	58.479	150.2518
14000.000000	58.036	150.9915
14300.000000	57.505	152.8904
14500.000000	57.264	154.5699
14750.000000	57.114	157.0579
15000.000000	57.159	159.8338
15250.000000	57.476	162.7462
15500.000000	58.277	166.0036
15750.000000	59.872	169.5404
16000.000000	62.146	171.1682
16250.000000	64.311	165.8547
16500.000000	65.662	151.4146
16750.000000	66.066	132.5069
17000.000000	65.728	114.6675
17250.000000	64.919	100.4549
17500.000000	63.909	90.0257
17750.000000	62.947	82.1992
18000.000000	62.191	75.3528
18250.000000	61.649	68.0397
18500.000000	61.156	59.5085
18750.000000	60.471	50.4323
19000.000000	59.459	42.6836
19250.000000	58.237	37.3575
19500.000000	57.077	33.6676
19750.000000	56.176	30.6547
