* Measurement data measured by REW V5.20.13
* Source: Mic in at front panel (Pink) (Realtek(R) Audio), MICROPHONE (Master Volume), L, volume: 0.250
* Format: 256k Log Swept Sine, 1 sweep at -12.0 dBFS with no timing reference
* Dated: Jun 10, 2023 2:46:32 PM
* REW Settings:
*  C-weighting compensation: Off
*  Target level: 75.0 dB
* Note: EPZ Q1 L
* Measurement: EPZ Q1 L
* Smoothing: 1/12 octave
* Frequency Step: 1/48 octave
* Start Frequency: 20.000 Hz
*
* Freq(Hz)	SPL(dB)	Phase(degrees)
20.000000	85.471	-148.1072
20.299999	85.494	-148.7401
20.600000	85.515	-149.3588
20.900000	85.535	-149.9636
21.200001	85.553	-150.5543
21.400000	85.565	-150.9402
21.799999	85.587	-151.6935
22.000000	85.598	-152.0616
22.400000	85.618	-152.7827
22.700001	85.633	-153.3133
23.000000	85.647	-153.8375
23.299999	85.660	-154.3558
23.600000	85.671	-154.8668
24.000000	85.684	-155.5322
24.299999	85.692	-156.0155
24.700001	85.703	-156.6372
25.000000	85.711	-157.0890
25.400000	85.722	-157.6796
25.799999	85.735	-158.2659
26.200001	85.746	-158.8510
26.500000	85.753	-159.2861
26.900000	85.761	-159.8546
27.200001	85.765	-160.2685
27.600000	85.771	-160.8026
28.000000	85.777	-161.3202
28.500000	85.785	-161.9524
29.000000	85.792	-162.5724
29.500000	85.798	-163.1772
30.000000	85.802	-163.7643
30.400000	85.804	-164.2221
30.700001	85.806	-164.5589
31.100000	85.806	-164.9986
31.500000	85.805	-165.4249
32.000000	85.803	-165.9354
32.500000	85.800	-166.4204
33.000000	85.799	-166.8869
33.500000	85.800	-167.3473
34.000000	85.802	-167.8149
34.500000	85.802	-168.2936
35.000000	85.798	-168.7721
35.500000	85.791	-169.2295
36.000000	85.783	-169.6546
36.500000	85.778	-170.0572
37.000000	85.776	-170.4599
37.500000	85.773	-170.8735
38.200001	85.766	-171.4502
38.700001	85.760	-171.8408
39.500000	85.754	-172.4442
40.000000	85.751	-172.8349
40.599998	85.746	-173.3231
41.200001	85.735	-173.8069
41.799999	85.721	-174.2617
42.500000	85.705	-174.7583
43.099998	85.693	-175.1777
43.700001	85.682	-175.6021
44.400002	85.665	-176.0902
45.000000	85.650	-176.4879
45.500000	85.638	-176.8060
46.200001	85.623	-177.2438
46.799999	85.609	-177.6167
47.500000	85.592	-178.0413
48.200001	85.574	-178.4514
48.700001	85.562	-178.7398
49.400002	85.543	-179.1411
50.000000	85.526	-179.4782
50.799999	85.501	-179.9091
51.500000	85.480	179.7300
52.200001	85.457	179.3824
53.000000	85.433	179.0051
53.799999	85.410	178.6443
54.500000	85.391	178.3325
55.200001	85.372	178.0260
56.000000	85.350	177.6924
57.000000	85.324	177.3022
58.000000	85.301	176.9427
59.000000	85.286	176.6051
60.000000	85.279	176.2319
60.799999	85.273	175.8855
61.500000	85.263	175.5649
62.200001	85.247	175.2522
63.000000	85.224	174.9218
64.000000	85.194	174.5427
65.000000	85.162	174.1744
66.000000	85.129	173.8001
67.000000	85.096	173.4065
68.000000	85.059	172.9970
69.000000	85.022	172.6052
70.000000	84.988	172.2582
71.000000	84.962	171.9667
72.000000	84.949	171.7175
73.000000	84.947	171.4663
74.000000	84.948	171.1608
75.000000	84.937	170.7920
76.199997	84.897	170.3610
77.500000	84.839	169.9898
78.800003	84.784	169.6447
80.000000	84.739	169.2911
81.199997	84.698	168.8981
82.500000	84.655	168.4481
83.800003	84.608	168.0074
85.000000	84.556	167.6280
86.199997	84.495	167.2752
87.500000	84.419	166.9234
88.500000	84.356	166.6859
90.000000	84.264	166.4158
91.199997	84.204	166.2570
92.500000	84.149	166.1027
93.800003	84.101	165.9777
95.000000	84.065	165.8690
96.199997	84.034	165.7243
97.500000	83.999	165.5199
98.800003	83.960	165.3055
100.000000	83.921	165.1467
101.500000	83.875	165.0143
103.000000	83.830	164.9200
104.400002	83.786	164.8370
106.000000	83.740	164.7180
107.500000	83.706	164.5616
109.000000	83.681	164.3811
110.599998	83.656	164.1827
112.000000	83.624	163.9857
113.800003	83.555	163.6643
115.000000	83.498	163.3740
117.199997	83.390	162.6389
118.000000	83.351	162.3633
120.599998	83.240	162.0847
122.000000	83.221	162.3942
124.099998	83.231	162.9517
125.000000	83.233	163.1197
126.500000	83.224	163.2592
128.000000	83.202	163.2370
131.500000	83.140	162.8544
132.000000	83.131	162.7894
134.000000	83.092	162.5460
136.000000	83.046	162.3337
138.000000	82.995	162.1390
140.000000	82.943	161.9541
143.000000	82.861	161.6975
145.000000	82.804	161.5444
147.500000	82.733	161.3729
150.000000	82.661	161.2310
152.500000	82.585	161.1332
155.000000	82.508	161.0879
157.500000	82.441	161.0721
160.000000	82.382	161.0455
162.500000	82.326	160.9948
165.000000	82.268	160.9323
167.500000	82.206	160.8753
170.000000	82.141	160.8408
172.500000	82.076	160.8359
175.000000	82.014	160.8523
177.500000	81.957	160.8751
180.000000	81.903	160.8959
182.500000	81.850	160.9159
185.000000	81.798	160.9384
187.500000	81.743	160.9614
190.000000	81.687	160.9852
192.500000	81.630	161.0190
195.000000	81.571	161.0726
197.500000	81.513	161.1524
200.000000	81.456	161.2599
203.000000	81.393	161.4176
206.000000	81.339	161.5858
209.000000	81.292	161.7410
212.000000	81.247	161.8750
214.000000	81.217	161.9586
218.000000	81.156	162.1390
220.000000	81.127	162.2393
224.000000	81.076	162.4302
227.000000	81.038	162.5422
230.000000	81.001	162.6317
233.000000	80.964	162.7106
236.000000	80.926	162.7828
240.000000	80.873	162.8706
243.000000	80.829	162.9406
247.000000	80.766	163.0656
250.000000	80.716	163.1984
254.000000	80.653	163.4351
258.000000	80.602	163.6985
262.000000	80.560	163.9163
265.000000	80.529	164.0466
269.000000	80.482	164.2220
272.000000	80.446	164.3780
276.000000	80.400	164.6198
280.000000	80.360	164.8828
285.000000	80.321	165.2005
290.000000	80.291	165.4358
295.000000	80.256	165.5767
300.000000	80.208	165.7168
304.000000	80.166	165.8684
307.000000	80.135	165.9998
311.000000	80.095	166.1830
315.000000	80.056	166.3676
320.000000	80.006	166.6165
325.000000	79.958	166.9053
330.000000	79.915	167.2171
335.000000	79.878	167.5220
340.000000	79.844	167.8049
345.000000	79.811	168.0753
350.000000	79.777	168.3488
355.000000	79.744	168.6255
360.000000	79.713	168.8984
365.000000	79.684	169.1651
370.000000	79.656	169.4278
375.000000	79.628	169.6894
382.000000	79.591	170.0487
387.000000	79.563	170.2993
395.000000	79.515	170.7163
400.000000	79.485	171.0015
406.000000	79.450	171.3662
412.000000	79.418	171.7471
418.000000	79.387	172.1509
425.000000	79.357	172.6619
431.000000	79.340	173.1182
437.000000	79.332	173.5587
444.000000	79.331	174.0286
450.000000	79.337	174.3796
455.000000	79.342	174.6211
462.000000	79.342	174.8947
468.000000	79.333	175.1235
475.000000	79.318	175.4267
482.000000	79.304	175.7528
487.000000	79.294	175.9864
494.000000	79.278	176.3297
500.000000	79.266	176.6527
508.000000	79.258	177.0916
515.000000	79.253	177.4533
522.000000	79.248	177.8028
530.000000	79.241	178.2175
538.000000	79.238	178.6494
545.000000	79.239	179.0243
552.000000	79.242	179.3925
560.000000	79.249	179.7968
570.000000	79.258	-179.7299
580.000000	79.265	-179.2667
590.000000	79.271	-178.7925
600.000000	79.281	-178.2965
608.000000	79.291	-177.8990
615.000000	79.301	-177.5621
622.000000	79.310	-177.2242
630.000000	79.321	-176.8154
640.000000	79.342	-176.2762
650.000000	79.373	-175.7354
660.000000	79.414	-175.2230
670.000000	79.463	-174.7990
680.000000	79.508	-174.4672
690.000000	79.543	-174.1663
700.000000	79.572	-173.8479
710.000000	79.601	-173.5013
720.000000	79.632	-173.1459
730.000000	79.664	-172.7920
740.000000	79.696	-172.4345
750.000000	79.729	-172.0677
762.000000	79.773	-171.6173
775.000000	79.826	-171.1307
788.000000	79.883	-170.6559
800.000000	79.940	-170.2155
812.000000	80.005	-169.7711
825.000000	80.087	-169.3394
838.000000	80.173	-169.0164
850.000000	80.246	-168.7915
862.000000	80.310	-168.5832
875.000000	80.376	-168.3435
885.000000	80.427	-168.1473
900.000000	80.506	-167.8541
912.000000	80.570	-167.6198
925.000000	80.642	-167.3693
938.000000	80.719	-167.1400
950.000000	80.791	-166.9580
962.000000	80.862	-166.7990
975.000000	80.937	-166.6384
988.000000	81.011	-166.4816
1000.000000	81.080	-166.3330
1015.000000	81.170	-166.1268
1030.000000	81.271	-165.9189
1044.000000	81.376	-165.7852
1060.000000	81.499	-165.7600
1075.000000	81.606	-165.8289
1090.000000	81.705	-165.9333
1106.000000	81.804	-166.0639
1120.000000	81.887	-166.1901
1138.000000	81.988	-166.3582
1150.000000	82.054	-166.4702
1172.000000	82.174	-166.6690
1180.000000	82.218	-166.7384
1206.000000	82.374	-167.0212
1220.000000	82.460	-167.2648
1241.000000	82.574	-167.7373
1250.000000	82.618	-167.9559
1265.000000	82.683	-168.3201
1280.000000	82.742	-168.6756
1315.000000	82.866	-169.4626
1320.000000	82.883	-169.5736
1340.000000	82.945	-170.0200
1360.000000	82.999	-170.4551
1380.000000	83.047	-170.8462
1400.000000	83.094	-171.1699
1430.000000	83.183	-171.6277
1450.000000	83.248	-172.0087
1475.000000	83.319	-172.5540
1500.000000	83.378	-173.1134
1525.000000	83.426	-173.6434
1550.000000	83.471	-174.1153
1575.000000	83.523	-174.5414
1600.000000	83.583	-175.0088
1625.000000	83.640	-175.5633
1650.000000	83.683	-176.1520
1675.000000	83.715	-176.7149
1700.000000	83.741	-177.2267
1725.000000	83.767	-177.6891
1750.000000	83.793	-178.0961
1775.000000	83.826	-178.4399
1800.000000	83.875	-178.7640
1825.000000	83.942	-179.1700
1850.000000	84.012	-179.7152
1875.000000	84.073	179.6212
1900.000000	84.120	178.8961
1925.000000	84.153	178.1691
1950.000000	84.181	177.4690
1975.000000	84.210	176.7679
2000.000000	84.237	176.0209
2030.000000	84.260	175.0599
2060.000000	84.268	174.0657
2090.000000	84.264	173.0599
2120.000000	84.246	172.0484
2140.000000	84.225	171.3875
2180.000000	84.170	170.1438
2200.000000	84.139	169.5465
2240.000000	84.068	168.3426
2270.000000	84.000	167.4440
2300.000000	83.915	166.6008
2330.000000	83.821	165.8546
2360.000000	83.725	165.1939
2400.000000	83.594	164.3740
2430.000000	83.488	163.7946
2470.000000	83.333	163.1099
2500.000000	83.206	162.6966
2540.000000	83.024	162.3569
2580.000000	82.849	162.3110
2620.000000	82.701	162.4919
2650.000000	82.616	162.7131
2690.000000	82.541	163.0381
2720.000000	82.518	163.2145
2760.000000	82.528	163.1431
2800.000000	82.540	162.4905
2850.000000	82.438	160.9468
2900.000000	82.091	159.8325
2950.000000	81.632	160.7644
3000.000000	81.366	163.0316
3040.000000	81.313	164.7356
3070.000000	81.325	165.7910
3110.000000	81.374	166.9395
3150.000000	81.446	167.8548
3200.000000	81.553	168.7462
3250.000000	81.674	169.4122
3300.000000	81.803	169.8934
3350.000000	81.939	170.2386
3400.000000	82.086	170.4484
3450.000000	82.241	170.5121
3500.000000	82.403	170.4735
3550.000000	82.584	170.3394
3600.000000	82.790	170.0300
3650.000000	83.017	169.4418
3700.000000	83.251	168.5119
3750.000000	83.481	167.2236
3820.000000	83.777	164.7753
3870.000000	83.948	162.5774
3950.000000	84.130	158.4240
4000.000000	84.176	155.4813
4060.000000	84.143	151.6737
4120.000000	83.997	147.7550
4180.000000	83.737	143.9778
4250.000000	83.303	140.0391
4310.000000	82.843	137.2648
4370.000000	82.338	135.0956
4440.000000	81.729	133.2041
4500.000000	81.202	132.0046
4550.000000	80.762	131.2535
4620.000000	80.142	130.5415
4680.000000	79.605	130.2639
4750.000000	78.976	130.3685
4820.000000	78.361	130.9001
4870.000000	77.935	131.5010
4940.000000	77.356	132.6171
5000.000000	76.878	133.8049
5080.000000	76.264	135.7202
5150.000000	75.756	137.7234
5220.000000	75.285	139.9880
5300.000000	74.798	142.8013
5380.000000	74.363	145.7735
5450.000000	74.017	148.4737
5520.000000	73.699	151.2893
5600.000000	73.374	154.6618
5700.000000	73.035	159.0399
5800.000000	72.769	163.4906
5900.000000	72.564	167.9807
6000.000000	72.415	172.5687
6080.000000	72.342	176.3098
6150.000000	72.314	179.6061
6220.000000	72.318	-177.0994
6300.000000	72.358	-173.3315
6400.000000	72.467	-168.5851
6500.000000	72.650	-163.8117
6600.000000	72.917	-159.0796
6700.000000	73.267	-154.4364
6800.000000	73.705	-149.8850
6900.000000	74.247	-145.4591
7000.000000	74.907	-141.2551
7100.000000	75.695	-137.3832
7200.000000	76.626	-133.9478
7300.000000	77.713	-131.1172
7400.000000	78.954	-129.1817
7500.000000	80.318	-128.5340
7620.000000	82.023	-130.1213
7750.000000	83.755	-135.7472
7880.000000	85.079	-146.0742
8000.000000	85.720	-158.8566
8120.000000	85.725	-172.2955
8250.000000	85.106	175.4037
8380.000000	84.069	167.0659
8500.000000	82.977	162.7638
8620.000000	81.943	160.8531
8750.000000	81.009	160.4541
8850.000000	80.456	160.8442
9000.000000	79.928	161.8789
9120.000000	79.774	162.3699
9250.000000	79.810	161.7252
9380.000000	79.924	159.2790
9500.000000	79.957	155.3013
9620.000000	79.802	150.0834
9750.000000	79.343	144.0526
9880.000000	78.577	138.8382
10000.000000	77.655	135.4567
10150.000000	76.339	133.3805
10300.000000	74.981	133.2700
10440.000000	73.762	134.3702
10600.000000	72.451	136.6339
10750.000000	71.293	139.6084
10900.000000	70.200	143.4071
11060.000000	69.118	148.3864
11200.000000	68.269	153.4385
11380.000000	67.354	160.5942
11500.000000	66.869	165.5739
11720.000000	66.226	174.7263
11800.000000	66.061	178.0314
12060.000000	65.780	-171.4824
12200.000000	65.774	-166.3119
12410.000000	65.858	-159.4177
12500.000000	65.905	-156.7066
12650.000000	65.988	-152.3466
12800.000000	66.082	-148.0222
13150.000000	66.490	-137.4160
13200.000000	66.589	-135.8199
13400.000000	67.147	-129.3397
13600.000000	68.031	-123.0141
13800.000000	69.295	-117.4572
14000.000000	70.897	-113.5926
14300.000000	73.518	-113.9077
14500.000000	74.983	-120.1405
14750.000000	76.001	-134.5292
15000.000000	75.864	-151.1261
15250.000000	74.713	-163.0127
15500.000000	73.041	-167.5524
15750.000000	71.459	-166.5220
16000.000000	70.464	-162.9140
16250.000000	70.262	-159.3883
16500.000000	70.698	-158.2441
16750.000000	71.371	-161.3553
17000.000000	71.830	-169.3539
17250.000000	71.752	179.2819
17500.000000	71.009	167.7606
17750.000000	69.663	159.1017
18000.000000	67.905	154.5853
18250.000000	65.990	153.6945
18500.000000	64.173	154.9929
18750.000000	62.635	156.9229
19000.000000	61.413	158.2378
19250.000000	60.396	158.2762
19500.000000	59.398	157.1416
19750.000000	58.249	155.6760
20000.000000	56.847	155.1331
