* Measurement data measured by REW V5.20.13
* Source: EXCL: Microphone (Realtek(R) Audio), MICROPHONE (Master Volume), L, volume: 0.680
* Format: 256k Log Swept Sine, 1 sweep at -12.0 dBFS with no timing reference
* Dated: Jul 13, 2023 11:41:28 PM
* REW Settings:
*  C-weighting compensation: Off
*  Target level: 75.0 dB
* Note: EPZ G10 L
* Measurement: EPZ Q10 L
* Smoothing: 1/12 octave
* Frequency Step: 1/48 octave
* Start Frequency: 20.000 Hz
*
* Freq(Hz)	SPL(dB)	Phase(degrees)
20.000000	109.876	-174.6656
20.299999	109.863	-175.2948
20.600000	109.847	-175.9048
20.900000	109.831	-176.4940
21.200001	109.816	-177.0681
21.400000	109.805	-177.4480
21.799999	109.784	-178.2072
22.000000	109.772	-178.5864
22.400000	109.742	-179.3345
22.700001	109.716	-179.8714
23.000000	109.688	179.6250
23.299999	109.660	179.1555
23.600000	109.634	178.7106
24.000000	109.605	178.1313
24.299999	109.585	177.6879
24.700001	109.560	177.0738
25.000000	109.538	176.6024
25.400000	109.504	175.9799
25.799999	109.465	175.3874
26.200001	109.427	174.8321
26.500000	109.399	174.4331
26.900000	109.364	173.9108
27.200001	109.339	173.5198
27.600000	109.305	172.9989
28.000000	109.270	172.4867
28.500000	109.224	171.8708
29.000000	109.179	171.2805
29.500000	109.135	170.7032
30.000000	109.089	170.1337
30.400000	109.051	169.6894
30.700001	109.022	169.3664
31.100000	108.983	168.9494
31.500000	108.944	168.5435
32.000000	108.895	168.0431
32.500000	108.844	167.5491
33.000000	108.792	167.0719
33.500000	108.739	166.6203
34.000000	108.687	166.1928
34.500000	108.637	165.7824
35.000000	108.589	165.3864
35.500000	108.544	165.0029
36.000000	108.504	164.6214
36.500000	108.466	164.2240
37.000000	108.428	163.8021
37.500000	108.385	163.3716
38.200001	108.317	162.8105
38.700001	108.267	162.4558
39.500000	108.190	161.9232
40.000000	108.142	161.5914
40.599998	108.082	161.2011
41.200001	108.022	160.8237
41.799999	107.961	160.4410
42.500000	107.886	159.9807
43.099998	107.817	159.6044
43.700001	107.749	159.2620
44.400002	107.674	158.8812
45.000000	107.612	158.5584
45.500000	107.560	158.3116
46.200001	107.493	158.0233
46.799999	107.445	157.7991
47.500000	107.397	157.4920
48.200001	107.341	157.1429
48.700001	107.291	156.9252
49.400002	107.212	156.7343
50.000000	107.148	156.6673
50.799999	107.071	156.6412
51.500000	107.010	156.6381
52.200001	106.955	156.6309
53.000000	106.900	156.5675
53.799999	106.846	156.4282
54.500000	106.801	156.2563
55.200001	106.759	156.0144
56.000000	106.708	155.6336
57.000000	106.629	155.0999
58.000000	106.541	154.6113
59.000000	106.451	154.1837
60.000000	106.361	153.8428
60.799999	106.294	153.6293
61.500000	106.238	153.4707
62.200001	106.185	153.3285
63.000000	106.129	153.1675
64.000000	106.062	152.9319
65.000000	105.988	152.6685
66.000000	105.906	152.4448
67.000000	105.826	152.2811
68.000000	105.753	152.1393
69.000000	105.683	151.9922
70.000000	105.613	151.8378
71.000000	105.542	151.6919
72.000000	105.470	151.5732
73.000000	105.404	151.4695
74.000000	105.343	151.3451
75.000000	105.280	151.2021
76.199997	105.201	151.0662
77.500000	105.121	150.9748
78.800003	105.048	150.8777
80.000000	104.980	150.7591
81.199997	104.908	150.6198
82.500000	104.826	150.4565
83.800003	104.738	150.2964
85.000000	104.652	150.1721
86.199997	104.564	150.0751
87.500000	104.470	149.9850
88.500000	104.397	149.9263
90.000000	104.290	149.8833
91.199997	104.211	149.8990
92.500000	104.133	149.9533
93.800003	104.058	150.0258
95.000000	103.985	150.0928
96.199997	103.908	150.1484
97.500000	103.820	150.1905
98.800003	103.733	150.2192
100.000000	103.659	150.2498
101.500000	103.578	150.3206
103.000000	103.501	150.4487
104.400002	103.426	150.6088
106.000000	103.331	150.7831
107.500000	103.239	150.9152
109.000000	103.159	151.0650
110.599998	103.091	151.3253
112.000000	103.033	151.6714
113.800003	102.925	152.1583
115.000000	102.815	152.3357
117.199997	102.526	152.1139
118.000000	102.408	151.9937
120.599998	102.224	152.5511
122.000000	102.350	153.2070
124.099998	102.639	153.8948
125.000000	102.724	154.1100
126.500000	102.770	154.4492
128.000000	102.708	154.7814
131.500000	102.484	155.2117
132.000000	102.468	155.1947
134.000000	102.434	155.0020
136.000000	102.397	154.7645
138.000000	102.327	154.5083
140.000000	102.258	154.0952
143.000000	102.216	153.2724
145.000000	102.207	153.1649
147.500000	102.208	153.8124
150.000000	102.190	154.5940
152.500000	102.126	155.0486
155.000000	102.038	155.2189
157.500000	101.941	155.2839
160.000000	101.842	155.3488
162.500000	101.754	155.4251
165.000000	101.679	155.4989
167.500000	101.607	155.5802
170.000000	101.533	155.6810
172.500000	101.459	155.8237
175.000000	101.388	156.0721
177.500000	101.323	156.4203
180.000000	101.270	156.7679
182.500000	101.233	157.0524
185.000000	101.205	157.2742
187.500000	101.172	157.4641
190.000000	101.129	157.6437
192.500000	101.079	157.8170
195.000000	101.027	157.9972
197.500000	100.973	158.1953
200.000000	100.919	158.4099
203.000000	100.859	158.6832
206.000000	100.805	158.9575
209.000000	100.753	159.2116
212.000000	100.697	159.4502
214.000000	100.658	159.6161
218.000000	100.578	160.0047
220.000000	100.540	160.2270
224.000000	100.471	160.6813
227.000000	100.424	161.0037
230.000000	100.377	161.3110
233.000000	100.331	161.6108
236.000000	100.285	161.9074
240.000000	100.221	162.3078
243.000000	100.171	162.6258
247.000000	100.102	163.1000
250.000000	100.049	163.5116
254.000000	99.985	164.1485
258.000000	99.939	164.8511
262.000000	99.910	165.5527
265.000000	99.895	166.0667
269.000000	99.882	166.7542
272.000000	99.883	167.2725
276.000000	99.904	167.9264
280.000000	99.945	168.4679
285.000000	100.012	168.9029
290.000000	100.070	169.0336
295.000000	100.095	168.9525
300.000000	100.082	168.8511
304.000000	100.055	168.8359
307.000000	100.030	168.8666
311.000000	99.994	168.9487
315.000000	99.956	169.0669
320.000000	99.905	169.2721
325.000000	99.855	169.5487
330.000000	99.810	169.8712
335.000000	99.772	170.2031
340.000000	99.737	170.5242
345.000000	99.702	170.8400
350.000000	99.668	171.1654
355.000000	99.634	171.5041
360.000000	99.603	171.8517
365.000000	99.573	172.2043
370.000000	99.546	172.5594
375.000000	99.519	172.9170
382.000000	99.485	173.4201
387.000000	99.462	173.7787
395.000000	99.430	174.3526
400.000000	99.411	174.7106
406.000000	99.391	175.1323
412.000000	99.371	175.5428
418.000000	99.349	175.9580
425.000000	99.326	176.4716
431.000000	99.311	176.9288
437.000000	99.303	177.3758
444.000000	99.299	177.8675
450.000000	99.300	178.2485
455.000000	99.301	178.5214
462.000000	99.294	178.8489
468.000000	99.280	179.1318
475.000000	99.259	179.5049
482.000000	99.239	179.9056
487.000000	99.226	-179.8056
494.000000	99.205	-179.3834
500.000000	99.188	-178.9915
508.000000	99.173	-178.4588
515.000000	99.162	-178.0135
522.000000	99.151	-177.5783
530.000000	99.137	-177.0629
538.000000	99.126	-176.5273
545.000000	99.120	-176.0582
552.000000	99.117	-175.5924
560.000000	99.115	-175.0733
570.000000	99.114	-174.4520
580.000000	99.111	-173.8345
590.000000	99.107	-173.2033
600.000000	99.105	-172.5489
608.000000	99.107	-172.0203
615.000000	99.109	-171.5634
622.000000	99.111	-171.1018
630.000000	99.115	-170.5491
640.000000	99.127	-169.8282
650.000000	99.149	-169.1040
660.000000	99.182	-168.4050
670.000000	99.224	-167.7888
680.000000	99.263	-167.2605
690.000000	99.294	-166.7619
700.000000	99.320	-166.2489
710.000000	99.347	-165.7152
720.000000	99.378	-165.1857
730.000000	99.412	-164.6789
740.000000	99.447	-164.2036
750.000000	99.483	-163.7724
762.000000	99.522	-163.3337
775.000000	99.545	-162.9580
788.000000	99.528	-162.5792
800.000000	99.476	-161.9806
812.000000	99.426	-160.9498
825.000000	99.437	-159.5107
838.000000	99.520	-158.1598
850.000000	99.624	-157.1688
862.000000	99.729	-156.3742
875.000000	99.836	-155.6335
885.000000	99.914	-155.1064
900.000000	100.027	-154.3621
912.000000	100.116	-153.7879
925.000000	100.213	-153.1811
938.000000	100.314	-152.6054
950.000000	100.407	-152.1106
962.000000	100.498	-151.6429
975.000000	100.596	-151.1533
988.000000	100.693	-150.6760
1000.000000	100.783	-150.2417
1015.000000	100.898	-149.6917
1030.000000	101.022	-149.1490
1044.000000	101.146	-148.7002
1060.000000	101.290	-148.3007
1075.000000	101.418	-148.0045
1090.000000	101.538	-147.7382
1106.000000	101.663	-147.4758
1120.000000	101.770	-147.2645
1138.000000	101.902	-147.0097
1150.000000	101.989	-146.8443
1172.000000	102.146	-146.5371
1180.000000	102.205	-146.4225
1206.000000	102.406	-146.1054
1220.000000	102.516	-146.0237
1241.000000	102.669	-146.0052
1250.000000	102.729	-146.0129
1265.000000	102.822	-146.0248
1280.000000	102.910	-146.0262
1315.000000	103.105	-145.9796
1320.000000	103.132	-145.9713
1340.000000	103.238	-145.9411
1360.000000	103.338	-145.8988
1380.000000	103.433	-145.8124
1400.000000	103.531	-145.6605
1430.000000	103.700	-145.4128
1450.000000	103.820	-145.3304
1475.000000	103.963	-145.3070
1500.000000	104.097	-145.3090
1525.000000	104.225	-145.2897
1550.000000	104.353	-145.2230
1575.000000	104.492	-145.1264
1600.000000	104.643	-145.0919
1625.000000	104.794	-145.1713
1650.000000	104.935	-145.3185
1675.000000	105.068	-145.4817
1700.000000	105.196	-145.6463
1725.000000	105.321	-145.8190
1750.000000	105.440	-145.9822
1775.000000	105.558	-146.1007
1800.000000	105.685	-146.1857
1825.000000	105.823	-146.3107
1850.000000	105.963	-146.5175
1875.000000	106.098	-146.7900
1900.000000	106.227	-147.0918
1925.000000	106.351	-147.3880
1950.000000	106.479	-147.6701
1975.000000	106.613	-147.9790
2000.000000	106.751	-148.3662
2030.000000	106.910	-148.9374
2060.000000	107.058	-149.5808
2090.000000	107.197	-150.2735
2120.000000	107.324	-151.0074
2140.000000	107.401	-151.4995
2180.000000	107.548	-152.4398
2200.000000	107.621	-152.9059
2240.000000	107.768	-153.9061
2270.000000	107.868	-154.7182
2300.000000	107.957	-155.5425
2330.000000	108.040	-156.3446
2360.000000	108.123	-157.1426
2400.000000	108.233	-158.2825
2430.000000	108.306	-159.2119
2470.000000	108.385	-160.5192
2500.000000	108.427	-161.5219
2540.000000	108.459	-162.8189
2580.000000	108.476	-164.0213
2620.000000	108.486	-165.1737
2650.000000	108.486	-166.0265
2690.000000	108.472	-167.1169
2720.000000	108.455	-167.8718
2760.000000	108.433	-168.8152
2800.000000	108.409	-169.7473
2850.000000	108.368	-170.9265
2900.000000	108.304	-172.0717
2950.000000	108.216	-173.0775
3000.000000	108.121	-173.9225
3040.000000	108.040	-174.5119
3070.000000	107.975	-174.8906
3110.000000	107.887	-175.2774
3150.000000	107.805	-175.5332
3200.000000	107.721	-175.7414
3250.000000	107.657	-175.9081
3300.000000	107.604	-176.0735
3350.000000	107.560	-176.2294
3400.000000	107.526	-176.4016
3450.000000	107.493	-176.6129
3500.000000	107.456	-176.8098
3550.000000	107.421	-176.9519
3600.000000	107.395	-177.0701
3650.000000	107.376	-177.2124
3700.000000	107.358	-177.3847
3750.000000	107.338	-177.5554
3820.000000	107.311	-177.7814
3870.000000	107.290	-177.9189
3950.000000	107.267	-178.0393
4000.000000	107.269	-178.1013
4060.000000	107.283	-178.2479
4120.000000	107.302	-178.4893
4180.000000	107.320	-178.8091
4250.000000	107.334	-179.2657
4310.000000	107.340	-179.6752
4370.000000	107.348	179.9110
4440.000000	107.362	179.3523
4500.000000	107.371	178.7672
4550.000000	107.372	178.2097
4620.000000	107.356	177.3425
4680.000000	107.322	176.5717
4750.000000	107.265	175.7097
4820.000000	107.197	174.8775
4870.000000	107.142	174.2758
4940.000000	107.052	173.4155
5000.000000	106.959	172.6703
5080.000000	106.806	171.7316
5150.000000	106.648	171.0446
5220.000000	106.478	170.5006
5300.000000	106.276	170.0198
5380.000000	106.067	169.6626
5450.000000	105.874	169.4574
5520.000000	105.671	169.3992
5600.000000	105.436	169.5486
5700.000000	105.152	170.0218
5800.000000	104.888	170.7369
5900.000000	104.641	171.6682
6000.000000	104.417	172.8388
6080.000000	104.263	173.9127
6150.000000	104.148	174.9154
6220.000000	104.050	175.9548
6300.000000	103.955	177.1902
6400.000000	103.864	178.8332
6500.000000	103.812	-179.4241
6600.000000	103.807	-177.6431
6700.000000	103.845	-175.8716
6800.000000	103.930	-174.1117
6900.000000	104.069	-172.3904
7000.000000	104.269	-170.7892
7100.000000	104.528	-169.3903
7200.000000	104.848	-168.2439
7300.000000	105.233	-167.4225
7400.000000	105.684	-167.0636
7500.000000	106.192	-167.3381
7620.000000	106.851	-168.7465
7750.000000	107.570	-171.9856
7880.000000	108.181	-177.4033
8000.000000	108.526	175.7134
8120.000000	108.571	167.6363
8250.000000	108.234	158.6714
8380.000000	107.511	150.7758
8500.000000	106.567	145.2751
8620.000000	105.453	141.7413
8750.000000	104.161	139.9509
8850.000000	103.157	139.8061
9000.000000	101.698	141.2261
9120.000000	100.604	143.4911
9250.000000	99.501	146.8901
9380.000000	98.485	151.2277
9500.000000	97.632	156.0718
9620.000000	96.874	161.7671
9750.000000	96.204	168.9716
9880.000000	95.781	177.1945
10000.000000	95.721	-174.6267
10150.000000	96.200	-164.5277
10300.000000	97.212	-156.0766
10440.000000	98.373	-150.9852
10600.000000	99.633	-148.9885
10750.000000	100.581	-150.1389
10900.000000	101.270	-152.9882
11060.000000	101.775	-156.7356
11200.000000	102.087	-160.1664
11380.000000	102.373	-164.7756
11500.000000	102.500	-168.1071
11720.000000	102.560	-175.0119
11800.000000	102.507	-177.7507
12060.000000	101.998	173.2183
12200.000000	101.497	168.8342
12410.000000	100.486	163.7578
12500.000000	99.980	162.2667
12650.000000	99.076	160.7485
12800.000000	98.139	160.3804
13150.000000	96.054	163.0635
13200.000000	95.784	163.7459
13400.000000	94.796	166.9496
13600.000000	93.963	170.6831
13800.000000	93.281	174.7489
14000.000000	92.755	179.0204
14300.000000	92.311	-174.7151
14500.000000	92.258	-171.2558
14750.000000	92.403	-168.5937
15000.000000	92.641	-168.5033
15250.000000	92.768	-171.3309
15500.000000	92.583	-176.5349
15750.000000	91.948	177.4717
16000.000000	90.842	172.6981
16250.000000	89.354	170.6010
16500.000000	87.638	171.6248
16750.000000	85.864	175.4397
17000.000000	84.184	-178.6023
17250.000000	82.719	-171.1868
17500.000000	81.562	-163.0019
17750.000000	80.788	-154.8669
18000.000000	80.416	-147.8741
18250.000000	80.329	-143.2713
18500.000000	80.263	-141.7700
18750.000000	79.926	-142.6321
19000.000000	79.151	-143.7349
19250.000000	77.921	-142.7477
19500.000000	76.335	-138.2546
19750.000000	74.570	-130.1699
20000.000000	72.829	-119.3666
