* Measurement data measured by REW V5.20.13
* Source: EXCL: Microphone (Realtek(R) Audio), MICROPHONE (Master Volume), L, volume: 1.000
* Format: 256k Log Swept Sine, 1 sweep at -13.0 dBFS with no timing reference
* Dated: Oct 5, 2023 5:36:27 PM
* REW Settings:
*  C-weighting compensation: Off
*  Target level: 75.0 dB
* Note: Juzear Clear R
* Measurement: Juzear Clear R
* Smoothing: 1/12 octave
* Frequency Step: 1/48 octave
* Start Frequency: 20.000 Hz
*
* Freq(Hz)	SPL(dB)	Phase(degrees)
20.000000	110.408	-173.8717
20.299999	110.410	-174.5324
20.600000	110.414	-175.2030
20.900000	110.418	-175.8753
21.200001	110.422	-176.5369
21.400000	110.423	-176.9645
21.799999	110.425	-177.7782
22.000000	110.426	-178.1611
22.400000	110.428	-178.8793
22.700001	110.429	-179.3829
23.000000	110.431	-179.8659
23.299999	110.432	179.6641
23.600000	110.431	179.2034
24.000000	110.424	178.6027
24.299999	110.415	178.1658
24.700001	110.396	177.6058
25.000000	110.378	177.2023
25.400000	110.351	176.6798
25.799999	110.323	176.1630
26.200001	110.293	175.6421
26.500000	110.269	175.2464
26.900000	110.238	174.7112
27.200001	110.216	174.3025
27.600000	110.187	173.7436
28.000000	110.161	173.1646
28.500000	110.128	172.4180
29.000000	110.093	171.6749
29.500000	110.058	170.9707
30.000000	110.027	170.3221
30.400000	110.007	169.8355
30.700001	109.995	169.4813
31.100000	109.981	169.0142
31.500000	109.967	168.5491
32.000000	109.947	167.9727
32.500000	109.923	167.4088
33.000000	109.892	166.8633
33.500000	109.856	166.3401
34.000000	109.815	165.8439
34.500000	109.771	165.3757
35.000000	109.728	164.9262
35.500000	109.686	164.4749
36.000000	109.646	164.0055
36.500000	109.606	163.5191
37.000000	109.564	163.0299
37.500000	109.524	162.5473
38.200001	109.470	161.8722
38.700001	109.432	161.3826
39.500000	109.365	160.6253
40.000000	109.321	160.1968
40.599998	109.270	159.7234
41.200001	109.221	159.2671
41.799999	109.170	158.8276
42.500000	109.107	158.3687
43.099998	109.058	158.0214
43.700001	109.016	157.6771
44.400002	108.972	157.2427
45.000000	108.934	156.8440
45.500000	108.901	156.4997
46.200001	108.852	156.0019
46.799999	108.805	155.5751
47.500000	108.744	155.1147
48.200001	108.682	154.7110
48.700001	108.640	154.4437
49.400002	108.584	154.0699
50.000000	108.537	153.7352
50.799999	108.471	153.2694
51.500000	108.409	152.8679
52.200001	108.344	152.5041
53.000000	108.274	152.1365
53.799999	108.212	151.7799
54.500000	108.161	151.4603
55.200001	108.111	151.1414
56.000000	108.057	150.7737
57.000000	107.989	150.2852
58.000000	107.918	149.7720
59.000000	107.842	149.2504
60.000000	107.760	148.7341
60.799999	107.693	148.3471
61.500000	107.634	148.0355
62.200001	107.576	147.7468
63.000000	107.511	147.4388
64.000000	107.433	147.0736
65.000000	107.355	146.7151
66.000000	107.277	146.3596
67.000000	107.199	146.0066
68.000000	107.123	145.6508
69.000000	107.050	145.2963
70.000000	106.978	144.9595
71.000000	106.907	144.6581
72.000000	106.835	144.4011
73.000000	106.763	144.1877
74.000000	106.688	144.0001
75.000000	106.610	143.7910
76.199997	106.504	143.5030
77.500000	106.379	143.2543
78.800003	106.279	143.0422
80.000000	106.213	142.7115
81.199997	106.151	142.2441
82.500000	106.076	141.7033
83.800003	105.992	141.2072
85.000000	105.907	140.8129
86.199997	105.816	140.4989
87.500000	105.716	140.2523
88.500000	105.640	140.1084
90.000000	105.530	139.9275
91.199997	105.448	139.7799
92.500000	105.368	139.5684
93.800003	105.300	139.2498
95.000000	105.239	138.8766
96.199997	105.171	138.5021
97.500000	105.076	138.1995
98.800003	104.954	138.1521
100.000000	104.841	138.3447
101.500000	104.724	138.6208
103.000000	104.629	138.7545
104.400002	104.557	138.8459
106.000000	104.498	139.0840
107.500000	104.459	139.4448
109.000000	104.420	139.6784
110.599998	104.366	139.4854
112.000000	104.339	138.9196
113.800003	104.442	138.1491
115.000000	104.678	138.0115
117.199997	105.454	138.0943
118.000000	105.732	137.7838
120.599998	105.918	136.0201
122.000000	105.547	136.2868
124.099998	104.851	137.9828
125.000000	104.578	138.5818
126.500000	104.154	139.2399
128.000000	103.759	139.7687
131.500000	103.101	141.4558
132.000000	103.054	141.7639
134.000000	103.024	143.0680
136.000000	103.230	143.8902
138.000000	103.449	142.9896
140.000000	103.419	140.7356
143.000000	103.070	138.5996
145.000000	102.917	138.8598
147.500000	102.865	140.2980
150.000000	102.878	141.3815
152.500000	102.793	140.6116
155.000000	102.580	139.2641
157.500000	102.423	138.4243
160.000000	102.296	137.9510
162.500000	102.131	137.7030
165.000000	101.946	137.5717
167.500000	101.778	137.5206
170.000000	101.650	137.5099
172.500000	101.552	137.4809
175.000000	101.471	137.4928
177.500000	101.393	137.5751
180.000000	101.302	137.6812
182.500000	101.199	137.7545
185.000000	101.094	137.7818
187.500000	100.993	137.8108
190.000000	100.897	137.8676
192.500000	100.802	137.9299
195.000000	100.708	137.9969
197.500000	100.620	138.1093
200.000000	100.541	138.2885
203.000000	100.449	138.5446
206.000000	100.357	138.7652
209.000000	100.264	138.9125
212.000000	100.169	139.0186
214.000000	100.104	139.0956
218.000000	99.970	139.3171
220.000000	99.905	139.4608
224.000000	99.785	139.7629
227.000000	99.707	139.9846
230.000000	99.641	140.2147
233.000000	99.583	140.4572
236.000000	99.521	140.6995
240.000000	99.413	141.0114
243.000000	99.323	141.2314
247.000000	99.209	141.5057
250.000000	99.130	141.7266
254.000000	99.035	142.0679
258.000000	98.949	142.4248
262.000000	98.870	142.7262
265.000000	98.809	142.9126
269.000000	98.721	143.1589
272.000000	98.653	143.3686
276.000000	98.566	143.6819
280.000000	98.485	144.0155
285.000000	98.395	144.4241
290.000000	98.314	144.7528
295.000000	98.228	144.9902
300.000000	98.130	145.2339
304.000000	98.047	145.4753
307.000000	97.984	145.6758
311.000000	97.900	145.9479
315.000000	97.819	146.2218
320.000000	97.721	146.5985
325.000000	97.627	147.0294
330.000000	97.540	147.4827
335.000000	97.459	147.9246
340.000000	97.380	148.3370
345.000000	97.299	148.7293
350.000000	97.218	149.1305
355.000000	97.139	149.5484
360.000000	97.063	149.9733
365.000000	96.990	150.3970
370.000000	96.919	150.8202
375.000000	96.849	151.2493
382.000000	96.751	151.8612
387.000000	96.682	152.3009
395.000000	96.579	153.0092
400.000000	96.518	153.4475
406.000000	96.447	153.9609
412.000000	96.377	154.4623
418.000000	96.308	154.9727
425.000000	96.229	155.6102
431.000000	96.167	156.1844
437.000000	96.112	156.7515
444.000000	96.053	157.3773
450.000000	96.008	157.8679
455.000000	95.972	158.2338
462.000000	95.917	158.7007
468.000000	95.861	159.1124
475.000000	95.791	159.6403
482.000000	95.722	160.1943
487.000000	95.674	160.5911
494.000000	95.604	161.1635
500.000000	95.548	161.6854
508.000000	95.481	162.3986
515.000000	95.427	163.0067
522.000000	95.372	163.6033
530.000000	95.309	164.2997
538.000000	95.250	165.0167
545.000000	95.202	165.6476
552.000000	95.157	166.2762
560.000000	95.110	166.9818
570.000000	95.053	167.8400
580.000000	94.996	168.6981
590.000000	94.940	169.5684
600.000000	94.886	170.4601
608.000000	94.847	171.1793
615.000000	94.814	171.8039
622.000000	94.780	172.4344
630.000000	94.744	173.1830
640.000000	94.707	174.1568
650.000000	94.680	175.1406
660.000000	94.665	176.1038
670.000000	94.659	176.9888
680.000000	94.650	177.7898
690.000000	94.635	178.5611
700.000000	94.615	179.3504
710.000000	94.596	-179.8275
720.000000	94.581	-178.9893
730.000000	94.568	-178.1451
740.000000	94.556	-177.2907
750.000000	94.546	-176.4245
762.000000	94.539	-175.3761
775.000000	94.537	-174.2391
788.000000	94.543	-173.1048
800.000000	94.554	-172.0438
812.000000	94.576	-170.9655
825.000000	94.616	-169.8377
838.000000	94.663	-168.8213
850.000000	94.701	-167.9602
862.000000	94.732	-167.1138
875.000000	94.762	-166.1767
885.000000	94.786	-165.4369
900.000000	94.826	-164.3143
912.000000	94.860	-163.4063
925.000000	94.900	-162.4146
938.000000	94.944	-161.4233
950.000000	94.988	-160.5052
962.000000	95.033	-159.5657
975.000000	95.089	-158.5124
988.000000	95.155	-157.4413
1000.000000	95.228	-156.4631
1015.000000	95.336	-155.2774
1030.000000	95.458	-154.1604
1044.000000	95.582	-153.2166
1060.000000	95.724	-152.2755
1075.000000	95.849	-151.4716
1090.000000	95.969	-150.6825
1106.000000	96.098	-149.8456
1120.000000	96.214	-149.1253
1138.000000	96.371	-148.2211
1150.000000	96.481	-147.6360
1172.000000	96.697	-146.6206
1180.000000	96.781	-146.2775
1206.000000	97.074	-145.3607
1220.000000	97.235	-145.0531
1241.000000	97.459	-144.8156
1250.000000	97.546	-144.7695
1265.000000	97.681	-144.7378
1280.000000	97.801	-144.7425
1315.000000	98.039	-144.8010
1320.000000	98.068	-144.8108
1340.000000	98.176	-144.8429
1360.000000	98.266	-144.8346
1380.000000	98.342	-144.7422
1400.000000	98.413	-144.5312
1430.000000	98.533	-144.0674
1450.000000	98.620	-143.7476
1475.000000	98.730	-143.3323
1500.000000	98.846	-142.8786
1525.000000	98.974	-142.4192
1550.000000	99.112	-142.0044
1575.000000	99.256	-141.6615
1600.000000	99.402	-141.4270
1625.000000	99.536	-141.2899
1650.000000	99.654	-141.1754
1675.000000	99.763	-141.0306
1700.000000	99.867	-140.8484
1725.000000	99.968	-140.6413
1750.000000	100.064	-140.3912
1775.000000	100.161	-140.0600
1800.000000	100.270	-139.6588
1825.000000	100.396	-139.2661
1850.000000	100.533	-138.9379
1875.000000	100.672	-138.6803
1900.000000	100.809	-138.4740
1925.000000	100.943	-138.2848
1950.000000	101.081	-138.0929
1975.000000	101.225	-137.9279
2000.000000	101.374	-137.8365
2030.000000	101.550	-137.8296
2060.000000	101.717	-137.8952
2090.000000	101.876	-138.0062
2120.000000	102.025	-138.1462
2140.000000	102.118	-138.2346
2180.000000	102.303	-138.3539
2200.000000	102.399	-138.4052
2240.000000	102.595	-138.5692
2270.000000	102.738	-138.7471
2300.000000	102.876	-138.9325
2330.000000	103.015	-139.0982
2360.000000	103.164	-139.2765
2400.000000	103.371	-139.6503
2430.000000	103.523	-140.0695
2470.000000	103.706	-140.7852
2500.000000	103.822	-141.3960
2540.000000	103.944	-142.2036
2580.000000	104.041	-142.9049
2620.000000	104.125	-143.4882
2650.000000	104.180	-143.8377
2690.000000	104.251	-144.1290
2720.000000	104.317	-144.1999
2760.000000	104.442	-144.1989
2800.000000	104.614	-144.3101
2850.000000	104.856	-144.8888
2900.000000	105.067	-145.9828
2950.000000	105.211	-147.2894
3000.000000	105.301	-148.5097
3040.000000	105.351	-149.3534
3070.000000	105.382	-149.9017
3110.000000	105.426	-150.5377
3150.000000	105.477	-151.1336
3200.000000	105.543	-151.9389
3250.000000	105.592	-152.8229
3300.000000	105.612	-153.6701
3350.000000	105.610	-154.3469
3400.000000	105.606	-154.8414
3450.000000	105.605	-155.2032
3500.000000	105.608	-155.4295
3550.000000	105.626	-155.5312
3600.000000	105.665	-155.5811
3650.000000	105.718	-155.6466
3700.000000	105.778	-155.7283
3750.000000	105.841	-155.7771
3820.000000	105.949	-155.7708
3870.000000	106.044	-155.7309
3950.000000	106.244	-155.6750
4000.000000	106.401	-155.7516
4060.000000	106.608	-156.0580
4120.000000	106.819	-156.5950
4180.000000	107.028	-157.3197
4250.000000	107.266	-158.3646
4310.000000	107.465	-159.3797
4370.000000	107.669	-160.5131
4440.000000	107.915	-162.0933
4500.000000	108.120	-163.7439
4550.000000	108.276	-165.3415
4620.000000	108.455	-167.9070
4680.000000	108.558	-170.3372
4750.000000	108.611	-173.2798
4820.000000	108.598	-176.1604
4870.000000	108.562	-178.1024
4940.000000	108.501	179.2869
5000.000000	108.445	176.9348
5080.000000	108.311	173.4867
5150.000000	108.098	170.4527
5220.000000	107.803	167.7059
5300.000000	107.394	165.0728
5380.000000	106.938	162.9983
5450.000000	106.514	161.6260
5520.000000	106.076	160.6795
5600.000000	105.576	160.1074
5700.000000	104.978	160.0338
5800.000000	104.425	160.4941
5900.000000	103.915	161.3815
6000.000000	103.453	162.6849
6080.000000	103.126	163.9776
6150.000000	102.876	165.2303
6220.000000	102.657	166.5494
6300.000000	102.439	168.1172
6400.000000	102.215	170.1723
6500.000000	102.047	172.3068
6600.000000	101.936	174.4465
6700.000000	101.875	176.5409
6800.000000	101.859	178.6003
6900.000000	101.894	-179.3755
7000.000000	101.985	-177.4339
7100.000000	102.133	-175.6299
7200.000000	102.342	-174.0037
7300.000000	102.617	-172.6318
7400.000000	102.956	-171.6503
7500.000000	103.349	-171.2010
7620.000000	103.867	-171.5116
7750.000000	104.450	-173.1081
7880.000000	104.986	-176.2840
8000.000000	105.357	179.3444
8120.000000	105.542	173.8510
8250.000000	105.481	167.1879
8380.000000	105.122	160.5998
8500.000000	104.543	155.3407
8620.000000	103.783	151.3299
8750.000000	102.827	148.5536
8850.000000	102.044	147.5049
9000.000000	100.863	147.5035
9120.000000	99.961	148.5966
9250.000000	99.056	150.6206
9380.000000	98.238	153.3390
9500.000000	97.568	156.3200
9620.000000	96.980	159.6423
9750.000000	96.434	163.5549
9880.000000	95.983	167.7240
10000.000000	95.650	171.7287
10150.000000	95.342	176.8911
10300.000000	95.158	-177.8180
10440.000000	95.103	-172.8320
10600.000000	95.187	-167.1275
10750.000000	95.428	-161.8378
10900.000000	95.853	-156.7160
11060.000000	96.551	-151.5956
11200.000000	97.409	-147.6485
11380.000000	98.873	-143.9214
11500.000000	100.038	-142.8339
11720.000000	102.286	-145.8000
11800.000000	103.030	-149.0463
12060.000000	104.596	-168.3846
12200.000000	104.672	177.7163
12410.000000	103.704	158.8630
12500.000000	102.960	152.9264
12650.000000	101.427	146.4604
12800.000000	99.699	143.7452
13150.000000	95.808	146.3231
13200.000000	95.321	147.2689
13400.000000	93.591	151.8447
13600.000000	92.182	157.3623
13800.000000	91.060	163.4865
14000.000000	90.197	169.9184
14300.000000	89.325	179.6479
14500.000000	88.991	-174.0077
14750.000000	88.826	-166.3731
15000.000000	88.945	-159.2189
15250.000000	89.376	-152.8348
15500.000000	90.141	-147.7052
15750.000000	91.219	-144.5986
16000.000000	92.488	-144.6330
16250.000000	93.714	-149.0831
16500.000000	94.592	-158.6174
16750.000000	94.856	-172.1181
17000.000000	94.383	173.4643
17250.000000	93.243	161.2619
17500.000000	91.633	152.6005
17750.000000	89.772	147.0487
18000.000000	87.824	143.5832
18250.000000	85.863	141.4612
18500.000000	83.889	140.4699
18750.000000	81.870	140.7847
19000.000000	79.784	142.7337
19250.000000	77.625	146.6251
19500.000000	75.410	152.6440
19750.000000	73.177	160.7894
20000.000000	70.977	170.8552
