* Measurement data measured by REW V5.20.13
* Source: EXCL: Microphone (Realtek(R) Audio), MICROPHONE (Master Volume), L, volume: 1.000
* Format: 256k Log Swept Sine, 1 sweep at -13.0 dBFS with no timing reference
* Dated: Oct 5, 2023 5:34:28 PM
* REW Settings:
*  C-weighting compensation: Off
*  Target level: 75.0 dB
* Note: Juzear Clear L
* Measurement: Juzear Clear L
* Smoothing: 1/12 octave
* Frequency Step: 1/48 octave
* Start Frequency: 20.000 Hz
*
* Freq(Hz)	SPL(dB)	Phase(degrees)
20.000000	111.101	-177.0300
20.299999	111.107	-177.5293
20.600000	111.118	-178.0586
20.900000	111.131	-178.6224
21.200001	111.145	-179.2174
21.400000	111.153	-179.6286
21.799999	111.165	179.5192
22.000000	111.168	179.0836
22.400000	111.164	178.2127
22.700001	111.150	177.5909
23.000000	111.128	177.0358
23.299999	111.102	176.5760
23.600000	111.079	176.2142
24.000000	111.063	175.8454
24.299999	111.065	175.5897
24.700001	111.082	175.1919
25.000000	111.094	174.8284
25.400000	111.098	174.2993
25.799999	111.084	173.8314
26.200001	111.067	173.5077
26.500000	111.064	173.3411
26.900000	111.080	173.1261
27.200001	111.102	172.8932
27.600000	111.130	172.4415
28.000000	111.138	171.8902
28.500000	111.116	171.2560
29.000000	111.087	170.7930
29.500000	111.073	170.3647
30.000000	111.060	169.7752
30.400000	111.027	169.2068
30.700001	110.984	168.8033
31.100000	110.911	168.4001
31.500000	110.841	168.1685
32.000000	110.785	167.9672
32.500000	110.764	167.6006
33.000000	110.740	166.9597
33.500000	110.686	166.1965
34.000000	110.610	165.5450
34.500000	110.546	165.0789
35.000000	110.518	164.6695
35.500000	110.527	164.1184
36.000000	110.545	163.3352
36.500000	110.548	162.3826
37.000000	110.523	161.4166
37.500000	110.471	160.5858
38.200001	110.381	159.8250
38.700001	110.328	159.5798
39.500000	110.302	159.3979
40.000000	110.309	159.1732
40.599998	110.301	158.7144
41.200001	110.248	158.2508
41.799999	110.170	157.9858
42.500000	110.093	157.8520
43.099998	110.044	157.6589
43.700001	109.991	157.3477
44.400002	109.923	156.9556
45.000000	109.872	156.6234
45.500000	109.839	156.3088
46.200001	109.800	155.8029
46.799999	109.771	155.3473
47.500000	109.743	154.7986
48.200001	109.711	154.2222
48.700001	109.679	153.8294
49.400002	109.621	153.3759
50.000000	109.567	153.0814
50.799999	109.490	152.7563
51.500000	109.419	152.4838
52.200001	109.345	152.1899
53.000000	109.262	151.7717
53.799999	109.181	151.2072
54.500000	109.111	150.5591
55.200001	109.030	149.7827
56.000000	108.905	148.9397
57.000000	108.729	148.5034
58.000000	108.644	148.8049
59.000000	108.671	149.0612
60.000000	108.701	149.0203
60.799999	108.701	148.9647
61.500000	108.685	148.8635
62.200001	108.636	148.7173
63.000000	108.544	148.6895
64.000000	108.455	148.8990
65.000000	108.447	148.7081
66.000000	108.434	147.7699
67.000000	108.353	146.7004
68.000000	108.257	146.0560
69.000000	108.203	145.7820
70.000000	108.193	145.6688
71.000000	108.202	145.5232
72.000000	108.195	145.2958
73.000000	108.162	145.0539
74.000000	108.110	144.7445
75.000000	108.034	144.3553
76.199997	107.917	143.8807
77.500000	107.778	143.4305
78.800003	107.646	143.0228
80.000000	107.525	142.5627
81.199997	107.384	142.0438
82.500000	107.211	141.5754
83.800003	107.059	141.2868
85.000000	106.973	141.0721
86.199997	106.939	140.7383
87.500000	106.922	140.2784
88.500000	106.910	139.9658
90.000000	106.884	139.5378
91.199997	106.835	139.1927
92.500000	106.746	138.8217
93.800003	106.626	138.4929
95.000000	106.507	138.3036
96.199997	106.410	138.2242
97.500000	106.335	138.1629
98.800003	106.274	138.0750
100.000000	106.210	137.9817
101.500000	106.107	137.8154
103.000000	105.980	137.5772
104.400002	105.869	137.3789
106.000000	105.799	137.2060
107.500000	105.778	137.0560
109.000000	105.745	136.9941
110.599998	105.674	137.0148
112.000000	105.606	136.8809
113.800003	105.594	136.2151
115.000000	105.689	135.5671
117.199997	106.140	134.4649
118.000000	106.340	134.0229
120.599998	106.518	132.6296
122.000000	106.196	132.9741
124.099998	105.524	134.6022
125.000000	105.272	135.0971
126.500000	104.954	135.3078
128.000000	104.766	134.9971
131.500000	104.614	134.3416
132.000000	104.597	134.3395
134.000000	104.502	134.4109
136.000000	104.378	134.3686
138.000000	104.251	134.2495
140.000000	104.143	134.2303
143.000000	103.993	134.2912
145.000000	103.891	134.2588
147.500000	103.781	134.1609
150.000000	103.682	134.1308
152.500000	103.565	134.1775
155.000000	103.426	134.1681
157.500000	103.283	134.0320
160.000000	103.156	133.9241
162.500000	103.059	133.9198
165.000000	102.970	133.9536
167.500000	102.865	133.9905
170.000000	102.747	134.0139
172.500000	102.631	134.0403
175.000000	102.529	134.0956
177.500000	102.437	134.1921
180.000000	102.347	134.3105
182.500000	102.249	134.4219
185.000000	102.138	134.5232
187.500000	102.023	134.6385
190.000000	101.914	134.7897
192.500000	101.814	134.9980
195.000000	101.722	135.2830
197.500000	101.635	135.6499
200.000000	101.557	136.0750
203.000000	101.487	136.5799
206.000000	101.450	136.9589
209.000000	101.433	137.1285
212.000000	101.411	137.0792
214.000000	101.385	136.9609
218.000000	101.301	136.7072
220.000000	101.247	136.6240
224.000000	101.129	136.5191
227.000000	101.038	136.4639
230.000000	100.946	136.4443
233.000000	100.856	136.4938
236.000000	100.765	136.6087
240.000000	100.645	136.7271
243.000000	100.553	136.7228
247.000000	100.426	136.7208
250.000000	100.329	136.8060
254.000000	100.206	137.0305
258.000000	100.099	137.3182
262.000000	100.004	137.5911
265.000000	99.932	137.7653
269.000000	99.830	137.9820
272.000000	99.752	138.1624
276.000000	99.652	138.4484
280.000000	99.558	138.7683
285.000000	99.452	139.1378
290.000000	99.357	139.3954
295.000000	99.257	139.5594
300.000000	99.146	139.7203
304.000000	99.056	139.8854
307.000000	98.990	140.0309
311.000000	98.903	140.2425
315.000000	98.817	140.4723
320.000000	98.709	140.7918
325.000000	98.602	141.1355
330.000000	98.498	141.4813
335.000000	98.398	141.8221
340.000000	98.303	142.1627
345.000000	98.209	142.5109
350.000000	98.116	142.8757
355.000000	98.023	143.2516
360.000000	97.934	143.6250
365.000000	97.849	143.9916
370.000000	97.765	144.3590
375.000000	97.681	144.7307
382.000000	97.567	145.2534
387.000000	97.487	145.6320
395.000000	97.364	146.2543
400.000000	97.289	146.6454
406.000000	97.202	147.1132
412.000000	97.117	147.5865
418.000000	97.033	148.0740
425.000000	96.937	148.6628
431.000000	96.861	149.1732
437.000000	96.791	149.6758
444.000000	96.716	150.2483
450.000000	96.657	150.7100
455.000000	96.609	151.0542
462.000000	96.536	151.4887
468.000000	96.464	151.8698
475.000000	96.376	152.3572
482.000000	96.291	152.8672
487.000000	96.231	153.2341
494.000000	96.146	153.7736
500.000000	96.076	154.2738
508.000000	95.989	154.9525
515.000000	95.918	155.5207
522.000000	95.846	156.0790
530.000000	95.764	156.7468
538.000000	95.687	157.4462
545.000000	95.623	158.0604
552.000000	95.563	158.6707
560.000000	95.497	159.3561
570.000000	95.417	160.1924
580.000000	95.335	161.0324
590.000000	95.254	161.8899
600.000000	95.177	162.7780
608.000000	95.120	163.4942
615.000000	95.072	164.1138
622.000000	95.024	164.7389
630.000000	94.971	165.4811
640.000000	94.913	166.4411
650.000000	94.867	167.4078
660.000000	94.832	168.3611
670.000000	94.806	169.2477
680.000000	94.776	170.0570
690.000000	94.739	170.8402
700.000000	94.698	171.6450
710.000000	94.657	172.4857
720.000000	94.619	173.3426
730.000000	94.583	174.2034
740.000000	94.549	175.0721
750.000000	94.518	175.9512
762.000000	94.485	177.0202
775.000000	94.455	178.1986
788.000000	94.429	179.4004
800.000000	94.411	-179.4574
812.000000	94.403	-178.2943
825.000000	94.409	-177.0694
838.000000	94.422	-175.9227
850.000000	94.430	-174.8978
862.000000	94.436	-173.8540
875.000000	94.447	-172.7038
885.000000	94.458	-171.8285
900.000000	94.474	-170.5384
912.000000	94.482	-169.4676
925.000000	94.493	-168.2029
938.000000	94.518	-166.8202
950.000000	94.563	-165.4792
962.000000	94.635	-164.1419
975.000000	94.739	-162.7820
988.000000	94.858	-161.5732
1000.000000	94.967	-160.5798
1015.000000	95.101	-159.4171
1030.000000	95.240	-158.2821
1044.000000	95.381	-157.2703
1060.000000	95.553	-156.2242
1075.000000	95.717	-155.3452
1090.000000	95.884	-154.5491
1106.000000	96.066	-153.8059
1120.000000	96.227	-153.2574
1138.000000	96.430	-152.6936
1150.000000	96.563	-152.4018
1172.000000	96.794	-152.0057
1180.000000	96.875	-151.8954
1206.000000	97.129	-151.6814
1220.000000	97.254	-151.6887
1241.000000	97.412	-151.8145
1250.000000	97.469	-151.8808
1265.000000	97.552	-151.9771
1280.000000	97.624	-152.0402
1315.000000	97.761	-152.0341
1320.000000	97.779	-152.0191
1340.000000	97.843	-151.9334
1360.000000	97.899	-151.7962
1380.000000	97.949	-151.5797
1400.000000	98.002	-151.2628
1430.000000	98.102	-150.7072
1450.000000	98.176	-150.3851
1475.000000	98.262	-150.0244
1500.000000	98.340	-149.6507
1525.000000	98.414	-149.2183
1550.000000	98.491	-148.7007
1575.000000	98.583	-148.1215
1600.000000	98.691	-147.5793
1625.000000	98.803	-147.1277
1650.000000	98.911	-146.7229
1675.000000	99.016	-146.3162
1700.000000	99.124	-145.9050
1725.000000	99.236	-145.5199
1750.000000	99.346	-145.1615
1775.000000	99.454	-144.7896
1800.000000	99.567	-144.3960
1825.000000	99.688	-144.0351
1850.000000	99.809	-143.7319
1875.000000	99.926	-143.4579
1900.000000	100.040	-143.1725
1925.000000	100.155	-142.8469
1950.000000	100.282	-142.4874
1975.000000	100.424	-142.1565
2000.000000	100.575	-141.9268
2030.000000	100.755	-141.8053
2060.000000	100.923	-141.8015
2090.000000	101.078	-141.8619
2120.000000	101.221	-141.9492
2140.000000	101.310	-141.9969
2180.000000	101.487	-142.0215
2200.000000	101.579	-142.0214
2240.000000	101.770	-142.0885
2270.000000	101.910	-142.2093
2300.000000	102.043	-142.3549
2330.000000	102.174	-142.4917
2360.000000	102.310	-142.6367
2400.000000	102.494	-142.9237
2430.000000	102.626	-143.2252
2470.000000	102.788	-143.7073
2500.000000	102.895	-144.0966
2540.000000	103.020	-144.5841
2580.000000	103.140	-144.9993
2620.000000	103.260	-145.4058
2650.000000	103.344	-145.7266
2690.000000	103.443	-146.1162
2720.000000	103.514	-146.3224
2760.000000	103.620	-146.4828
2800.000000	103.753	-146.6197
2850.000000	103.950	-146.9743
2900.000000	104.146	-147.6720
2950.000000	104.306	-148.5815
3000.000000	104.434	-149.5116
3040.000000	104.520	-150.2404
3070.000000	104.577	-150.7746
3110.000000	104.644	-151.4578
3150.000000	104.704	-152.1130
3200.000000	104.770	-152.9197
3250.000000	104.821	-153.7109
3300.000000	104.851	-154.4415
3350.000000	104.867	-155.0362
3400.000000	104.880	-155.4836
3450.000000	104.896	-155.8085
3500.000000	104.916	-155.9951
3550.000000	104.953	-156.0556
3600.000000	105.013	-156.0698
3650.000000	105.092	-156.1220
3700.000000	105.180	-156.2363
3750.000000	105.272	-156.3802
3820.000000	105.409	-156.6017
3870.000000	105.512	-156.7547
3950.000000	105.703	-156.9523
4000.000000	105.848	-157.1105
4060.000000	106.045	-157.4379
4120.000000	106.255	-157.9491
4180.000000	106.473	-158.6460
4250.000000	106.731	-159.6998
4310.000000	106.954	-160.7840
4370.000000	107.185	-162.0648
4440.000000	107.456	-163.9442
4500.000000	107.669	-165.9742
4550.000000	107.815	-167.9655
4620.000000	107.939	-171.1207
4680.000000	107.945	-173.8971
4750.000000	107.845	-176.6376
4820.000000	107.741	-178.4574
4870.000000	107.745	-179.5050
4940.000000	107.850	178.4090
5000.000000	107.921	175.6777
5080.000000	107.844	171.2906
5150.000000	107.610	167.5634
5220.000000	107.266	164.3373
5300.000000	106.790	161.3461
5380.000000	106.262	159.0537
5450.000000	105.772	157.5848
5520.000000	105.268	156.6221
5600.000000	104.693	156.1231
5700.000000	104.007	156.2559
5800.000000	103.377	157.0105
5900.000000	102.800	158.2452
6000.000000	102.274	159.9421
6080.000000	101.898	161.5989
6150.000000	101.608	163.2217
6220.000000	101.353	164.9681
6300.000000	101.103	167.0998
6400.000000	100.855	169.9704
6500.000000	100.692	173.0264
6600.000000	100.624	176.1524
6700.000000	100.654	179.2253
6800.000000	100.782	-177.8533
6900.000000	101.008	-175.2141
7000.000000	101.319	-173.0200
7100.000000	101.692	-171.3890
7200.000000	102.104	-170.3484
7300.000000	102.539	-169.8901
7400.000000	102.990	-170.0238
7500.000000	103.445	-170.7653
7620.000000	103.987	-172.4814
7750.000000	104.555	-175.5107
7880.000000	105.047	179.9446
8000.000000	105.351	174.3278
8120.000000	105.436	167.6464
8250.000000	105.227	159.9056
8380.000000	104.689	152.6189
8500.000000	103.934	147.0954
8620.000000	103.001	143.1196
8750.000000	101.875	140.5895
8850.000000	100.978	139.7960
9000.000000	99.649	140.1937
9120.000000	98.646	141.5904
9250.000000	97.642	143.9242
9380.000000	96.733	146.9371
9500.000000	95.984	150.1745
9620.000000	95.319	153.7349
9750.000000	94.687	157.8860
9880.000000	94.147	162.2798
10000.000000	93.726	166.4907
10150.000000	93.300	171.9263
10300.000000	92.983	177.5202
10440.000000	92.788	-177.1745
10600.000000	92.683	-171.0441
10750.000000	92.708	-165.2587
10900.000000	92.865	-159.4822
11060.000000	93.199	-153.3675
11200.000000	93.664	-148.1327
11380.000000	94.558	-141.7497
11500.000000	95.379	-137.8772
11720.000000	97.401	-132.3737
11800.000000	98.282	-131.2220
12060.000000	101.320	-133.2475
12200.000000	102.758	-139.7054
12410.000000	104.117	-157.4988
12500.000000	104.297	-167.1806
12650.000000	104.004	176.6475
12800.000000	103.037	163.3839
13150.000000	99.213	149.9329
13200.000000	98.602	149.6313
13400.000000	96.250	150.7954
13600.000000	94.200	154.4305
13800.000000	92.536	159.4329
14000.000000	91.242	165.1885
14300.000000	89.892	174.4722
14500.000000	89.328	-179.2357
14750.000000	88.958	-171.5833
15000.000000	88.942	-164.4874
15250.000000	89.278	-158.3441
15500.000000	89.962	-153.7144
15750.000000	90.933	-151.4608
16000.000000	92.032	-152.7511
16250.000000	92.992	-158.6555
16500.000000	93.510	-169.1438
16750.000000	93.370	177.8178
17000.000000	92.528	165.5360
17250.000000	91.114	156.4616
17500.000000	89.356	151.0478
17750.000000	87.480	148.3799
18000.000000	85.643	147.2473
18250.000000	83.910	146.7361
18500.000000	82.262	146.3655
18750.000000	80.640	146.0519
19000.000000	78.972	146.0263
19250.000000	77.200	146.7328
19500.000000	75.286	148.7420
19750.000000	73.213	152.6761
20000.000000	70.980	159.0560
