* Measurement data measured by REW V5.20.13
* Source: Input device not selected, no input selected, L, volume: no control
* Format: 256k Log Swept Sine, 1 sweep at -12.0 dBFS with no timing reference
* Dated: Sep 12, 2023 12:06:43 PM
* REW Settings:
*  C-weighting compensation: Off
*  Target level: 75.0 dB
* Note: KBEAR Streamer L
* Measurement: KBEAR Streamer L
* Smoothing: 1/12 octave
* Frequency Step: 1/48 octave
* Start Frequency: 20.000 Hz
*
* Freq(Hz)	SPL(dB)	Phase(degrees)
20.000000	103.589	-173.2908
20.299999	103.520	-173.6604
20.600000	103.470	-173.8575
20.900000	103.449	-173.9691
21.200001	103.457	-174.1073
21.400000	103.473	-174.2614
21.799999	103.516	-174.7380
22.000000	103.536	-175.0545
22.400000	103.561	-175.7861
22.700001	103.565	-176.3658
23.000000	103.560	-176.9382
23.299999	103.547	-177.5028
23.600000	103.529	-178.0672
24.000000	103.491	-178.8235
24.299999	103.451	-179.3759
24.700001	103.382	179.9591
25.000000	103.323	179.5551
25.400000	103.249	179.1675
25.799999	103.196	178.9074
26.200001	103.177	178.6538
26.500000	103.182	178.3840
26.900000	103.199	177.8582
27.200001	103.208	177.3541
27.600000	103.201	176.6271
28.000000	103.177	175.9822
28.500000	103.145	175.4178
29.000000	103.144	175.0209
29.500000	103.167	174.5732
30.000000	103.179	174.0237
30.400000	103.166	173.6352
30.700001	103.148	173.4410
31.100000	103.127	173.3105
31.500000	103.119	173.2355
32.000000	103.117	173.0509
32.500000	103.097	172.7444
33.000000	103.051	172.4761
33.500000	103.004	172.3096
34.000000	102.979	172.0563
34.500000	102.953	171.5101
35.000000	102.886	170.7668
35.500000	102.774	170.1821
36.000000	102.668	169.9493
36.500000	102.618	169.8528
37.000000	102.618	169.5008
37.500000	102.607	168.8171
38.200001	102.516	167.9801
38.700001	102.450	167.8647
39.500000	102.471	167.7802
40.000000	102.503	167.2658
40.599998	102.456	166.4534
41.200001	102.342	166.2315
41.799999	102.294	166.6236
42.500000	102.392	166.6738
43.099998	102.483	165.6582
43.700001	102.463	164.0910
44.400002	102.304	162.4885
45.000000	102.118	161.6765
45.500000	101.966	161.4077
46.200001	101.801	161.5767
46.799999	101.741	161.9917
47.500000	101.757	162.2957
48.200001	101.790	162.1801
48.700001	101.791	161.9466
49.400002	101.748	161.6265
50.000000	101.680	161.4667
50.799999	101.569	161.5124
51.500000	101.494	161.7178
52.200001	101.463	161.7656
53.000000	101.443	161.3241
53.799999	101.384	160.5347
54.500000	101.302	159.9278
55.200001	101.229	159.5648
56.000000	101.189	159.3729
57.000000	101.206	159.2182
58.000000	101.248	158.9882
59.000000	101.258	158.7902
60.000000	101.235	158.7531
60.799999	101.205	158.7051
61.500000	101.168	158.5481
62.200001	101.118	158.2397
63.000000	101.045	157.6829
64.000000	100.923	156.8307
65.000000	100.798	156.1858
66.000000	100.743	155.9304
67.000000	100.794	155.8602
68.000000	100.903	155.7214
69.000000	100.986	155.6536
70.000000	101.029	155.9971
71.000000	101.072	156.7720
72.000000	101.167	157.4674
73.000000	101.245	156.9935
74.000000	101.072	155.4349
75.000000	100.593	154.6251
76.199997	99.981	155.4982
77.500000	99.661	156.9073
78.800003	99.650	157.4847
80.000000	99.721	157.3815
81.199997	99.793	157.2175
82.500000	99.863	157.0771
83.800003	99.900	156.8987
85.000000	99.901	156.7249
86.199997	99.869	156.5773
87.500000	99.791	156.5937
88.500000	99.717	156.8396
90.000000	99.652	157.3917
91.199997	99.659	157.1874
92.500000	99.573	155.7708
93.800003	99.283	154.4040
95.000000	98.984	154.2580
96.199997	98.821	154.8378
97.500000	98.798	155.3791
98.800003	98.826	155.4719
100.000000	98.846	155.2010
101.500000	98.854	154.5382
103.000000	98.838	153.7686
104.400002	98.779	153.2384
106.000000	98.637	152.8533
107.500000	98.428	152.2729
109.000000	98.195	151.3384
110.599998	98.095	150.8501
112.000000	98.295	151.9126
113.800003	98.922	156.9164
115.000000	99.529	163.2556
117.199997	101.003	179.3923
118.000000	101.563	-174.9410
120.599998	102.375	-169.1702
122.000000	101.793	-174.9670
124.099998	100.253	173.0345
125.000000	99.770	168.3956
126.500000	99.474	162.2328
128.000000	99.492	158.0116
131.500000	98.678	153.5318
132.000000	98.451	153.3059
134.000000	97.559	153.1312
136.000000	97.050	153.9517
138.000000	96.996	155.3541
140.000000	97.078	158.0314
143.000000	97.042	165.4255
145.000000	96.968	171.0984
147.500000	97.159	173.5137
150.000000	97.424	167.6989
152.500000	97.471	160.7676
155.000000	97.217	158.2891
157.500000	96.851	159.6580
160.000000	96.756	162.2917
162.500000	96.969	165.2414
165.000000	97.227	166.9033
167.500000	97.227	165.7033
170.000000	97.004	163.1454
172.500000	96.816	161.3577
175.000000	96.697	160.8686
177.500000	96.594	161.0882
180.000000	96.501	161.3654
182.500000	96.405	161.7021
185.000000	96.286	162.3826
187.500000	96.142	163.0861
190.000000	95.962	163.3612
192.500000	95.820	163.2493
195.000000	95.797	162.9733
197.500000	95.872	162.9890
200.000000	95.978	163.4843
203.000000	96.082	164.3582
206.000000	96.141	165.0399
209.000000	96.135	165.3089
212.000000	96.060	165.3123
214.000000	95.980	165.3275
218.000000	95.795	165.6564
220.000000	95.735	165.9096
224.000000	95.797	166.1857
227.000000	95.935	166.0938
230.000000	96.023	165.9163
233.000000	96.025	165.8749
236.000000	95.989	166.1976
240.000000	95.931	166.9792
243.000000	95.855	167.4363
247.000000	95.730	167.8402
250.000000	95.654	168.1353
254.000000	95.584	168.5747
258.000000	95.539	169.0369
262.000000	95.511	169.4778
265.000000	95.490	169.7739
269.000000	95.458	170.1546
272.000000	95.431	170.4538
276.000000	95.398	170.8719
280.000000	95.376	171.3022
285.000000	95.365	171.8386
290.000000	95.361	172.2940
295.000000	95.348	172.6335
300.000000	95.316	172.9553
304.000000	95.285	173.2559
307.000000	95.262	173.5065
311.000000	95.236	173.8553
315.000000	95.213	174.1990
320.000000	95.184	174.6196
325.000000	95.156	175.0622
330.000000	95.131	175.5284
335.000000	95.110	175.9894
340.000000	95.092	176.4279
345.000000	95.075	176.8543
350.000000	95.057	177.2877
355.000000	95.039	177.7276
360.000000	95.023	178.1689
365.000000	95.010	178.6116
370.000000	95.000	179.0458
375.000000	94.992	179.4620
382.000000	94.981	-179.9588
387.000000	94.972	-179.5330
395.000000	94.957	-178.8461
400.000000	94.949	-178.4211
406.000000	94.944	-177.9145
412.000000	94.940	-177.4172
418.000000	94.937	-176.9193
425.000000	94.933	-176.3111
431.000000	94.934	-175.7769
437.000000	94.941	-175.2544
444.000000	94.957	-174.6719
450.000000	94.977	-174.2122
455.000000	94.994	-173.8722
462.000000	95.009	-173.4509
468.000000	95.011	-173.0954
475.000000	95.010	-172.6478
482.000000	95.009	-172.1748
487.000000	95.009	-171.8307
494.000000	95.008	-171.3251
500.000000	95.009	-170.8579
508.000000	95.019	-170.2221
515.000000	95.031	-169.6904
522.000000	95.041	-169.1758
530.000000	95.052	-168.5753
538.000000	95.066	-167.9549
545.000000	95.083	-167.4104
552.000000	95.103	-166.8702
560.000000	95.128	-166.2680
570.000000	95.159	-165.5401
580.000000	95.188	-164.8104
590.000000	95.218	-164.0627
600.000000	95.251	-163.2959
608.000000	95.281	-162.6810
615.000000	95.308	-162.1506
622.000000	95.335	-161.6169
630.000000	95.368	-160.9849
640.000000	95.417	-160.1713
650.000000	95.477	-159.3556
660.000000	95.549	-158.5587
670.000000	95.628	-157.8376
680.000000	95.704	-157.2016
690.000000	95.773	-156.5959
700.000000	95.837	-155.9731
710.000000	95.903	-155.3196
720.000000	95.971	-154.6534
730.000000	96.043	-153.9910
740.000000	96.117	-153.3336
750.000000	96.194	-152.6775
762.000000	96.289	-151.8858
775.000000	96.398	-151.0181
788.000000	96.515	-150.1494
800.000000	96.629	-149.3426
812.000000	96.755	-148.5340
825.000000	96.908	-147.7158
838.000000	97.069	-147.0205
850.000000	97.213	-146.4621
862.000000	97.352	-145.9253
875.000000	97.500	-145.3362
885.000000	97.617	-144.8797
900.000000	97.796	-144.2134
912.000000	97.944	-143.6956
925.000000	98.110	-143.1535
938.000000	98.283	-142.6510
950.000000	98.447	-142.2344
962.000000	98.611	-141.8579
975.000000	98.791	-141.4816
988.000000	98.972	-141.1315
1000.000000	99.141	-140.8283
1015.000000	99.359	-140.4681
1030.000000	99.588	-140.1557
1044.000000	99.811	-139.9704
1060.000000	100.058	-139.9210
1075.000000	100.274	-139.9472
1090.000000	100.480	-139.9357
1106.000000	100.708	-139.8609
1120.000000	100.920	-139.7996
1138.000000	101.206	-139.8232
1150.000000	101.399	-139.9173
1172.000000	101.751	-140.2053
1180.000000	101.880	-140.3345
1206.000000	102.312	-140.8854
1220.000000	102.546	-141.3174
1241.000000	102.887	-142.1345
1250.000000	103.029	-142.5257
1265.000000	103.259	-143.2131
1280.000000	103.486	-143.9392
1315.000000	104.010	-145.8005
1320.000000	104.084	-146.0922
1340.000000	104.379	-147.3364
1360.000000	104.665	-148.6940
1380.000000	104.945	-150.1396
1400.000000	105.224	-151.6608
1430.000000	105.648	-154.2038
1450.000000	105.923	-156.1748
1475.000000	106.238	-158.9380
1500.000000	106.513	-161.9676
1525.000000	106.742	-165.2008
1550.000000	106.926	-168.5783
1575.000000	107.068	-172.0690
1600.000000	107.167	-175.7101
1625.000000	107.207	-179.4920
1650.000000	107.179	176.6996
1675.000000	107.086	172.9826
1700.000000	106.936	169.4297
1725.000000	106.735	166.0820
1750.000000	106.486	162.9946
1775.000000	106.201	160.2319
1800.000000	105.894	157.8002
1825.000000	105.578	155.6305
1850.000000	105.253	153.6750
1875.000000	104.918	151.9365
1900.000000	104.572	150.4349
1925.000000	104.222	149.1881
1950.000000	103.876	148.1875
1975.000000	103.544	147.3735
2000.000000	103.225	146.6769
2030.000000	102.853	145.9664
2060.000000	102.486	145.4073
2090.000000	102.126	145.0041
2120.000000	101.771	144.7551
2140.000000	101.536	144.6875
2180.000000	101.083	144.8144
2200.000000	100.870	144.9800
2240.000000	100.472	145.4117
2270.000000	100.189	145.8026
2300.000000	99.916	146.2760
2330.000000	99.655	146.8533
2360.000000	99.413	147.5073
2400.000000	99.121	148.4029
2430.000000	98.917	149.0628
2470.000000	98.655	149.9417
2500.000000	98.462	150.6188
2540.000000	98.208	151.5999
2580.000000	97.967	152.7034
2620.000000	97.746	153.8737
2650.000000	97.592	154.7687
2690.000000	97.397	156.0064
2720.000000	97.261	156.9887
2760.000000	97.098	158.3446
2800.000000	96.957	159.6892
2850.000000	96.800	161.3104
2900.000000	96.651	162.8939
2950.000000	96.504	164.5414
3000.000000	96.373	166.2847
3040.000000	96.282	167.7178
3070.000000	96.220	168.8205
3110.000000	96.150	170.3483
3150.000000	96.099	171.9274
3200.000000	96.070	173.8928
3250.000000	96.072	175.7644
3300.000000	96.090	177.5158
3350.000000	96.117	179.1940
3400.000000	96.154	-179.1737
3450.000000	96.195	-177.5706
3500.000000	96.242	-175.9352
3550.000000	96.304	-174.2385
3600.000000	96.390	-172.5275
3650.000000	96.500	-170.8616
3700.000000	96.627	-169.2530
3750.000000	96.770	-167.6741
3820.000000	97.000	-165.5133
3870.000000	97.186	-164.0004
3950.000000	97.538	-161.5974
4000.000000	97.802	-160.1684
4060.000000	98.160	-158.6334
4120.000000	98.556	-157.3332
4180.000000	98.989	-156.2749
4250.000000	99.539	-155.3780
4310.000000	100.052	-154.9129
4370.000000	100.612	-154.8013
4440.000000	101.319	-155.3176
4500.000000	101.950	-156.4814
4550.000000	102.476	-158.0431
4620.000000	103.175	-161.2300
4680.000000	103.706	-164.9017
4750.000000	104.210	-170.1969
4820.000000	104.552	-176.4255
4870.000000	104.676	178.7059
4940.000000	104.664	171.6324
5000.000000	104.477	165.6691
5080.000000	103.986	158.4392
5150.000000	103.369	153.2220
5220.000000	102.634	149.2224
5300.000000	101.717	146.0972
5380.000000	100.778	144.3196
5450.000000	99.970	143.6841
5520.000000	99.191	143.7859
5600.000000	98.355	144.6679
5700.000000	97.415	146.6460
5800.000000	96.597	149.2913
5900.000000	95.887	152.4234
6000.000000	95.269	156.0532
6080.000000	94.850	159.3545
6150.000000	94.556	162.5172
6220.000000	94.355	165.7895
6300.000000	94.240	169.2994
6400.000000	94.174	173.0101
6500.000000	94.106	176.4309
6600.000000	94.063	-179.9711
6700.000000	94.089	-176.1897
6800.000000	94.205	-172.3257
6900.000000	94.425	-168.4760
7000.000000	94.761	-164.7530
7100.000000	95.219	-161.2614
7200.000000	95.816	-158.0889
7300.000000	96.572	-155.3752
7400.000000	97.505	-153.3820
7500.000000	98.607	-152.5005
7620.000000	100.085	-153.6703
7750.000000	101.678	-159.0415
7880.000000	102.912	-169.9561
8000.000000	103.417	175.6869
8120.000000	103.154	160.2308
8250.000000	102.061	146.4031
8380.000000	100.380	137.9009
8500.000000	98.584	134.5682
8620.000000	96.786	134.4034
8750.000000	95.006	136.5101
8850.000000	93.805	139.1668
9000.000000	92.289	144.2322
9120.000000	91.304	148.8817
9250.000000	90.433	154.3125
9380.000000	89.741	160.0636
9500.000000	89.250	165.5797
9620.000000	88.896	171.2386
9750.000000	88.670	177.5157
9880.000000	88.631	-176.0847
10000.000000	88.797	-170.1404
10150.000000	89.358	-162.8249
10300.000000	90.415	-156.0810
10440.000000	91.860	-151.1903
10600.000000	93.834	-149.0629
10750.000000	95.607	-152.5902
10900.000000	96.898	-162.6839
11060.000000	97.442	-178.9293
11200.000000	97.150	165.9091
11380.000000	95.886	150.0321
11500.000000	94.651	142.8639
11720.000000	91.958	136.2860
11800.000000	90.922	135.5924
12060.000000	87.628	137.6707
12200.000000	85.994	140.7228
12410.000000	83.807	146.8822
12500.000000	82.971	149.9291
12650.000000	81.706	155.3928
12800.000000	80.591	161.2264
13150.000000	78.494	175.7702
13200.000000	78.246	177.9210
13400.000000	77.363	-173.3625
13600.000000	76.647	-164.5182
13800.000000	76.094	-155.6036
14000.000000	75.699	-146.6472
14300.000000	75.410	-133.2498
14500.000000	75.435	-124.4461
14750.000000	75.760	-113.7150
15000.000000	76.510	-103.5155
15250.000000	77.808	-94.3862
15500.000000	79.685	-87.4374
15750.000000	81.903	-84.8499
16000.000000	83.940	-89.7562
16250.000000	85.188	-103.7607
16500.000000	85.211	-122.7545
16750.000000	83.980	-138.2962
17000.000000	81.856	-145.5122
17250.000000	79.357	-145.4383
17500.000000	76.971	-141.1439
17750.000000	75.077	-135.2103
18000.000000	73.859	-129.6006
18250.000000	73.264	-126.0550
18500.000000	73.031	-126.1414
18750.000000	72.779	-130.5399
19000.000000	72.136	-137.9160
19250.000000	70.878	-144.9571
19500.000000	68.973	-148.4901
19750.000000	66.538	-148.0338
20000.000000	63.746	-147.6247
