* Measurement data measured by REW V5.20.13
* Source: EXCL: Mic in at front panel (Pink) (Realtek(R) Audio), MICROPHONE (Master Volume), L, volume: 0.250
* Format: 256k Log Swept Sine, 1 sweep at -12.0 dBFS with no timing reference
* Dated: Jun 5, 2023 12:17:20 PM
* REW Settings:
*  C-weighting compensation: Off
*  Target level: 75.0 dB
* Note: KZ AS24 bass boost
* Measurement: kz as 24 bass
* Smoothing: 1/12 octave
* Frequency Step: 1/48 octave
* Start Frequency: 20.000 Hz
*
* Freq(Hz)	SPL(dB)	Phase(degrees)
20.000000	85.476	9.7150
20.299999	85.493	9.2643
20.600000	85.508	8.8228
20.900000	85.522	8.3907
21.200001	85.535	7.9677
21.400000	85.544	7.6894
21.799999	85.560	7.1385
22.000000	85.568	6.8640
22.400000	85.582	6.3136
22.700001	85.592	5.8992
23.000000	85.601	5.4854
23.299999	85.608	5.0764
23.600000	85.614	4.6760
24.000000	85.622	4.1591
24.299999	85.628	3.7833
24.700001	85.638	3.2924
25.000000	85.647	2.9258
25.400000	85.660	2.4335
25.799999	85.672	1.9360
26.200001	85.683	1.4387
26.500000	85.690	1.0706
26.900000	85.698	0.5914
27.200001	85.704	0.2421
27.600000	85.710	-0.2109
28.000000	85.717	-0.6533
28.500000	85.725	-1.1984
29.000000	85.732	-1.7391
29.500000	85.737	-2.2745
30.000000	85.739	-2.8018
30.400000	85.741	-3.2179
30.700001	85.741	-3.5281
31.100000	85.742	-3.9412
31.500000	85.742	-4.3546
32.000000	85.741	-4.8707
32.500000	85.739	-5.3828
33.000000	85.736	-5.8899
33.500000	85.734	-6.3939
34.000000	85.730	-6.8962
34.500000	85.726	-7.3929
35.000000	85.720	-7.8774
35.500000	85.714	-8.3474
36.000000	85.707	-8.8076
36.500000	85.699	-9.2651
37.000000	85.688	-9.7203
37.500000	85.673	-10.1652
38.200001	85.645	-10.7491
38.700001	85.620	-11.1234
39.500000	85.580	-11.6100
40.000000	85.564	-11.8481
40.599998	85.563	-12.1387
41.200001	85.575	-12.5437
41.799999	85.583	-13.0863
42.500000	85.572	-13.7620
43.099998	85.555	-14.2618
43.700001	85.547	-14.7090
44.400002	85.551	-15.2628
45.000000	85.557	-15.7898
45.500000	85.560	-16.2491
46.200001	85.561	-16.9192
46.799999	85.553	-17.5137
47.500000	85.527	-18.1591
48.200001	85.493	-18.6780
48.700001	85.472	-18.9867
49.400002	85.451	-19.4047
50.000000	85.434	-19.7812
50.799999	85.410	-20.2991
51.500000	85.389	-20.7667
52.200001	85.366	-21.2588
53.000000	85.338	-21.8377
53.799999	85.309	-22.4103
54.500000	85.285	-22.8990
55.200001	85.263	-23.3698
56.000000	85.242	-23.8839
57.000000	85.221	-24.5193
58.000000	85.196	-25.1647
59.000000	85.160	-25.7837
60.000000	85.118	-26.3682
60.799999	85.083	-26.8413
61.500000	85.052	-27.2717
62.200001	85.019	-27.7141
63.000000	84.984	-28.2256
64.000000	84.943	-28.8557
65.000000	84.909	-29.4471
66.000000	84.880	-29.9766
67.000000	84.850	-30.4329
68.000000	84.815	-30.8179
69.000000	84.769	-31.1519
70.000000	84.710	-31.4670
71.000000	84.646	-31.7834
72.000000	84.591	-32.1805
73.000000	84.547	-32.7606
74.000000	84.506	-33.4542
75.000000	84.480	-34.1526
76.199997	84.469	-35.0436
77.500000	84.432	-35.9446
78.800003	84.367	-36.4269
80.000000	84.316	-36.6531
81.199997	84.265	-36.9715
82.500000	84.196	-37.4931
83.800003	84.122	-38.0880
85.000000	84.071	-38.5797
86.199997	84.047	-38.9802
87.500000	84.041	-39.3039
88.500000	84.039	-39.5218
90.000000	84.004	-40.0245
91.199997	83.910	-40.5790
92.500000	83.754	-41.1096
93.800003	83.605	-41.5180
95.000000	83.512	-41.8400
96.199997	83.475	-42.1218
97.500000	83.494	-42.3828
98.800003	83.547	-42.6185
100.000000	83.601	-42.8627
101.500000	83.650	-43.2880
103.000000	83.659	-43.9353
104.400002	83.630	-44.7031
106.000000	83.572	-45.6309
107.500000	83.517	-46.4849
109.000000	83.465	-47.2998
110.599998	83.408	-48.0948
112.000000	83.354	-48.7284
113.800003	83.280	-49.5126
115.000000	83.227	-50.0529
117.199997	83.114	-51.0772
118.000000	83.067	-51.4233
120.599998	82.910	-52.2645
122.000000	82.840	-52.5795
124.099998	82.753	-53.0447
125.000000	82.717	-53.2549
126.500000	82.661	-53.6194
128.000000	82.607	-54.0089
131.500000	82.471	-54.9459
132.000000	82.450	-55.0715
134.000000	82.367	-55.5682
136.000000	82.285	-56.1019
138.000000	82.204	-56.6808
140.000000	82.119	-57.2656
143.000000	81.986	-58.0347
145.000000	81.903	-58.4293
147.500000	81.822	-58.9015
150.000000	81.750	-59.4799
152.500000	81.667	-60.1271
155.000000	81.569	-60.6907
157.500000	81.471	-61.1420
160.000000	81.382	-61.5824
162.500000	81.302	-62.0748
165.000000	81.228	-62.6082
167.500000	81.153	-63.1338
170.000000	81.075	-63.6050
172.500000	80.996	-64.0294
175.000000	80.922	-64.4468
177.500000	80.850	-64.8812
180.000000	80.777	-65.3219
182.500000	80.706	-65.7435
185.000000	80.635	-66.1477
187.500000	80.563	-66.5642
190.000000	80.489	-67.0045
192.500000	80.414	-67.4510
195.000000	80.338	-67.8861
197.500000	80.264	-68.2998
200.000000	80.190	-68.6851
203.000000	80.105	-69.1138
206.000000	80.025	-69.5317
209.000000	79.946	-69.9666
212.000000	79.866	-70.4135
214.000000	79.810	-70.7021
218.000000	79.698	-71.2183
220.000000	79.645	-71.4462
224.000000	79.546	-71.8899
227.000000	79.476	-72.2433
230.000000	79.407	-72.6118
233.000000	79.341	-72.9755
236.000000	79.278	-73.3268
240.000000	79.195	-73.7921
243.000000	79.130	-74.1409
247.000000	79.038	-74.5815
250.000000	78.968	-74.8729
254.000000	78.879	-75.1999
258.000000	78.805	-75.5022
262.000000	78.741	-75.8548
265.000000	78.692	-76.1564
269.000000	78.622	-76.5593
272.000000	78.567	-76.8353
276.000000	78.496	-77.1636
280.000000	78.432	-77.4640
285.000000	78.363	-77.8435
290.000000	78.305	-78.2960
295.000000	78.243	-78.8289
300.000000	78.168	-79.3541
304.000000	78.106	-79.7313
307.000000	78.059	-79.9944
311.000000	77.998	-80.3362
315.000000	77.938	-80.6755
320.000000	77.862	-81.0734
325.000000	77.788	-81.4200
330.000000	77.720	-81.7341
335.000000	77.658	-82.0471
340.000000	77.600	-82.3730
345.000000	77.542	-82.7026
350.000000	77.483	-83.0196
355.000000	77.426	-83.3194
360.000000	77.371	-83.6042
365.000000	77.318	-83.8756
370.000000	77.267	-84.1351
375.000000	77.217	-84.3844
382.000000	77.152	-84.7180
387.000000	77.107	-84.9454
395.000000	77.041	-85.2921
400.000000	77.002	-85.5001
406.000000	76.960	-85.7440
412.000000	76.919	-85.9846
418.000000	76.879	-86.2090
425.000000	76.837	-86.4312
431.000000	76.810	-86.6022
437.000000	76.790	-86.7872
444.000000	76.774	-87.0386
450.000000	76.764	-87.2936
455.000000	76.756	-87.5471
462.000000	76.737	-87.9475
468.000000	76.711	-88.2766
475.000000	76.677	-88.6022
482.000000	76.644	-88.8856
487.000000	76.622	-89.0778
494.000000	76.589	-89.3186
500.000000	76.563	-89.4866
508.000000	76.536	-89.6906
515.000000	76.516	-89.8813
522.000000	76.495	-90.0726
530.000000	76.471	-90.2606
538.000000	76.451	-90.4163
545.000000	76.437	-90.5436
552.000000	76.427	-90.6647
560.000000	76.419	-90.8039
570.000000	76.411	-90.9897
580.000000	76.402	-91.1632
590.000000	76.394	-91.3053
600.000000	76.387	-91.4073
608.000000	76.386	-91.4734
615.000000	76.387	-91.5307
622.000000	76.388	-91.5775
630.000000	76.390	-91.5978
640.000000	76.401	-91.5803
650.000000	76.422	-91.5455
660.000000	76.455	-91.5215
670.000000	76.496	-91.5662
680.000000	76.534	-91.6848
690.000000	76.564	-91.8162
700.000000	76.589	-91.9109
710.000000	76.614	-91.9594
720.000000	76.643	-91.9834
730.000000	76.673	-91.9956
740.000000	76.705	-91.9933
750.000000	76.739	-91.9726
762.000000	76.784	-91.9230
775.000000	76.838	-91.8445
788.000000	76.897	-91.7465
800.000000	76.958	-91.6293
812.000000	77.030	-91.4902
825.000000	77.122	-91.3779
838.000000	77.221	-91.3685
850.000000	77.306	-91.4224
862.000000	77.385	-91.4771
875.000000	77.467	-91.5042
885.000000	77.532	-91.5020
900.000000	77.631	-91.4850
912.000000	77.714	-91.4609
925.000000	77.808	-91.4287
938.000000	77.908	-91.4117
950.000000	78.003	-91.4226
962.000000	78.097	-91.4521
975.000000	78.198	-91.4894
988.000000	78.300	-91.5234
1000.000000	78.394	-91.5455
1015.000000	78.516	-91.5469
1030.000000	78.650	-91.5427
1044.000000	78.786	-91.5968
1060.000000	78.945	-91.7842
1075.000000	79.086	-92.0474
1090.000000	79.219	-92.3364
1106.000000	79.354	-92.6498
1120.000000	79.467	-92.9250
1138.000000	79.608	-93.2714
1150.000000	79.700	-93.4932
1172.000000	79.868	-93.8727
1180.000000	79.930	-94.0010
1206.000000	80.144	-94.4486
1220.000000	80.261	-94.7642
1241.000000	80.425	-95.3225
1250.000000	80.489	-95.5701
1265.000000	80.591	-95.9718
1280.000000	80.686	-96.3499
1315.000000	80.897	-97.1261
1320.000000	80.927	-97.2299
1340.000000	81.044	-97.6376
1360.000000	81.155	-98.0191
1380.000000	81.262	-98.3419
1400.000000	81.372	-98.5847
1430.000000	81.558	-98.8957
1450.000000	81.690	-99.1603
1475.000000	81.851	-99.5421
1500.000000	82.005	-99.9203
1525.000000	82.155	-100.2556
1550.000000	82.307	-100.5247
1575.000000	82.472	-100.7431
1600.000000	82.653	-101.0065
1625.000000	82.835	-101.3649
1650.000000	83.010	-101.7634
1675.000000	83.182	-102.1477
1700.000000	83.354	-102.5072
1725.000000	83.530	-102.8548
1750.000000	83.710	-103.1887
1775.000000	83.899	-103.4979
1800.000000	84.104	-103.8175
1825.000000	84.323	-104.2349
1850.000000	84.544	-104.7888
1875.000000	84.757	-105.4443
1900.000000	84.962	-106.1453
1925.000000	85.161	-106.8461
1950.000000	85.364	-107.5369
1975.000000	85.577	-108.2627
2000.000000	85.795	-109.0826
2030.000000	86.054	-110.2095
2060.000000	86.305	-111.4618
2090.000000	86.545	-112.8158
2120.000000	86.771	-114.2585
2140.000000	86.913	-115.2496
2180.000000	87.187	-117.2562
2200.000000	87.322	-118.2932
2240.000000	87.583	-120.5183
2270.000000	87.761	-122.3193
2300.000000	87.919	-124.1872
2330.000000	88.060	-126.0840
2360.000000	88.189	-128.0198
2400.000000	88.336	-130.7197
2430.000000	88.419	-132.8292
2470.000000	88.487	-135.6865
2500.000000	88.503	-137.8046
2540.000000	88.479	-140.4835
2580.000000	88.421	-142.9042
2620.000000	88.347	-145.0782
2650.000000	88.287	-146.5682
2690.000000	88.210	-148.3809
2720.000000	88.161	-149.6388
2760.000000	88.117	-151.2959
2800.000000	88.084	-153.0681
2850.000000	88.023	-155.4861
2900.000000	87.911	-157.9661
2950.000000	87.744	-160.2505
3000.000000	87.548	-162.2206
3040.000000	87.380	-163.5911
3070.000000	87.250	-164.5010
3110.000000	87.075	-165.5460
3150.000000	86.907	-166.4213
3200.000000	86.712	-167.3585
3250.000000	86.529	-168.1835
3300.000000	86.347	-168.8837
3350.000000	86.167	-169.3855
3400.000000	85.999	-169.6606
3450.000000	85.851	-169.7119
3500.000000	85.736	-169.5219
3550.000000	85.681	-169.1574
3600.000000	85.701	-168.8232
3650.000000	85.791	-168.7759
3700.000000	85.921	-169.2070
3750.000000	86.055	-170.1818
3820.000000	86.184	-172.3736
3870.000000	86.200	-174.3111
3950.000000	86.083	-177.4559
4000.000000	85.942	-179.2339
4060.000000	85.724	178.9189
4120.000000	85.471	177.4392
4180.000000	85.204	176.3427
4250.000000	84.895	175.4956
4310.000000	84.647	175.1042
4370.000000	84.431	174.9471
4440.000000	84.227	174.8898
4500.000000	84.086	174.8345
4550.000000	83.988	174.7458
4620.000000	83.869	174.5113
4680.000000	83.771	174.1998
4750.000000	83.656	173.7201
4820.000000	83.528	173.1036
4870.000000	83.421	172.5925
4940.000000	83.234	171.8650
5000.000000	83.038	171.3329
5080.000000	82.726	170.9548
5150.000000	82.425	171.0930
5220.000000	82.127	171.7064
5300.000000	81.820	172.9220
5380.000000	81.569	174.5751
5450.000000	81.407	176.2926
5520.000000	81.306	178.2152
5600.000000	81.280	-179.4221
5700.000000	81.394	-176.4669
5800.000000	81.663	-173.8335
5900.000000	82.057	-171.7776
6000.000000	82.546	-170.4404
6080.000000	82.984	-169.9880
6150.000000	83.383	-170.1024
6220.000000	83.780	-170.7206
6300.000000	84.209	-172.0245
6400.000000	84.677	-174.4327
6500.000000	85.047	-177.5089
6600.000000	85.304	179.0009
6700.000000	85.446	175.3990
6800.000000	85.492	171.9799
6900.000000	85.482	168.8959
7000.000000	85.453	166.1093
7100.000000	85.422	163.4811
7200.000000	85.396	160.8784
7300.000000	85.371	158.1898
7400.000000	85.335	155.3183
7500.000000	85.269	152.2326
7620.000000	85.128	148.3455
7750.000000	84.890	144.0909
7880.000000	84.568	139.9022
8000.000000	84.197	136.1680
8120.000000	83.762	132.6001
8250.000000	83.217	128.8885
8380.000000	82.568	125.4332
8500.000000	81.856	122.7822
8620.000000	81.045	120.9690
8750.000000	80.091	120.1795
8850.000000	79.336	120.4633
9000.000000	78.245	122.1995
9120.000000	77.460	124.4170
9250.000000	76.722	127.3310
9380.000000	76.105	130.5762
9500.000000	75.643	133.7109
9620.000000	75.280	136.8281
9750.000000	74.988	140.0283
9880.000000	74.787	142.8666
10000.000000	74.655	145.0154
10150.000000	74.513	146.9650
10300.000000	74.335	148.1234
10440.000000	74.079	148.6730
10600.000000	73.618	149.2279
10750.000000	72.998	150.4658
10900.000000	72.229	153.1894
11060.000000	71.357	158.2411
11200.000000	70.695	164.3336
11380.000000	70.178	173.5676
11500.000000	70.100	179.9969
11720.000000	70.488	-168.8624
11800.000000	70.772	-165.2303
12060.000000	72.092	-155.7100
12200.000000	72.971	-152.4763
12410.000000	74.315	-151.0341
12500.000000	74.830	-151.8801
12650.000000	75.507	-155.2385
12800.000000	75.872	-160.5042
13150.000000	75.290	-173.4375
13200.000000	75.060	-174.6702
13400.000000	73.898	-177.0160
13600.000000	72.561	-175.2668
13800.000000	71.326	-170.3073
14000.000000	70.429	-163.4410
14300.000000	69.966	-152.5419
14500.000000	70.167	-146.5848
14750.000000	70.684	-141.9648
15000.000000	71.149	-140.7573
15250.000000	71.312	-141.8431
15500.000000	71.126	-143.2521
15750.000000	70.717	-143.4700
16000.000000	70.319	-142.2289
16250.000000	70.159	-140.4755
16500.000000	70.328	-139.9711
16750.000000	70.673	-142.6919
17000.000000	70.855	-149.7167
17250.000000	70.528	-159.9097
17500.000000	69.524	-170.0857
17750.000000	67.888	-177.2994
18000.000000	65.812	179.3246
18250.000000	63.500	179.2498
18500.000000	61.066	-177.7537
18750.000000	58.567	-171.4478
19000.000000	56.146	-162.7164
19250.000000	54.037	-153.8973
19500.000000	52.252	-146.1024
19750.000000	50.531	-137.8937
20000.000000	48.709	-127.4830
