* Measurement data measured by REW V5.20.13
* Source: EXCL: Microphone (Realtek(R) Audio), MICROPHONE (Master Volume), L, volume: 1.000
* Format: 256k Log Swept Sine, 1 sweep at -12.0 dBFS with no timing reference
* Dated: Sep 8, 2023 3:54:46 PM
* REW Settings:
*  C-weighting compensation: Off
*  Target level: 75.0 dB
* Note: KZ Castro 1000 L
* Measurement: KZ Castro 1000
* Smoothing: 1/12 octave
* Frequency Step: 1/48 octave
* Start Frequency: 20.000 Hz
*
* Freq(Hz)	SPL(dB)	Phase(degrees)
20.000000	106.424	-123.3707
20.299999	106.533	-124.1223
20.600000	106.628	-124.9231
20.900000	106.707	-125.7144
21.200001	106.775	-126.4406
21.400000	106.818	-126.8765
21.799999	106.905	-127.6546
22.000000	106.952	-128.0164
22.400000	107.053	-128.7410
22.700001	107.130	-129.3161
23.000000	107.202	-129.9238
23.299999	107.268	-130.5433
23.600000	107.326	-131.1514
24.000000	107.395	-131.9166
24.299999	107.446	-132.4535
24.700001	107.516	-133.1421
25.000000	107.570	-133.6617
25.400000	107.642	-134.3818
25.799999	107.710	-135.1356
26.200001	107.772	-135.9057
26.500000	107.814	-136.4799
26.900000	107.866	-137.2294
27.200001	107.903	-137.7761
27.600000	107.952	-138.4846
28.000000	108.001	-139.1720
28.500000	108.063	-140.0041
29.000000	108.128	-140.8104
29.500000	108.196	-141.6002
30.000000	108.267	-142.3870
30.400000	108.325	-143.0232
30.700001	108.368	-143.5076
31.100000	108.423	-144.1646
31.500000	108.474	-144.8314
32.000000	108.529	-145.6646
32.500000	108.573	-146.4700
33.000000	108.609	-147.2159
33.500000	108.642	-147.8889
34.000000	108.679	-148.5064
34.500000	108.723	-149.1137
35.000000	108.772	-149.7568
35.500000	108.818	-150.4566
36.000000	108.856	-151.1930
36.500000	108.884	-151.9216
37.000000	108.905	-152.6008
37.500000	108.926	-153.2181
38.200001	108.965	-154.0138
38.700001	109.000	-154.5778
39.500000	109.061	-155.5389
40.000000	109.094	-156.1714
40.599998	109.125	-156.9222
41.200001	109.150	-157.6228
41.799999	109.177	-158.2732
42.500000	109.214	-159.0228
43.099998	109.247	-159.7058
43.700001	109.275	-160.4318
44.400002	109.298	-161.2990
45.000000	109.311	-162.0290
45.500000	109.319	-162.6197
46.200001	109.328	-163.4211
46.799999	109.335	-164.0869
47.500000	109.341	-164.8346
48.200001	109.346	-165.5321
48.700001	109.352	-165.9871
49.400002	109.371	-166.5805
50.000000	109.398	-167.1100
50.799999	109.435	-167.9263
51.500000	109.450	-168.6799
52.200001	109.450	-169.3324
53.000000	109.458	-169.9249
53.799999	109.484	-170.5003
54.500000	109.510	-171.0735
55.200001	109.527	-171.6874
56.000000	109.533	-172.3875
57.000000	109.525	-173.2445
58.000000	109.495	-174.0483
59.000000	109.461	-174.7372
60.000000	109.447	-175.4212
60.799999	109.447	-176.0898
61.500000	109.444	-176.7611
62.200001	109.436	-177.4540
63.000000	109.425	-178.2135
64.000000	109.419	-179.0889
65.000000	109.422	-179.8987
66.000000	109.428	179.3441
67.000000	109.432	178.6528
68.000000	109.437	178.0154
69.000000	109.442	177.3370
70.000000	109.434	176.5705
71.000000	109.408	175.7915
72.000000	109.374	175.0772
73.000000	109.343	174.4327
74.000000	109.321	173.8291
75.000000	109.302	173.2773
76.199997	109.289	172.7226
77.500000	109.298	172.1208
78.800003	109.308	171.2884
80.000000	109.287	170.3817
81.199997	109.244	169.4973
82.500000	109.192	168.5746
83.800003	109.140	167.6632
85.000000	109.094	166.8568
86.199997	109.053	166.0930
87.500000	109.012	165.2986
88.500000	108.976	164.7162
90.000000	108.909	163.9324
91.199997	108.840	163.4061
92.500000	108.760	162.9310
93.800003	108.694	162.4692
95.000000	108.661	161.8660
96.199997	108.640	160.9883
97.500000	108.611	159.8647
98.800003	108.567	158.8324
100.000000	108.522	158.1514
101.500000	108.479	157.6412
103.000000	108.440	157.2268
104.400002	108.383	156.7815
106.000000	108.300	156.2036
107.500000	108.221	155.5717
109.000000	108.142	154.9172
110.599998	108.049	154.2871
112.000000	107.961	153.7712
113.800003	107.853	153.0015
115.000000	107.800	152.3264
117.199997	107.758	150.7311
118.000000	107.749	150.0902
120.599998	107.629	148.6469
122.000000	107.517	148.6266
124.099998	107.360	148.9647
125.000000	107.299	149.0132
126.500000	107.201	148.8648
128.000000	107.112	148.4817
131.500000	106.917	147.3775
132.000000	106.886	147.2382
134.000000	106.750	146.7128
136.000000	106.608	146.1868
138.000000	106.487	145.5954
140.000000	106.390	144.9547
143.000000	106.255	144.1608
145.000000	106.164	143.8023
147.500000	106.054	143.4335
150.000000	105.934	143.0511
152.500000	105.770	142.6845
155.000000	105.576	142.4225
157.500000	105.404	142.0775
160.000000	105.256	141.5679
162.500000	105.118	141.0607
165.000000	104.977	140.5975
167.500000	104.827	140.1404
170.000000	104.679	139.7244
172.500000	104.532	139.4008
175.000000	104.377	139.0907
177.500000	104.205	138.6931
180.000000	104.025	138.3847
182.500000	103.871	138.4401
185.000000	103.765	138.7150
187.500000	103.677	138.8821
190.000000	103.559	138.8472
192.500000	103.392	138.7091
195.000000	103.198	138.6028
197.500000	103.003	138.5695
200.000000	102.782	138.5079
203.000000	102.431	138.2074
206.000000	102.089	137.9233
209.000000	101.979	138.1156
212.000000	102.059	138.5790
214.000000	102.102	138.8818
218.000000	102.048	139.2780
220.000000	101.972	139.4394
224.000000	101.783	139.9001
227.000000	101.622	140.2991
230.000000	101.457	140.6890
233.000000	101.310	141.0640
236.000000	101.191	141.3790
240.000000	101.049	141.7204
243.000000	100.932	141.9723
247.000000	100.755	142.3678
250.000000	100.616	142.7448
254.000000	100.437	143.3635
258.000000	100.277	144.0692
262.000000	100.135	144.7713
265.000000	100.035	145.2720
269.000000	99.902	145.9381
272.000000	99.800	146.4716
276.000000	99.669	147.2468
280.000000	99.550	148.0644
285.000000	99.423	149.0737
290.000000	99.315	149.9938
295.000000	99.209	150.8126
300.000000	99.100	151.6373
304.000000	99.013	152.3637
307.000000	98.949	152.9409
311.000000	98.868	153.7253
315.000000	98.786	154.5138
320.000000	98.684	155.5158
325.000000	98.592	156.5372
330.000000	98.515	157.5574
335.000000	98.453	158.5587
340.000000	98.407	159.5025
345.000000	98.369	160.3917
350.000000	98.333	161.2705
355.000000	98.299	162.1536
360.000000	98.269	163.0257
365.000000	98.241	163.8727
370.000000	98.218	164.7114
375.000000	98.199	165.5400
382.000000	98.175	166.6078
387.000000	98.158	167.3256
395.000000	98.141	168.4983
400.000000	98.140	169.2075
406.000000	98.145	169.9990
412.000000	98.152	170.7616
418.000000	98.153	171.5313
425.000000	98.150	172.4282
431.000000	98.154	173.1794
437.000000	98.165	173.9007
444.000000	98.182	174.7052
450.000000	98.202	175.3436
455.000000	98.221	175.8106
462.000000	98.241	176.3743
468.000000	98.249	176.8364
475.000000	98.252	177.4067
482.000000	98.256	177.9971
487.000000	98.257	178.4115
494.000000	98.257	178.9843
500.000000	98.259	179.4843
508.000000	98.266	-179.8435
515.000000	98.274	-179.2832
522.000000	98.283	-178.7579
530.000000	98.291	-178.1614
538.000000	98.301	-177.5461
545.000000	98.310	-177.0067
552.000000	98.320	-176.4751
560.000000	98.333	-175.8845
570.000000	98.350	-175.1780
580.000000	98.363	-174.4866
590.000000	98.373	-173.7940
600.000000	98.382	-173.0951
608.000000	98.391	-172.5422
615.000000	98.398	-172.0645
622.000000	98.404	-171.5740
630.000000	98.411	-170.9776
640.000000	98.428	-170.2005
650.000000	98.453	-169.4226
660.000000	98.488	-168.6671
670.000000	98.529	-167.9946
680.000000	98.568	-167.4098
690.000000	98.598	-166.8521
700.000000	98.622	-166.2793
710.000000	98.644	-165.6860
720.000000	98.668	-165.0909
730.000000	98.690	-164.4999
740.000000	98.712	-163.9000
750.000000	98.733	-163.2794
762.000000	98.760	-162.5065
775.000000	98.794	-161.6488
788.000000	98.834	-160.7858
800.000000	98.876	-159.9763
812.000000	98.923	-159.1492
825.000000	98.985	-158.2715
838.000000	99.054	-157.4550
850.000000	99.119	-156.7470
862.000000	99.183	-156.0616
875.000000	99.252	-155.3329
885.000000	99.305	-154.7789
900.000000	99.388	-153.9627
912.000000	99.456	-153.3114
925.000000	99.533	-152.6093
938.000000	99.615	-151.9322
950.000000	99.692	-151.3391
962.000000	99.769	-150.7676
975.000000	99.851	-150.1579
988.000000	99.934	-149.5513
1000.000000	100.012	-148.9875
1015.000000	100.115	-148.2637
1030.000000	100.230	-147.5412
1044.000000	100.351	-146.9332
1060.000000	100.492	-146.3772
1075.000000	100.617	-145.9591
1090.000000	100.734	-145.5845
1106.000000	100.853	-145.2088
1120.000000	100.952	-144.8939
1138.000000	101.075	-144.4965
1150.000000	101.155	-144.2306
1172.000000	101.300	-143.7317
1180.000000	101.354	-143.5470
1206.000000	101.542	-143.0051
1220.000000	101.645	-142.8019
1241.000000	101.786	-142.5954
1250.000000	101.841	-142.5207
1265.000000	101.926	-142.3937
1280.000000	102.006	-142.2538
1315.000000	102.181	-141.8614
1320.000000	102.205	-141.8019
1340.000000	102.300	-141.5623
1360.000000	102.389	-141.3045
1380.000000	102.474	-140.9960
1400.000000	102.562	-140.6155
1430.000000	102.716	-140.0097
1450.000000	102.827	-139.6774
1475.000000	102.960	-139.3287
1500.000000	103.085	-138.9948
1525.000000	103.205	-138.6315
1550.000000	103.327	-138.2113
1575.000000	103.461	-137.7519
1600.000000	103.610	-137.3461
1625.000000	103.760	-137.0443
1650.000000	103.902	-136.8006
1675.000000	104.038	-136.5646
1700.000000	104.172	-136.3241
1725.000000	104.304	-136.0874
1750.000000	104.431	-135.8346
1775.000000	104.560	-135.5264
1800.000000	104.699	-135.1705
1825.000000	104.853	-134.8395
1850.000000	105.012	-134.5777
1875.000000	105.170	-134.3737
1900.000000	105.326	-134.1956
1925.000000	105.482	-134.0109
1950.000000	105.645	-133.8121
1975.000000	105.820	-133.6418
2000.000000	106.002	-133.5542
2030.000000	106.221	-133.5696
2060.000000	106.434	-133.6797
2090.000000	106.641	-133.8568
2120.000000	106.840	-134.0849
2140.000000	106.969	-134.2459
2180.000000	107.229	-134.5493
2200.000000	107.363	-134.7138
2240.000000	107.639	-135.1531
2270.000000	107.842	-135.5877
2300.000000	108.039	-136.0788
2330.000000	108.234	-136.5970
2360.000000	108.433	-137.1634
2400.000000	108.700	-138.0804
2430.000000	108.893	-138.9089
2470.000000	109.130	-140.1712
2500.000000	109.290	-141.2065
2540.000000	109.477	-142.6340
2580.000000	109.643	-144.0632
2620.000000	109.794	-145.5316
2650.000000	109.895	-146.6734
2690.000000	110.006	-148.2089
2720.000000	110.076	-149.3359
2760.000000	110.160	-150.8145
2800.000000	110.231	-152.3139
2850.000000	110.293	-154.2348
2900.000000	110.315	-156.1516
2950.000000	110.297	-157.9403
3000.000000	110.255	-159.5520
3040.000000	110.207	-160.7372
3070.000000	110.163	-161.5556
3110.000000	110.097	-162.5257
3150.000000	110.030	-163.3659
3200.000000	109.950	-164.3013
3250.000000	109.871	-165.1685
3300.000000	109.785	-165.9662
3350.000000	109.690	-166.6354
3400.000000	109.595	-167.1652
3450.000000	109.501	-167.5739
3500.000000	109.409	-167.8363
3550.000000	109.329	-167.9529
3600.000000	109.269	-167.9883
3650.000000	109.225	-168.0097
3700.000000	109.189	-168.0313
3750.000000	109.158	-168.0241
3820.000000	109.126	-167.9589
3870.000000	109.110	-167.8622
3950.000000	109.109	-167.5726
4000.000000	109.134	-167.3615
4060.000000	109.186	-167.1698
4120.000000	109.253	-167.0678
4180.000000	109.330	-167.0453
4250.000000	109.428	-167.1101
4310.000000	109.520	-167.2002
4370.000000	109.628	-167.3253
4440.000000	109.778	-167.6115
4500.000000	109.918	-168.0418
4550.000000	110.036	-168.5408
4620.000000	110.195	-169.4541
4680.000000	110.319	-170.4000
4750.000000	110.451	-171.6436
4820.000000	110.574	-173.0616
4870.000000	110.651	-174.2096
4940.000000	110.735	-176.0083
5000.000000	110.777	-177.7072
5080.000000	110.776	179.8993
5150.000000	110.723	177.8068
5220.000000	110.629	175.7785
5300.000000	110.477	173.5620
5380.000000	110.277	171.4875
5450.000000	110.062	169.8398
5520.000000	109.814	168.4275
5600.000000	109.503	167.1614
5700.000000	109.099	166.0760
5800.000000	108.697	165.4495
5900.000000	108.299	165.2311
6000.000000	107.916	165.4462
6080.000000	107.632	165.8993
6150.000000	107.406	166.4503
6220.000000	107.203	167.1038
6300.000000	106.994	167.9572
6400.000000	106.771	169.1828
6500.000000	106.597	170.5465
6600.000000	106.478	171.9579
6700.000000	106.409	173.3452
6800.000000	106.388	174.6884
6900.000000	106.421	175.9470
7000.000000	106.509	177.0285
7100.000000	106.645	177.8379
7200.000000	106.821	178.3116
7300.000000	107.033	178.3756
7400.000000	107.265	177.9240
7500.000000	107.497	176.8708
7620.000000	107.738	174.7907
7750.000000	107.911	171.5813
7880.000000	107.941	167.5207
8000.000000	107.799	163.3578
8120.000000	107.482	159.2625
8250.000000	106.957	155.3566
8380.000000	106.275	152.3652
8500.000000	105.546	150.6360
8620.000000	104.771	149.9268
8750.000000	103.925	150.1852
8850.000000	103.293	151.0173
9000.000000	102.408	153.1193
9120.000000	101.773	155.3473
9250.000000	101.164	158.1378
9380.000000	100.635	161.2141
9500.000000	100.218	164.2123
9620.000000	99.864	167.2889
9750.000000	99.544	170.6785
9880.000000	99.287	174.0932
10000.000000	99.104	177.2162
10150.000000	98.940	-178.9718
10300.000000	98.844	-175.3300
10440.000000	98.801	-172.1661
10600.000000	98.779	-168.8267
10750.000000	98.761	-165.8544
10900.000000	98.736	-162.8295
11060.000000	98.723	-159.2503
11200.000000	98.772	-155.6925
11380.000000	99.006	-150.6458
11500.000000	99.312	-147.1919
11720.000000	100.229	-141.4641
11800.000000	100.667	-139.8016
12060.000000	102.347	-137.0898
12200.000000	103.294	-137.9265
12410.000000	104.536	-142.8244
12500.000000	104.942	-146.2250
12650.000000	105.386	-153.2034
12800.000000	105.508	-160.9966
13150.000000	104.650	-176.8050
13200.000000	104.429	-178.4341
13400.000000	103.423	176.8648
13600.000000	102.346	174.7495
13800.000000	101.335	174.5654
14000.000000	100.482	175.6281
14300.000000	99.593	178.2171
14500.000000	99.266	179.8248
14750.000000	99.099	-179.1135
15000.000000	99.085	-179.7497
15250.000000	99.067	177.5752
15500.000000	98.887	173.1067
15750.000000	98.431	167.7433
16000.000000	97.669	162.7131
16250.000000	96.654	159.0007
16500.000000	95.499	156.9595
16750.000000	94.334	156.3265
17000.000000	93.267	156.4445
17250.000000	92.359	156.4791
17500.000000	91.597	155.5972
17750.000000	90.894	153.1927
18000.000000	90.110	149.1924
18250.000000	89.102	144.2869
18500.000000	87.770	139.7976
18750.000000	86.094	137.1221
19000.000000	84.121	137.1591
19250.000000	81.939	140.1398
19500.000000	79.651	145.8407
19750.000000	77.346	153.8771
20000.000000	75.100	163.8751
