* Measurement data measured by REW V5.20.13
* Source: Input device not selected, no input selected, L, volume: no control
* Format: 256k Log Swept Sine, 1 sweep at -13.0 dBFS with no timing reference
* Dated: Sep 27, 2023 1:15:29 AM
* REW Settings:
*  C-weighting compensation: Off
*  Target level: 75.0 dB
* Note: KZ ZAT 1000 R
* Measurement: KZ ZAT 1000
* Smoothing: 1/12 octave
* Frequency Step: 1/48 octave
* Start Frequency: 20.000 Hz
*
* Freq(Hz)	SPL(dB)	Phase(degrees)
20.000000	106.637	13.1120
20.299999	106.702	13.3472
20.600000	106.755	13.5347
20.900000	106.788	13.6514
21.200001	106.796	13.7121
21.400000	106.788	13.7434
21.799999	106.747	13.8045
22.000000	106.720	13.8310
22.400000	106.665	13.8275
22.700001	106.625	13.7104
23.000000	106.582	13.4513
23.299999	106.531	13.0735
23.600000	106.468	12.6457
24.000000	106.377	12.1335
24.299999	106.322	11.8665
24.700001	106.297	11.6362
25.000000	106.329	11.4389
25.400000	106.429	10.9434
25.799999	106.555	10.0507
26.200001	106.658	8.8453
26.500000	106.703	7.9012
26.900000	106.718	6.8183
27.200001	106.710	6.2500
27.600000	106.697	5.8439
28.000000	106.702	5.7278
28.500000	106.738	5.7320
29.000000	106.783	5.6910
29.500000	106.815	5.5495
30.000000	106.826	5.3131
30.400000	106.817	5.0530
30.700001	106.800	4.8169
31.100000	106.763	4.4647
31.500000	106.715	4.1007
32.000000	106.648	3.6713
32.500000	106.593	3.2708
33.000000	106.562	2.8452
33.500000	106.557	2.3367
34.000000	106.568	1.7266
34.500000	106.586	1.0546
35.000000	106.601	0.3944
35.500000	106.612	-0.1734
36.000000	106.624	-0.6052
36.500000	106.640	-0.9066
37.000000	106.660	-1.1191
37.500000	106.683	-1.2909
38.200001	106.707	-1.5313
38.700001	106.713	-1.7211
39.500000	106.695	-2.0321
40.000000	106.675	-2.2220
40.599998	106.647	-2.4767
41.200001	106.619	-2.8040
41.799999	106.587	-3.1890
42.500000	106.553	-3.6402
43.099998	106.543	-4.0361
43.700001	106.550	-4.5215
44.400002	106.562	-5.2141
45.000000	106.566	-5.8043
45.500000	106.568	-6.2214
46.200001	106.580	-6.6899
46.799999	106.597	-6.9988
47.500000	106.624	-7.2235
48.200001	106.667	-7.3506
48.700001	106.700	-7.4357
49.400002	106.735	-7.4767
50.000000	106.773	-7.3208
50.799999	106.887	-7.1104
51.500000	107.013	-7.5097
52.200001	107.059	-8.4865
53.000000	106.971	-9.4863
53.799999	106.833	-9.7468
54.500000	106.761	-9.5819
55.200001	106.750	-9.4461
56.000000	106.777	-9.6145
57.000000	106.780	-10.3395
58.000000	106.686	-11.1280
59.000000	106.531	-11.4424
60.000000	106.399	-11.3983
60.799999	106.328	-11.4332
61.500000	106.277	-11.6181
62.200001	106.233	-11.9394
63.000000	106.184	-12.4293
64.000000	106.123	-13.0260
65.000000	106.102	-13.4004
66.000000	106.150	-13.7278
67.000000	106.242	-14.2169
68.000000	106.342	-14.8784
69.000000	106.427	-15.6199
70.000000	106.506	-16.3477
71.000000	106.589	-17.1710
72.000000	106.645	-18.1930
73.000000	106.619	-19.2193
74.000000	106.491	-19.7067
75.000000	106.330	-19.2755
76.199997	106.228	-18.0090
77.500000	106.278	-17.0817
78.800003	106.340	-17.7124
80.000000	106.289	-19.0187
81.199997	106.210	-20.1467
82.500000	106.185	-21.0323
83.800003	106.221	-21.7614
85.000000	106.252	-22.4672
86.199997	106.223	-23.2261
87.500000	106.114	-23.9388
88.500000	106.012	-24.3753
90.000000	105.895	-25.0043
91.199997	105.847	-25.5147
92.500000	105.833	-25.9295
93.800003	105.842	-26.1784
95.000000	105.837	-26.3411
96.199997	105.799	-26.4913
97.500000	105.728	-26.7203
98.800003	105.654	-27.1553
100.000000	105.594	-27.7940
101.500000	105.529	-28.7681
103.000000	105.467	-29.5517
104.400002	105.438	-29.8452
106.000000	105.467	-29.8824
107.500000	105.534	-29.9379
109.000000	105.600	-30.1268
110.599998	105.632	-30.5080
112.000000	105.617	-31.0638
113.800003	105.579	-32.3364
115.000000	105.583	-33.7454
117.199997	105.675	-37.5775
118.000000	105.696	-39.0945
120.599998	105.514	-41.2003
122.000000	105.369	-39.7212
124.099998	105.267	-36.5362
125.000000	105.230	-35.4784
126.500000	105.135	-34.3548
128.000000	105.004	-33.8789
131.500000	104.774	-34.0505
132.000000	104.760	-34.1556
134.000000	104.752	-34.7071
136.000000	104.791	-35.5857
138.000000	104.819	-36.5725
140.000000	104.824	-37.4620
143.000000	104.806	-38.7486
145.000000	104.817	-39.6345
147.500000	104.841	-40.3661
150.000000	104.854	-40.1448
152.500000	104.852	-39.6675
155.000000	104.766	-39.8000
157.500000	104.615	-40.2734
160.000000	104.498	-40.8389
162.500000	104.432	-41.4213
165.000000	104.385	-41.9085
167.500000	104.341	-42.3462
170.000000	104.303	-42.8827
172.500000	104.256	-43.5016
175.000000	104.182	-44.1665
177.500000	104.089	-44.9980
180.000000	104.001	-45.8746
182.500000	103.949	-46.3131
185.000000	103.933	-46.2437
187.500000	103.909	-46.0987
190.000000	103.863	-46.1908
192.500000	103.817	-46.5053
195.000000	103.779	-46.8822
197.500000	103.736	-47.2445
200.000000	103.684	-47.6102
203.000000	103.620	-48.0736
206.000000	103.569	-48.5472
209.000000	103.532	-49.0071
212.000000	103.494	-49.3966
214.000000	103.462	-49.6086
218.000000	103.387	-49.9737
220.000000	103.350	-50.1496
224.000000	103.277	-50.5230
227.000000	103.221	-50.8215
230.000000	103.171	-51.1216
233.000000	103.132	-51.4411
236.000000	103.099	-51.8009
240.000000	103.053	-52.3266
243.000000	103.012	-52.7250
247.000000	102.949	-53.2133
250.000000	102.900	-53.5247
254.000000	102.839	-53.8644
258.000000	102.789	-54.1728
262.000000	102.747	-54.5272
265.000000	102.715	-54.8260
269.000000	102.669	-55.2224
272.000000	102.634	-55.4928
276.000000	102.590	-55.8149
280.000000	102.552	-56.1174
285.000000	102.512	-56.5074
290.000000	102.479	-56.9653
295.000000	102.440	-57.5020
300.000000	102.390	-58.0224
304.000000	102.346	-58.3797
307.000000	102.314	-58.6226
311.000000	102.273	-58.9553
315.000000	102.233	-59.3231
320.000000	102.181	-59.7780
325.000000	102.130	-60.1692
330.000000	102.084	-60.5150
335.000000	102.044	-60.8550
340.000000	102.008	-61.2101
345.000000	101.972	-61.5680
350.000000	101.935	-61.9080
355.000000	101.900	-62.2299
360.000000	101.865	-62.5456
365.000000	101.832	-62.8609
370.000000	101.801	-63.1699
375.000000	101.771	-63.4658
382.000000	101.733	-63.8599
387.000000	101.708	-64.1322
395.000000	101.673	-64.5575
400.000000	101.653	-64.8184
406.000000	101.632	-65.1315
412.000000	101.611	-65.4496
418.000000	101.589	-65.7589
425.000000	101.565	-66.0793
431.000000	101.552	-66.3247
437.000000	101.545	-66.5724
444.000000	101.546	-66.8855
450.000000	101.552	-67.1875
455.000000	101.557	-67.4792
462.000000	101.557	-67.9360
468.000000	101.548	-68.3180
475.000000	101.534	-68.7112
482.000000	101.523	-69.0684
487.000000	101.515	-69.3163
494.000000	101.504	-69.6373
500.000000	101.496	-69.8747
508.000000	101.493	-70.1732
515.000000	101.495	-70.4487
522.000000	101.495	-70.7264
530.000000	101.496	-71.0174
538.000000	101.500	-71.2842
545.000000	101.508	-71.5165
552.000000	101.519	-71.7485
560.000000	101.536	-72.0176
570.000000	101.558	-72.3657
580.000000	101.579	-72.7044
590.000000	101.601	-73.0219
600.000000	101.624	-73.3128
608.000000	101.647	-73.5372
615.000000	101.668	-73.7355
622.000000	101.689	-73.9246
630.000000	101.714	-74.1094
640.000000	101.754	-74.3026
650.000000	101.803	-74.4857
660.000000	101.864	-74.6859
670.000000	101.933	-74.9609
680.000000	101.999	-75.3143
690.000000	102.056	-75.6855
700.000000	102.108	-76.0281
710.000000	102.160	-76.3342
720.000000	102.216	-76.6253
730.000000	102.273	-76.9134
740.000000	102.331	-77.1960
750.000000	102.391	-77.4714
762.000000	102.463	-77.7892
775.000000	102.542	-78.1085
788.000000	102.625	-78.3923
800.000000	102.709	-78.6203
812.000000	102.806	-78.8360
825.000000	102.925	-79.1252
838.000000	103.048	-79.5293
850.000000	103.154	-79.9686
862.000000	103.253	-80.4088
875.000000	103.357	-80.8564
885.000000	103.438	-81.1845
900.000000	103.560	-81.6779
912.000000	103.659	-82.0714
925.000000	103.769	-82.4981
938.000000	103.882	-82.9449
950.000000	103.988	-83.3855
962.000000	104.091	-83.8455
975.000000	104.201	-84.3514
988.000000	104.310	-84.8590
1000.000000	104.409	-85.3221
1015.000000	104.534	-85.8777
1030.000000	104.668	-86.4281
1044.000000	104.802	-86.9986
1060.000000	104.956	-87.7744
1075.000000	105.088	-88.5885
1090.000000	105.209	-89.4278
1106.000000	105.329	-90.3260
1120.000000	105.426	-91.1085
1138.000000	105.543	-92.0997
1150.000000	105.616	-92.7463
1172.000000	105.744	-93.8907
1180.000000	105.790	-94.2926
1206.000000	105.947	-95.6144
1220.000000	106.030	-96.3899
1241.000000	106.138	-97.6183
1250.000000	106.177	-98.1442
1265.000000	106.234	-98.9969
1280.000000	106.283	-99.8110
1315.000000	106.380	-101.5575
1320.000000	106.392	-101.7937
1340.000000	106.437	-102.7119
1360.000000	106.473	-103.5707
1380.000000	106.502	-104.3370
1400.000000	106.533	-104.9886
1430.000000	106.598	-105.8563
1450.000000	106.648	-106.4573
1475.000000	106.704	-107.2174
1500.000000	106.752	-107.9249
1525.000000	106.795	-108.5365
1550.000000	106.841	-109.0300
1575.000000	106.901	-109.4305
1600.000000	106.980	-109.8440
1625.000000	107.063	-110.3347
1650.000000	107.140	-110.8614
1675.000000	107.210	-111.3711
1700.000000	107.277	-111.8453
1725.000000	107.342	-112.2845
1750.000000	107.402	-112.6664
1775.000000	107.464	-112.9532
1800.000000	107.537	-113.1567
1825.000000	107.625	-113.3524
1850.000000	107.721	-113.5849
1875.000000	107.818	-113.8422
1900.000000	107.915	-114.0923
1925.000000	108.015	-114.3053
1950.000000	108.123	-114.4775
1975.000000	108.245	-114.6538
2000.000000	108.377	-114.8884
2030.000000	108.539	-115.2586
2060.000000	108.698	-115.6909
2090.000000	108.855	-116.1583
2120.000000	109.009	-116.6478
2140.000000	109.108	-116.9695
2180.000000	109.309	-117.5633
2200.000000	109.412	-117.8550
2240.000000	109.621	-118.5149
2270.000000	109.771	-119.1022
2300.000000	109.913	-119.7328
2330.000000	110.049	-120.3747
2360.000000	110.185	-121.0460
2400.000000	110.369	-122.0823
2430.000000	110.507	-123.0000
2470.000000	110.684	-124.3991
2500.000000	110.806	-125.5350
2540.000000	110.947	-127.0651
2580.000000	111.080	-128.5815
2620.000000	111.219	-130.1446
2650.000000	111.323	-131.3602
2690.000000	111.452	-133.0275
2720.000000	111.537	-134.3043
2760.000000	111.636	-136.0545
2800.000000	111.721	-137.9711
2850.000000	111.810	-140.7381
2900.000000	111.875	-143.8397
2950.000000	111.904	-147.0784
3000.000000	111.907	-150.3172
3040.000000	111.894	-152.8914
3070.000000	111.877	-154.7896
3110.000000	111.848	-157.2447
3150.000000	111.815	-159.5846
3200.000000	111.762	-162.3276
3250.000000	111.700	-164.9340
3300.000000	111.630	-167.4488
3350.000000	111.553	-169.8302
3400.000000	111.462	-172.0493
3450.000000	111.344	-174.0553
3500.000000	111.198	-175.7806
3550.000000	111.035	-177.1847
3600.000000	110.857	-178.2723
3650.000000	110.657	-179.0988
3700.000000	110.430	-179.6669
3750.000000	110.177	-179.9388
3820.000000	109.806	-179.8456
3870.000000	109.548	-179.4593
3950.000000	109.185	-178.3130
4000.000000	109.010	-177.3760
4060.000000	108.857	-176.1788
4120.000000	108.756	-174.9743
4180.000000	108.701	-173.7928
4250.000000	108.685	-172.4701
4310.000000	108.711	-171.3595
4370.000000	108.780	-170.2899
4440.000000	108.919	-169.2153
4500.000000	109.078	-168.5311
4550.000000	109.228	-168.1555
4620.000000	109.451	-167.9533
4680.000000	109.638	-168.0621
4750.000000	109.843	-168.4912
4820.000000	110.037	-169.3139
4870.000000	110.164	-170.1938
4940.000000	110.316	-171.8775
5000.000000	110.408	-173.7166
5080.000000	110.460	-176.5843
5150.000000	110.443	-179.2906
5220.000000	110.379	178.0078
5300.000000	110.255	175.0802
5380.000000	110.076	172.4776
5450.000000	109.871	170.5850
5520.000000	109.624	169.1483
5600.000000	109.301	168.1382
5700.000000	108.862	167.7935
5800.000000	108.413	168.3120
5900.000000	107.997	169.5132
6000.000000	107.651	171.2796
6080.000000	107.448	172.9674
6150.000000	107.331	174.5294
6220.000000	107.266	176.0806
6300.000000	107.246	177.7754
6400.000000	107.289	179.7333
6500.000000	107.396	-178.5282
6600.000000	107.555	-177.0558
6700.000000	107.753	-175.8607
6800.000000	107.985	-174.9149
6900.000000	108.247	-174.2243
7000.000000	108.533	-173.8244
7100.000000	108.827	-173.6814
7200.000000	109.132	-173.6852
7300.000000	109.468	-173.8253
7400.000000	109.843	-174.2929
7500.000000	110.257	-175.3860
7620.000000	110.783	-177.9088
7750.000000	111.322	177.4168
7880.000000	111.747	170.1135
8000.000000	111.974	160.8060
8120.000000	112.007	149.4984
8250.000000	111.797	136.4309
8380.000000	111.277	124.5796
8500.000000	110.482	116.1717
8620.000000	109.394	110.6016
8750.000000	107.974	107.3186
8850.000000	106.798	106.2824
9000.000000	105.041	106.4234
9120.000000	103.714	107.5003
9250.000000	102.377	109.3276
9380.000000	101.135	111.7169
9500.000000	100.067	114.3210
9620.000000	99.059	117.2632
9750.000000	98.021	120.8763
9880.000000	97.034	124.9922
10000.000000	96.176	129.2562
10150.000000	95.191	135.2101
10300.000000	94.333	141.7688
10440.000000	93.677	148.2595
10600.000000	93.119	155.8871
10750.000000	92.799	162.9923
10900.000000	92.679	169.7627
11060.000000	92.758	176.2724
11200.000000	92.974	-178.9806
11380.000000	93.360	-174.6891
11500.000000	93.608	-173.1395
11720.000000	93.846	-172.7780
11800.000000	93.821	-173.1497
12060.000000	93.280	-174.0426
12200.000000	92.751	-173.3288
12410.000000	91.810	-169.8620
12500.000000	91.408	-167.4972
12650.000000	90.817	-162.5811
12800.000000	90.401	-156.8217
13150.000000	90.341	-142.9634
13200.000000	90.431	-141.1852
13400.000000	90.968	-135.0872
13600.000000	91.683	-130.9943
13800.000000	92.439	-129.2855
14000.000000	93.081	-130.1719
14300.000000	93.499	-135.2524
14500.000000	93.350	-139.2202
14750.000000	92.790	-142.8941
15000.000000	91.980	-144.2341
15250.000000	91.138	-143.1372
15500.000000	90.516	-140.4814
15750.000000	90.275	-138.0561
16000.000000	90.302	-137.7458
16250.000000	90.277	-140.1675
16500.000000	89.939	-144.0080
16750.000000	89.273	-147.1150
17000.000000	88.534	-148.7075
17250.000000	88.046	-150.6536
17500.000000	87.731	-155.7857
17750.000000	87.088	-163.8684
18000.000000	85.816	-171.2549
18250.000000	83.968	-174.8514
18500.000000	81.759	-173.9983
18750.000000	79.493	-170.4110
19000.000000	77.421	-166.4382
19250.000000	75.519	-162.4828
19500.000000	73.613	-157.3105
19750.000000	71.627	-149.9117
20000.000000	69.612	-140.1531
