* Measurement data measured by REW V5.20.13
* Source: Microphone (Realtek(R) Audio), MICROPHONE (Master Volume), L, volume: 0.680
* Format: 256k Log Swept Sine, 1 sweep at -12.0 dBFS with no timing reference
* Dated: Jul 17, 2023 2:30:18 PM
* REW Settings:
*  C-weighting compensation: Off
*  Target level: 75.0 dB
* Note: Simgot EM6L L
* Measurement: Simgot EM6L L
* Smoothing: 1/12 octave
* Frequency Step: 1/48 octave
* Start Frequency: 20.000 Hz
*
* Freq(Hz)	SPL(dB)	Phase(degrees)
20.000000	106.347	-152.7592
20.299999	106.361	-153.5155
20.600000	106.373	-154.2510
20.900000	106.384	-154.9682
21.200001	106.395	-155.6743
21.400000	106.402	-156.1436
21.799999	106.414	-157.0816
22.000000	106.419	-157.5494
22.400000	106.423	-158.4735
22.700001	106.422	-159.1441
23.000000	106.419	-159.7849
23.299999	106.417	-160.3936
23.600000	106.417	-160.9758
24.000000	106.421	-161.7279
24.299999	106.428	-162.2910
24.700001	106.440	-163.0570
25.000000	106.448	-163.6449
25.400000	106.455	-164.4362
25.799999	106.457	-165.2128
26.200001	106.453	-165.9533
26.500000	106.450	-166.4797
26.900000	106.444	-167.1461
27.200001	106.440	-167.6261
27.600000	106.436	-168.2483
28.000000	106.430	-168.8555
28.500000	106.421	-169.5936
29.000000	106.409	-170.3074
29.500000	106.396	-171.0015
30.000000	106.381	-171.6845
30.400000	106.368	-172.2260
30.700001	106.357	-172.6294
31.100000	106.341	-173.1636
31.500000	106.326	-173.6941
32.000000	106.305	-174.3532
32.500000	106.285	-175.0066
33.000000	106.265	-175.6503
33.500000	106.247	-176.2820
34.000000	106.230	-176.9015
34.500000	106.213	-177.5069
35.000000	106.197	-178.0922
35.500000	106.181	-178.6500
36.000000	106.166	-179.1796
36.500000	106.151	-179.6892
37.000000	106.136	179.8075
37.500000	106.116	179.3027
38.200001	106.078	178.6091
38.700001	106.041	178.1497
39.500000	105.977	177.4984
40.000000	105.940	177.1093
40.599998	105.898	176.6109
41.200001	105.854	176.0666
41.799999	105.806	175.5090
42.500000	105.748	174.8976
43.099998	105.706	174.4279
43.700001	105.678	173.9853
44.400002	105.660	173.4539
45.000000	105.646	172.9986
45.500000	105.636	172.6750
46.200001	105.637	172.3240
46.799999	105.660	171.9899
47.500000	105.685	171.3755
48.200001	105.663	170.6248
48.700001	105.615	170.1782
49.400002	105.532	169.7940
50.000000	105.470	169.5924
50.799999	105.405	169.2881
51.500000	105.350	168.9207
52.200001	105.289	168.4851
53.000000	105.212	167.9601
53.799999	105.134	167.4683
54.500000	105.071	167.0854
55.200001	105.017	166.7410
56.000000	104.969	166.3795
57.000000	104.924	165.9186
58.000000	104.878	165.4248
59.000000	104.820	164.9875
60.000000	104.763	164.6218
60.799999	104.719	164.3249
61.500000	104.679	164.0482
62.200001	104.635	163.7696
63.000000	104.582	163.4722
64.000000	104.517	163.1525
65.000000	104.461	162.8625
66.000000	104.412	162.5421
67.000000	104.362	162.1820
68.000000	104.307	161.8131
69.000000	104.251	161.4453
70.000000	104.191	161.0915
71.000000	104.128	160.7891
72.000000	104.069	160.5560
73.000000	104.016	160.3838
74.000000	103.971	160.2548
75.000000	103.937	160.1235
76.199997	103.903	159.8777
77.500000	103.857	159.5213
78.800003	103.807	159.1717
80.000000	103.763	158.8069
81.199997	103.709	158.4049
82.500000	103.639	158.0408
83.800003	103.571	157.7331
85.000000	103.513	157.4377
86.199997	103.455	157.1347
87.500000	103.387	156.8503
88.500000	103.330	156.7122
90.000000	103.230	156.6861
91.199997	103.141	156.8019
92.500000	103.045	156.9238
93.800003	102.948	156.8694
95.000000	102.861	156.6677
96.199997	102.800	156.3685
97.500000	102.775	155.9033
98.800003	102.772	155.3686
100.000000	102.767	154.9234
101.500000	102.723	154.5188
103.000000	102.627	154.3643
104.400002	102.520	154.3566
106.000000	102.410	154.3267
107.500000	102.329	154.2683
109.000000	102.263	154.2593
110.599998	102.194	154.3021
112.000000	102.127	154.2651
113.800003	102.059	153.9783
115.000000	102.065	153.6262
117.199997	102.225	152.5824
118.000000	102.298	152.0941
120.599998	102.310	151.1655
122.000000	102.169	151.6891
124.099998	101.937	153.0107
125.000000	101.851	153.4338
126.500000	101.734	153.8378
128.000000	101.659	153.9809
131.500000	101.557	154.2373
132.000000	101.540	154.3029
134.000000	101.455	154.5024
136.000000	101.343	154.4589
138.000000	101.236	154.2825
140.000000	101.174	154.1160
143.000000	101.138	153.8754
145.000000	101.106	153.7693
147.500000	101.052	153.7656
150.000000	101.007	153.7808
152.500000	100.959	153.6916
155.000000	100.882	153.5850
157.500000	100.781	153.5715
160.000000	100.687	153.5891
162.500000	100.615	153.5699
165.000000	100.557	153.5474
167.500000	100.499	153.5708
170.000000	100.434	153.6094
172.500000	100.365	153.6363
175.000000	100.300	153.6710
177.500000	100.246	153.7366
180.000000	100.201	153.8355
182.500000	100.156	153.9246
185.000000	100.102	153.9576
187.500000	100.040	153.9520
190.000000	99.976	153.9564
192.500000	99.915	153.9941
195.000000	99.858	154.0585
197.500000	99.803	154.1385
200.000000	99.750	154.2315
203.000000	99.686	154.3581
206.000000	99.626	154.4817
209.000000	99.569	154.5820
212.000000	99.513	154.6719
214.000000	99.475	154.7413
218.000000	99.396	154.9275
220.000000	99.359	155.0405
224.000000	99.293	155.2677
227.000000	99.249	155.4185
230.000000	99.207	155.5501
233.000000	99.164	155.6646
236.000000	99.120	155.7655
240.000000	99.059	155.8990
243.000000	99.011	156.0127
247.000000	98.941	156.1935
250.000000	98.888	156.3663
254.000000	98.824	156.6626
258.000000	98.778	156.9937
262.000000	98.745	157.2748
265.000000	98.721	157.4297
269.000000	98.684	157.5946
272.000000	98.654	157.7319
276.000000	98.616	157.9529
280.000000	98.585	158.1712
285.000000	98.553	158.3777
290.000000	98.526	158.4894
295.000000	98.489	158.5251
300.000000	98.438	158.5665
304.000000	98.393	158.6385
307.000000	98.359	158.7109
311.000000	98.314	158.8190
315.000000	98.269	158.9335
320.000000	98.211	159.0993
325.000000	98.155	159.3076
330.000000	98.105	159.5391
335.000000	98.061	159.7621
340.000000	98.019	159.9627
345.000000	97.976	160.1507
350.000000	97.933	160.3450
355.000000	97.890	160.5503
360.000000	97.849	160.7610
365.000000	97.809	160.9738
370.000000	97.771	161.1884
375.000000	97.734	161.4056
382.000000	97.684	161.7132
387.000000	97.649	161.9344
395.000000	97.597	162.2905
400.000000	97.566	162.5117
406.000000	97.530	162.7687
412.000000	97.495	163.0153
418.000000	97.458	163.2686
425.000000	97.416	163.5950
431.000000	97.386	163.8932
437.000000	97.362	164.1837
444.000000	97.339	164.4954
450.000000	97.324	164.7241
455.000000	97.311	164.8718
462.000000	97.286	165.0279
468.000000	97.256	165.1671
475.000000	97.215	165.3743
482.000000	97.177	165.6096
487.000000	97.149	165.7811
494.000000	97.108	166.0417
500.000000	97.075	166.2972
508.000000	97.037	166.6517
515.000000	97.007	166.9445
522.000000	96.975	167.2312
530.000000	96.938	167.5816
538.000000	96.905	167.9576
545.000000	96.879	168.2907
552.000000	96.856	168.6238
560.000000	96.833	168.9944
570.000000	96.805	169.4334
580.000000	96.776	169.8718
590.000000	96.747	170.3269
600.000000	96.721	170.8073
608.000000	96.704	171.1972
615.000000	96.690	171.5325
622.000000	96.675	171.8724
630.000000	96.659	172.2857
640.000000	96.646	172.8328
650.000000	96.642	173.3849
660.000000	96.650	173.9152
670.000000	96.665	174.3675
680.000000	96.677	174.7393
690.000000	96.680	175.0909
700.000000	96.677	175.4693
710.000000	96.674	175.8828
720.000000	96.674	176.3105
730.000000	96.677	176.7416
740.000000	96.680	177.1800
750.000000	96.686	177.6299
762.000000	96.696	178.1852
775.000000	96.713	178.7986
788.000000	96.735	179.4184
800.000000	96.761	-179.9930
812.000000	96.798	-179.3918
825.000000	96.853	-178.7881
838.000000	96.914	-178.2953
850.000000	96.964	-177.9117
862.000000	97.008	-177.5400
875.000000	97.053	-177.1190
885.000000	97.088	-176.7815
900.000000	97.146	-176.2738
912.000000	97.195	-175.8666
925.000000	97.253	-175.4283
938.000000	97.317	-175.0127
950.000000	97.379	-174.6615
962.000000	97.440	-174.3357
975.000000	97.507	-173.9973
988.000000	97.574	-173.6666
1000.000000	97.637	-173.3609
1015.000000	97.720	-172.9622
1030.000000	97.815	-172.5654
1044.000000	97.917	-172.2586
1060.000000	98.036	-172.0398
1075.000000	98.140	-171.9319
1090.000000	98.236	-171.8631
1106.000000	98.333	-171.8103
1120.000000	98.414	-171.7773
1138.000000	98.514	-171.7438
1150.000000	98.579	-171.7220
1172.000000	98.697	-171.6732
1180.000000	98.741	-171.6518
1206.000000	98.897	-171.6380
1220.000000	98.982	-171.7197
1241.000000	99.097	-171.9429
1250.000000	99.140	-172.0515
1265.000000	99.205	-172.2266
1280.000000	99.264	-172.3842
1315.000000	99.391	-172.6721
1320.000000	99.409	-172.7079
1340.000000	99.477	-172.8459
1360.000000	99.540	-172.9603
1380.000000	99.600	-173.0227
1400.000000	99.664	-173.0164
1430.000000	99.782	-172.9868
1450.000000	99.867	-173.0429
1475.000000	99.968	-173.1694
1500.000000	100.061	-173.2959
1525.000000	100.150	-173.3889
1550.000000	100.241	-173.4285
1575.000000	100.344	-173.4305
1600.000000	100.460	-173.4865
1625.000000	100.577	-173.6470
1650.000000	100.685	-173.8629
1675.000000	100.785	-174.0790
1700.000000	100.881	-174.2772
1725.000000	100.973	-174.4602
1750.000000	101.061	-174.6029
1775.000000	101.149	-174.6593
1800.000000	101.250	-174.6322
1825.000000	101.371	-174.5984
1850.000000	101.506	-174.6207
1875.000000	101.651	-174.7229
1900.000000	101.800	-174.9148
1925.000000	101.947	-175.1868
1950.000000	102.092	-175.5167
1975.000000	102.234	-175.9020
2000.000000	102.371	-176.3465
2030.000000	102.522	-176.9176
2060.000000	102.662	-177.4644
2090.000000	102.800	-177.9563
2120.000000	102.942	-178.4023
2140.000000	103.042	-178.6809
2180.000000	103.262	-179.2487
2200.000000	103.382	-179.5945
2240.000000	103.624	179.4928
2270.000000	103.790	178.6581
2300.000000	103.938	177.7900
2330.000000	104.076	176.9514
2360.000000	104.215	176.1316
2400.000000	104.400	174.9822
2430.000000	104.533	174.0586
2470.000000	104.696	172.7714
2500.000000	104.804	171.7894
2540.000000	104.928	170.5281
2580.000000	105.039	169.3818
2620.000000	105.147	168.3307
2650.000000	105.224	167.6083
2690.000000	105.327	166.8008
2720.000000	105.418	166.3483
2760.000000	105.584	165.8809
2800.000000	105.814	165.3497
2850.000000	106.168	164.1849
2900.000000	106.518	162.2082
2950.000000	106.792	159.6383
3000.000000	106.981	156.8756
3040.000000	107.081	154.6904
3070.000000	107.133	153.1166
3110.000000	107.182	151.1422
3150.000000	107.218	149.2960
3200.000000	107.256	147.0900
3250.000000	107.282	144.9302
3300.000000	107.290	142.8156
3350.000000	107.279	140.8029
3400.000000	107.256	138.9034
3450.000000	107.223	137.1025
3500.000000	107.182	135.4302
3550.000000	107.143	133.8832
3600.000000	107.115	132.3867
3650.000000	107.091	130.8658
3700.000000	107.061	129.3073
3750.000000	107.020	127.7491
3820.000000	106.942	125.6079
3870.000000	106.868	124.1480
3950.000000	106.734	122.0348
4000.000000	106.653	120.8167
4060.000000	106.557	119.3769
4120.000000	106.453	117.9456
4180.000000	106.336	116.5460
4250.000000	106.176	114.9963
4310.000000	106.017	113.8250
4370.000000	105.851	112.8350
4440.000000	105.658	111.8561
4500.000000	105.491	111.1328
4550.000000	105.349	110.6147
4620.000000	105.146	110.0263
4680.000000	104.967	109.6839
4750.000000	104.759	109.5116
4820.000000	104.566	109.5365
4870.000000	104.439	109.6300
4940.000000	104.272	109.8380
5000.000000	104.134	110.0808
5080.000000	103.952	110.5403
5150.000000	103.798	111.1302
5220.000000	103.661	111.8860
5300.000000	103.533	112.8821
5380.000000	103.434	113.9497
5450.000000	103.366	114.9160
5520.000000	103.311	115.9346
5600.000000	103.272	117.1707
5700.000000	103.267	118.7432
5800.000000	103.306	120.2214
5900.000000	103.372	121.5486
6000.000000	103.459	122.7585
6080.000000	103.544	123.6233
6150.000000	103.629	124.2671
6220.000000	103.717	124.7794
6300.000000	103.812	125.2123
6400.000000	103.916	125.5853
6500.000000	104.000	125.8203
6600.000000	104.062	125.9252
6700.000000	104.093	125.9273
6800.000000	104.085	125.9114
6900.000000	104.035	125.9882
7000.000000	103.950	126.3127
7100.000000	103.863	126.9872
7200.000000	103.812	127.8259
7300.000000	103.790	128.5660
7400.000000	103.770	129.1519
7500.000000	103.736	129.6873
7620.000000	103.686	130.3724
7750.000000	103.640	131.0696
7880.000000	103.589	131.5626
8000.000000	103.515	131.8185
8120.000000	103.402	131.9601
8250.000000	103.227	132.0485
8380.000000	102.987	132.1639
8500.000000	102.703	132.4471
8620.000000	102.370	133.0049
8750.000000	101.963	133.9778
8850.000000	101.624	135.0401
9000.000000	101.090	137.2098
9120.000000	100.662	139.4196
9250.000000	100.210	142.2523
9380.000000	99.782	145.5157
9500.000000	99.422	148.8453
9620.000000	99.102	152.4055
9750.000000	98.802	156.4706
9880.000000	98.557	160.6852
10000.000000	98.382	164.6265
10150.000000	98.228	169.5379
10300.000000	98.142	174.3462
10440.000000	98.115	178.6474
10600.000000	98.132	-176.7206
10750.000000	98.184	-172.7115
10900.000000	98.251	-169.0628
11060.000000	98.324	-165.5193
11200.000000	98.386	-162.7066
11380.000000	98.449	-159.5398
11500.000000	98.466	-157.6979
11720.000000	98.413	-154.7273
11800.000000	98.362	-153.7108
12060.000000	98.083	-150.3002
12200.000000	97.868	-148.2465
12410.000000	97.489	-144.6881
12500.000000	97.313	-142.9659
12650.000000	97.015	-139.8241
12800.000000	96.723	-136.3567
13150.000000	96.131	-127.2340
13200.000000	96.062	-125.8372
13400.000000	95.831	-120.0882
13600.000000	95.687	-114.1515
13800.000000	95.648	-108.1450
14000.000000	95.730	-102.2141
14300.000000	96.124	-93.8534
14500.000000	96.594	-89.0434
14750.000000	97.401	-84.7303
15000.000000	98.332	-83.3871
15250.000000	99.173	-86.0158
15500.000000	99.665	-92.9012
15750.000000	99.574	-102.8205
16000.000000	98.770	-112.9196
16250.000000	97.289	-120.1115
16500.000000	95.298	-122.7820
16750.000000	93.030	-121.1509
17000.000000	90.726	-116.5524
17250.000000	88.548	-110.3260
17500.000000	86.521	-102.9683
17750.000000	84.607	-94.3855
18000.000000	82.799	-84.5544
18250.000000	81.132	-73.6740
18500.000000	79.645	-62.0238
18750.000000	78.365	-49.8587
19000.000000	77.311	-37.4006
19250.000000	76.497	-24.8922
19500.000000	75.930	-12.6633
19750.000000	75.605	-1.1832
20000.000000	75.476	8.9269
