* Measurement data measured by REW V5.20.13
* Source: EXCL: Mic in at front panel (Pink) (Realtek(R) Audio), MICROPHONE (Master Volume), L, volume: 0.250
* Format: 256k Log Swept Sine, 1 sweep at -12.0 dBFS with no timing reference
* Dated: Jun 5, 2023 11:22:34 PM
* REW Settings:
*  C-weighting compensation: Off
*  Target level: 75.0 dB
* Note: Tangzu Chang Le R
* Measurement: Tangzu Chang Le R
* Smoothing: 1/12 octave
* Frequency Step: 1/48 octave
* Start Frequency: 20.000 Hz
*
* Freq(Hz)	SPL(dB)	Phase(degrees)
20.000000	78.985	-144.9333
20.299999	79.026	-145.7731
20.600000	79.066	-146.6080
20.900000	79.103	-147.4378
21.200001	79.137	-148.2595
21.400000	79.158	-148.8001
21.799999	79.197	-149.8596
22.000000	79.215	-150.3768
22.400000	79.249	-151.3850
22.700001	79.273	-152.1202
23.000000	79.297	-152.8411
23.299999	79.319	-153.5509
23.600000	79.340	-154.2513
24.000000	79.365	-155.1714
24.299999	79.382	-155.8502
24.700001	79.402	-156.7374
25.000000	79.415	-157.3882
25.400000	79.430	-158.2369
25.799999	79.444	-159.0667
26.200001	79.457	-159.8822
26.500000	79.465	-160.4864
26.900000	79.474	-161.2824
27.200001	79.480	-161.8709
27.600000	79.485	-162.6418
28.000000	79.490	-163.3944
28.500000	79.495	-164.3099
29.000000	79.499	-165.2043
29.500000	79.504	-166.0866
30.000000	79.508	-166.9622
30.400000	79.509	-167.6564
30.700001	79.508	-168.1705
31.100000	79.505	-168.8432
31.500000	79.500	-169.4978
32.000000	79.493	-170.2908
32.500000	79.485	-171.0630
33.000000	79.477	-171.8252
33.500000	79.466	-172.5810
34.000000	79.453	-173.3253
34.500000	79.436	-174.0508
35.000000	79.419	-174.7582
35.500000	79.401	-175.4557
36.000000	79.380	-176.1483
36.500000	79.357	-176.8300
37.000000	79.331	-177.4866
37.500000	79.304	-178.1108
38.200001	79.269	-178.9439
38.700001	79.245	-179.5273
39.500000	79.206	179.5516
40.000000	79.180	178.9963
40.599998	79.149	178.3585
41.200001	79.119	177.7410
41.799999	79.092	177.1259
42.500000	79.058	176.4008
43.099998	79.027	175.7772
43.700001	78.993	175.1605
44.400002	78.949	174.4583
45.000000	78.910	173.8774
45.500000	78.876	173.4112
46.200001	78.828	172.7859
46.799999	78.788	172.2719
47.500000	78.742	171.6922
48.200001	78.696	171.1324
48.700001	78.664	170.7444
49.400002	78.620	170.2145
50.000000	78.581	169.7688
50.799999	78.529	169.1863
51.500000	78.482	168.6913
52.200001	78.433	168.2100
53.000000	78.377	167.6756
53.799999	78.320	167.1666
54.500000	78.272	166.7487
55.200001	78.229	166.3457
56.000000	78.185	165.8728
57.000000	78.132	165.2317
58.000000	78.070	164.5674
59.000000	77.998	163.9638
60.000000	77.929	163.4430
60.799999	77.881	163.0270
61.500000	77.841	162.6281
62.200001	77.798	162.2049
63.000000	77.744	161.7319
64.000000	77.676	161.1947
65.000000	77.611	160.6985
66.000000	77.544	160.2463
67.000000	77.472	159.8933
68.000000	77.397	159.6573
69.000000	77.326	159.5023
70.000000	77.261	159.3504
71.000000	77.197	159.0891
72.000000	77.120	158.7010
73.000000	77.027	158.3013
74.000000	76.941	157.9507
75.000000	76.879	157.5706
76.199997	76.823	156.9926
77.500000	76.764	156.3335
78.800003	76.703	155.7776
80.000000	76.644	155.3610
81.199997	76.582	154.9932
82.500000	76.507	154.5946
83.800003	76.420	154.1624
85.000000	76.329	153.7469
86.199997	76.231	153.3507
87.500000	76.121	152.9867
88.500000	76.040	152.7692
90.000000	75.931	152.5001
91.199997	75.849	152.3007
92.500000	75.763	152.1282
93.800003	75.688	151.9964
95.000000	75.628	151.8545
96.199997	75.573	151.6672
97.500000	75.510	151.4362
98.800003	75.442	151.2126
100.000000	75.376	151.0267
101.500000	75.290	150.8261
103.000000	75.202	150.6682
104.400002	75.123	150.5271
106.000000	75.037	150.3355
107.500000	74.958	150.1329
109.000000	74.877	149.9183
110.599998	74.783	149.6877
112.000000	74.699	149.4854
113.800003	74.606	149.1493
115.000000	74.560	148.8271
117.199997	74.506	148.0533
118.000000	74.486	147.7616
120.599998	74.357	147.3423
122.000000	74.255	147.6561
124.099998	74.111	148.3987
125.000000	74.055	148.6499
126.500000	73.966	148.8754
128.000000	73.885	148.8853
131.500000	73.716	148.7032
132.000000	73.693	148.6988
134.000000	73.601	148.7270
136.000000	73.512	148.7787
138.000000	73.438	148.8415
140.000000	73.380	148.9420
143.000000	73.261	149.2774
145.000000	73.137	149.6531
147.500000	72.960	150.0282
150.000000	72.791	150.0949
152.500000	72.639	150.0652
155.000000	72.500	150.2292
157.500000	72.363	150.6299
160.000000	72.231	151.2498
162.500000	72.133	152.0477
165.000000	72.075	152.9202
167.500000	72.043	153.8667
170.000000	72.051	154.8679
172.500000	72.118	155.7542
175.000000	72.231	156.3544
177.500000	72.348	156.6049
180.000000	72.427	156.5881
182.500000	72.459	156.4067
185.000000	72.463	156.0020
187.500000	72.452	155.3223
190.000000	72.423	154.5267
192.500000	72.379	153.8474
195.000000	72.319	153.3760
197.500000	72.249	153.0842
200.000000	72.174	152.9227
203.000000	72.087	152.8365
206.000000	71.998	152.7813
209.000000	71.901	152.7153
212.000000	71.802	152.6610
214.000000	71.737	152.6314
218.000000	71.607	152.5290
220.000000	71.543	152.4607
224.000000	71.429	152.5043
227.000000	71.360	152.7996
230.000000	71.296	153.1818
233.000000	71.233	153.5014
236.000000	71.172	153.7343
240.000000	71.097	153.9697
243.000000	71.039	154.1298
247.000000	70.957	154.3759
250.000000	70.893	154.5965
254.000000	70.814	154.9222
258.000000	70.748	155.2416
262.000000	70.690	155.4947
265.000000	70.645	155.6404
269.000000	70.580	155.8250
272.000000	70.530	155.9887
276.000000	70.465	156.2514
280.000000	70.404	156.5456
285.000000	70.338	156.9118
290.000000	70.283	157.2057
295.000000	70.225	157.4055
300.000000	70.155	157.5793
304.000000	70.094	157.7513
307.000000	70.048	157.9030
311.000000	69.989	158.1171
315.000000	69.930	158.3369
320.000000	69.853	158.6483
325.000000	69.778	159.0178
330.000000	69.711	159.4069
335.000000	69.649	159.7831
340.000000	69.591	160.1418
345.000000	69.533	160.4909
350.000000	69.478	160.8407
355.000000	69.424	161.1951
360.000000	69.373	161.5531
365.000000	69.323	161.9113
370.000000	69.273	162.2674
375.000000	69.225	162.6208
382.000000	69.157	163.1161
387.000000	69.109	163.4781
395.000000	69.038	164.0674
400.000000	68.997	164.4330
406.000000	68.950	164.8624
412.000000	68.904	165.2799
418.000000	68.857	165.7015
425.000000	68.803	166.2262
431.000000	68.762	166.6974
437.000000	68.728	167.1605
444.000000	68.694	167.6765
450.000000	68.670	168.0861
455.000000	68.650	168.3867
462.000000	68.615	168.7538
468.000000	68.577	169.0693
475.000000	68.529	169.4800
482.000000	68.482	169.9202
487.000000	68.449	170.2383
494.000000	68.400	170.7024
500.000000	68.360	171.1302
508.000000	68.314	171.7141
515.000000	68.278	172.2096
522.000000	68.242	172.6998
530.000000	68.201	173.2777
538.000000	68.163	173.8730
545.000000	68.132	174.3962
552.000000	68.104	174.9202
560.000000	68.075	175.5102
570.000000	68.040	176.2239
580.000000	68.005	176.9358
590.000000	67.970	177.6622
600.000000	67.938	178.4197
608.000000	67.916	179.0385
615.000000	67.899	179.5757
622.000000	67.881	-179.8830
630.000000	67.862	-179.2391
640.000000	67.846	-178.4025
650.000000	67.839	-177.5586
660.000000	67.845	-176.7349
670.000000	67.859	-175.9880
680.000000	67.870	-175.3214
690.000000	67.873	-174.6765
700.000000	67.871	-174.0076
710.000000	67.871	-173.3043
720.000000	67.875	-172.5861
730.000000	67.881	-171.8644
740.000000	67.889	-171.1372
750.000000	67.901	-170.4031
762.000000	67.919	-169.5119
775.000000	67.945	-168.5380
788.000000	67.977	-167.5621
800.000000	68.012	-166.6487
812.000000	68.059	-165.7251
825.000000	68.126	-164.7730
838.000000	68.201	-163.9338
850.000000	68.265	-163.2367
862.000000	68.324	-162.5592
875.000000	68.386	-161.8145
885.000000	68.436	-161.2321
900.000000	68.516	-160.3635
912.000000	68.584	-159.6741
925.000000	68.664	-158.9395
938.000000	68.751	-158.2394
950.000000	68.835	-157.6360
962.000000	68.920	-157.0683
975.000000	69.012	-156.4828
988.000000	69.105	-155.9238
1000.000000	69.193	-155.4254
1015.000000	69.307	-154.8104
1030.000000	69.432	-154.2272
1044.000000	69.559	-153.7781
1060.000000	69.702	-153.4360
1075.000000	69.823	-153.2441
1090.000000	69.927	-153.1061
1106.000000	70.021	-152.9691
1120.000000	70.093	-152.8260
1138.000000	70.176	-152.5718
1150.000000	70.231	-152.3520
1172.000000	70.340	-151.8695
1180.000000	70.385	-151.6814
1206.000000	70.554	-151.1525
1220.000000	70.651	-150.9931
1241.000000	70.784	-150.9124
1250.000000	70.833	-150.9097
1265.000000	70.907	-150.9182
1280.000000	70.970	-150.9237
1315.000000	71.088	-150.8508
1320.000000	71.102	-150.8292
1340.000000	71.155	-150.7121
1360.000000	71.200	-150.5267
1380.000000	71.241	-150.2444
1400.000000	71.288	-149.8556
1430.000000	71.389	-149.2013
1450.000000	71.470	-148.8256
1475.000000	71.570	-148.4225
1500.000000	71.666	-148.0439
1525.000000	71.759	-147.6520
1550.000000	71.853	-147.2163
1575.000000	71.959	-146.7460
1600.000000	72.079	-146.3301
1625.000000	72.200	-146.0163
1650.000000	72.312	-145.7537
1675.000000	72.417	-145.4853
1700.000000	72.521	-145.1946
1725.000000	72.625	-144.8908
1750.000000	72.729	-144.5641
1775.000000	72.838	-144.1926
1800.000000	72.961	-143.8030
1825.000000	73.097	-143.4771
1850.000000	73.236	-143.2532
1875.000000	73.369	-143.1041
1900.000000	73.495	-142.9803
1925.000000	73.616	-142.8368
1950.000000	73.740	-142.6597
1975.000000	73.874	-142.4900
2000.000000	74.014	-142.3828
2030.000000	74.181	-142.3493
2060.000000	74.340	-142.3842
2090.000000	74.492	-142.4599
2120.000000	74.636	-142.5596
2140.000000	74.727	-142.6185
2180.000000	74.909	-142.6745
2200.000000	75.005	-142.6925
2240.000000	75.203	-142.7914
2270.000000	75.349	-142.9266
2300.000000	75.491	-143.0772
2330.000000	75.632	-143.2118
2360.000000	75.779	-143.3493
2400.000000	75.982	-143.6186
2430.000000	76.132	-143.8998
2470.000000	76.320	-144.3440
2500.000000	76.452	-144.6951
2540.000000	76.616	-145.1117
2580.000000	76.783	-145.4195
2620.000000	76.970	-145.6776
2650.000000	77.124	-145.8833
2690.000000	77.348	-146.2030
2720.000000	77.535	-146.5100
2760.000000	77.810	-147.1263
2800.000000	78.092	-148.1152
2850.000000	78.410	-149.9009
2900.000000	78.653	-152.0906
2950.000000	78.816	-154.3592
3000.000000	78.926	-156.5281
3040.000000	78.984	-158.1835
3070.000000	79.013	-159.3690
3110.000000	79.037	-160.8516
3150.000000	79.053	-162.2311
3200.000000	79.065	-163.8714
3250.000000	79.066	-165.4658
3300.000000	79.052	-167.0084
3350.000000	79.023	-168.4551
3400.000000	78.988	-169.8216
3450.000000	78.943	-171.1416
3500.000000	78.884	-172.3758
3550.000000	78.819	-173.4861
3600.000000	78.756	-174.4995
3650.000000	78.698	-175.4664
3700.000000	78.638	-176.4109
3750.000000	78.577	-177.3273
3820.000000	78.486	-178.5817
3870.000000	78.413	-179.4382
3950.000000	78.290	179.3492
4000.000000	78.221	178.6489
4060.000000	78.142	177.7825
4120.000000	78.057	176.8765
4180.000000	77.961	175.9644
4250.000000	77.829	174.9433
4310.000000	77.702	174.1831
4370.000000	77.572	173.5517
4440.000000	77.429	172.9036
4500.000000	77.309	172.3705
4550.000000	77.207	171.9368
4620.000000	77.060	171.3487
4680.000000	76.924	170.9005
4750.000000	76.759	170.4962
4820.000000	76.598	170.1991
4870.000000	76.487	170.0239
4940.000000	76.331	169.8173
5000.000000	76.197	169.6762
5080.000000	76.011	169.5809
5150.000000	75.848	169.6357
5220.000000	75.695	169.8039
5300.000000	75.535	170.0677
5380.000000	75.388	170.3571
5450.000000	75.262	170.6266
5520.000000	75.136	170.9544
5600.000000	74.997	171.4354
5700.000000	74.844	172.1601
5800.000000	74.714	172.9460
5900.000000	74.598	173.7770
6000.000000	74.498	174.7169
6080.000000	74.436	175.5448
6150.000000	74.398	176.2964
6220.000000	74.375	177.0519
6300.000000	74.362	177.9247
6400.000000	74.369	179.0659
6500.000000	74.412	-179.7336
6600.000000	74.500	-178.5306
6700.000000	74.634	-177.3801
6800.000000	74.818	-176.2995
6900.000000	75.063	-175.3342
7000.000000	75.376	-174.5899
7100.000000	75.757	-174.1844
7200.000000	76.205	-174.2207
7300.000000	76.719	-174.8447
7400.000000	77.285	-176.2773
7500.000000	77.871	-178.7582
7620.000000	78.536	176.6168
7750.000000	79.106	169.3836
7880.000000	79.384	160.0264
8000.000000	79.279	150.3244
8120.000000	78.800	140.8163
8250.000000	77.903	131.9615
8380.000000	76.711	125.3449
8500.000000	75.452	121.3616
8620.000000	74.138	119.1752
8750.000000	72.731	118.3975
8850.000000	71.691	118.6801
9000.000000	70.230	120.2071
9120.000000	69.158	122.1301
9250.000000	68.091	124.7274
9380.000000	67.118	127.7554
9500.000000	66.298	130.8404
9620.000000	65.548	134.1295
9750.000000	64.807	137.8871
9880.000000	64.136	141.8071
10000.000000	63.575	145.5186
10150.000000	62.945	150.2542
10300.000000	62.391	155.0756
10440.000000	61.940	159.6037
10600.000000	61.492	164.7829
10750.000000	61.137	169.6174
10900.000000	60.838	174.4022
11060.000000	60.575	179.4634
11200.000000	60.390	-176.1397
11380.000000	60.213	-170.5283
11500.000000	60.134	-166.8040
11720.000000	60.080	-160.0384
11800.000000	60.091	-157.6073
12060.000000	60.258	-149.8958
12200.000000	60.436	-145.9361
12410.000000	60.831	-140.3608
12500.000000	61.049	-138.1471
12650.000000	61.478	-134.7618
12800.000000	61.992	-131.8556
13150.000000	63.474	-127.8393
13200.000000	63.707	-127.6891
13400.000000	64.635	-128.4851
13600.000000	65.456	-131.8081
13800.000000	66.024	-137.6553
14000.000000	66.218	-145.2747
14300.000000	65.710	-156.8729
14500.000000	64.904	-162.6655
14750.000000	63.570	-166.5499
15000.000000	62.112	-166.9382
15250.000000	60.741	-164.7417
15500.000000	59.596	-160.9113
15750.000000	58.751	-156.2208
16000.000000	58.249	-151.3166
16250.000000	58.125	-146.8860
16500.000000	58.389	-143.8821
16750.000000	58.959	-143.6719
17000.000000	59.596	-147.8005
17250.000000	59.956	-157.0500
17500.000000	59.707	-169.9872
17750.000000	58.673	177.1964
18000.000000	56.893	168.3259
18250.000000	54.554	164.9353
18500.000000	51.890	166.4180
18750.000000	49.116	171.4392
19000.000000	46.401	178.8862
19250.000000	43.853	-171.9355
19500.000000	41.517	-161.4111
19750.000000	39.401	-149.7158
20000.000000	37.494	-136.9061
