* Measurement data measured by REW V5.20.13
* Source: Input device not selected, no input selected, L, volume: no control
* Format: 256k Log Swept Sine, 1 sweep at -13.0 dBFS with no timing reference
* Dated: Sep 27, 2023 12:50:37 AM
* REW Settings:
*  C-weighting compensation: Off
*  Target level: 75.0 dB
* Note: Thieaudio Hype 2 R
* Measurement: Thieaudio Hype 2 R
* Smoothing: 1/12 octave
* Frequency Step: 1/48 octave
* Start Frequency: 20.000 Hz
*
* Freq(Hz)	SPL(dB)	Phase(degrees)
20.000000	107.543	13.2201
20.299999	107.558	12.8220
20.600000	107.571	12.4160
20.900000	107.580	11.9911
21.200001	107.583	11.5442
21.400000	107.581	11.2402
21.799999	107.569	10.6370
22.000000	107.560	10.3451
22.400000	107.543	9.7818
22.700001	107.535	9.3513
23.000000	107.532	8.8723
23.299999	107.530	8.3137
23.600000	107.521	7.6771
24.000000	107.487	6.7664
24.299999	107.444	6.1298
24.700001	107.369	5.4720
25.000000	107.318	5.1685
25.400000	107.279	4.9756
25.799999	107.290	4.8548
26.200001	107.343	4.6069
26.500000	107.392	4.2764
26.900000	107.451	3.6699
27.200001	107.480	3.1636
27.600000	107.501	2.5252
28.000000	107.511	1.9928
28.500000	107.527	1.4427
29.000000	107.548	0.9042
29.500000	107.563	0.3223
30.000000	107.562	-0.2642
30.400000	107.551	-0.7024
30.700001	107.540	-1.0104
31.100000	107.524	-1.4047
31.500000	107.507	-1.7912
32.000000	107.483	-2.2687
32.500000	107.459	-2.7382
33.000000	107.439	-3.2072
33.500000	107.422	-3.6913
34.000000	107.407	-4.1982
34.500000	107.393	-4.7211
35.000000	107.379	-5.2466
35.500000	107.364	-5.7615
36.000000	107.348	-6.2551
36.500000	107.332	-6.7227
37.000000	107.316	-7.1663
37.500000	107.301	-7.5900
38.200001	107.276	-8.1506
38.700001	107.258	-8.5260
39.500000	107.227	-9.0958
40.000000	107.208	-9.4456
40.599998	107.183	-9.8652
41.200001	107.156	-10.2834
41.799999	107.129	-10.7020
42.500000	107.099	-11.2028
43.099998	107.073	-11.6560
43.700001	107.046	-12.1362
44.400002	107.010	-12.7162
45.000000	106.975	-13.2053
45.500000	106.945	-13.5928
46.200001	106.904	-14.1005
46.799999	106.873	-14.5138
47.500000	106.841	-14.9829
48.200001	106.812	-15.4303
48.700001	106.796	-15.7335
49.400002	106.781	-16.1669
50.000000	106.773	-16.5978
50.799999	106.748	-17.2739
51.500000	106.699	-17.8475
52.200001	106.633	-18.2670
53.000000	106.564	-18.5482
53.799999	106.520	-18.7875
54.500000	106.493	-19.0894
55.200001	106.462	-19.4898
56.000000	106.413	-19.9969
57.000000	106.338	-20.5928
58.000000	106.268	-21.1401
59.000000	106.203	-21.7137
60.000000	106.133	-22.2828
60.799999	106.078	-22.6749
61.500000	106.036	-22.9789
62.200001	106.000	-23.2762
63.000000	105.963	-23.6306
64.000000	105.915	-24.0961
65.000000	105.858	-24.5408
66.000000	105.794	-24.8990
67.000000	105.734	-25.1658
68.000000	105.677	-25.3849
69.000000	105.616	-25.5539
70.000000	105.549	-25.6289
71.000000	105.480	-25.6074
72.000000	105.409	-25.5535
73.000000	105.330	-25.4841
74.000000	105.260	-25.4438
75.000000	105.206	-25.6588
76.199997	105.130	-26.3759
77.500000	105.022	-27.3712
78.800003	104.929	-28.2229
80.000000	104.893	-28.7966
81.199997	104.890	-29.2321
82.500000	104.882	-29.5367
83.800003	104.844	-29.6976
85.000000	104.779	-29.8136
86.199997	104.708	-30.1067
87.500000	104.614	-30.8535
88.500000	104.506	-31.5451
90.000000	104.327	-32.1545
91.199997	104.226	-32.3127
92.500000	104.156	-32.4569
93.800003	104.104	-32.8458
95.000000	104.046	-33.6005
96.199997	103.966	-34.6285
97.500000	103.875	-35.7684
98.800003	103.793	-36.7425
100.000000	103.700	-37.3170
101.500000	103.535	-37.2257
103.000000	103.384	-36.4882
104.400002	103.287	-36.0334
106.000000	103.203	-36.1124
107.500000	103.156	-36.3416
109.000000	103.147	-36.4033
110.599998	103.122	-36.3932
112.000000	103.045	-36.5255
113.800003	102.972	-37.2097
115.000000	103.081	-38.1777
117.199997	103.727	-41.2452
118.000000	103.992	-42.6638
120.599998	104.105	-45.0865
122.000000	103.661	-42.7888
124.099998	102.991	-36.9742
125.000000	102.823	-35.0934
126.500000	102.684	-33.6500
128.000000	102.635	-33.9423
131.500000	102.269	-36.3607
132.000000	102.152	-36.4433
134.000000	101.634	-35.9588
136.000000	101.245	-35.1650
138.000000	101.111	-34.4774
140.000000	101.138	-33.5534
143.000000	101.124	-31.8488
145.000000	101.023	-31.7590
147.500000	100.837	-33.2087
150.000000	100.659	-34.6365
152.500000	100.523	-34.9644
155.000000	100.434	-35.0228
157.500000	100.380	-35.3622
160.000000	100.338	-35.4552
162.500000	100.281	-34.8262
165.000000	100.199	-33.7813
167.500000	100.082	-32.8499
170.000000	99.932	-32.2714
172.500000	99.769	-32.0562
175.000000	99.617	-31.9850
177.500000	99.498	-31.7182
180.000000	99.425	-31.2214
182.500000	99.366	-30.7081
185.000000	99.291	-30.2726
187.500000	99.200	-29.8818
190.000000	99.107	-29.4813
192.500000	99.000	-29.0386
195.000000	98.855	-28.5601
197.500000	98.670	-28.0297
200.000000	98.514	-27.4028
203.000000	98.471	-26.6860
206.000000	98.536	-26.1892
209.000000	98.582	-25.7542
212.000000	98.572	-25.2849
214.000000	98.544	-24.9435
218.000000	98.468	-24.1871
220.000000	98.430	-23.8005
224.000000	98.371	-23.0676
227.000000	98.336	-22.5375
230.000000	98.299	-22.0044
233.000000	98.262	-21.4801
236.000000	98.227	-20.9830
240.000000	98.180	-20.3664
243.000000	98.145	-19.9159
247.000000	98.100	-19.2897
250.000000	98.070	-18.7921
254.000000	98.039	-18.1121
258.000000	98.019	-17.4528
262.000000	98.008	-16.8517
265.000000	98.000	-16.4384
269.000000	97.988	-15.9015
272.000000	97.980	-15.4901
276.000000	97.971	-14.9331
280.000000	97.967	-14.3929
285.000000	97.974	-13.7782
290.000000	97.993	-13.2565
295.000000	98.006	-12.8258
300.000000	98.004	-12.4182
304.000000	97.998	-12.0769
307.000000	97.993	-11.8165
311.000000	97.987	-11.4762
315.000000	97.982	-11.1503
320.000000	97.972	-10.7509
325.000000	97.964	-10.3441
330.000000	97.961	-9.9384
335.000000	97.964	-9.5392
340.000000	97.970	-9.1499
345.000000	97.973	-8.7770
350.000000	97.974	-8.4220
355.000000	97.975	-8.0828
360.000000	97.979	-7.7590
365.000000	97.982	-7.4485
370.000000	97.985	-7.1441
375.000000	97.988	-6.8427
382.000000	97.992	-6.4284
387.000000	97.995	-6.1425
395.000000	98.003	-5.7234
400.000000	98.009	-5.4783
406.000000	98.014	-5.1747
412.000000	98.014	-4.8672
418.000000	98.013	-4.5670
425.000000	98.011	-4.2206
431.000000	98.015	-3.9304
437.000000	98.022	-3.6602
444.000000	98.031	-3.3845
450.000000	98.037	-3.1984
455.000000	98.036	-3.0828
462.000000	98.016	-2.9229
468.000000	97.987	-2.6923
475.000000	97.958	-2.2651
482.000000	97.953	-1.7690
487.000000	97.962	-1.4561
494.000000	97.977	-1.0996
500.000000	97.986	-0.8361
508.000000	97.996	-0.5215
515.000000	98.001	-0.2784
522.000000	98.001	-0.0424
530.000000	97.996	0.2565
538.000000	97.991	0.5906
545.000000	97.988	0.8945
552.000000	97.987	1.2002
560.000000	97.989	1.5373
570.000000	97.992	1.9286
580.000000	97.991	2.3120
590.000000	97.985	2.7100
600.000000	97.980	3.1441
608.000000	97.980	3.5082
615.000000	97.982	3.8241
622.000000	97.984	4.1420
630.000000	97.987	4.5229
640.000000	97.996	5.0204
650.000000	98.014	5.5159
660.000000	98.040	5.9813
670.000000	98.072	6.3599
680.000000	98.098	6.6527
690.000000	98.113	6.9240
700.000000	98.121	7.2229
710.000000	98.127	7.5580
720.000000	98.134	7.9050
730.000000	98.141	8.2526
740.000000	98.148	8.6093
750.000000	98.154	8.9827
762.000000	98.164	9.4520
775.000000	98.177	9.9757
788.000000	98.189	10.5118
800.000000	98.201	11.0427
812.000000	98.219	11.6204
825.000000	98.254	12.2466
838.000000	98.298	12.8018
850.000000	98.339	13.2521
862.000000	98.376	13.6800
875.000000	98.414	14.1409
885.000000	98.442	14.4977
900.000000	98.481	15.0468
912.000000	98.512	15.5234
925.000000	98.551	16.0772
938.000000	98.600	16.6361
950.000000	98.652	17.1281
962.000000	98.709	17.5885
975.000000	98.774	18.0543
988.000000	98.840	18.4895
1000.000000	98.899	18.8768
1015.000000	98.975	19.3746
1030.000000	99.059	19.8828
1044.000000	99.151	20.3048
1060.000000	99.261	20.6588
1075.000000	99.357	20.8914
1090.000000	99.447	21.0835
1106.000000	99.536	21.2674
1120.000000	99.609	21.4141
1138.000000	99.699	21.5920
1150.000000	99.756	21.7101
1172.000000	99.861	21.9355
1180.000000	99.901	22.0204
1206.000000	100.040	22.2379
1220.000000	100.116	22.2656
1241.000000	100.216	22.2061
1250.000000	100.253	22.1653
1265.000000	100.307	22.0984
1280.000000	100.354	22.0435
1315.000000	100.443	21.9821
1320.000000	100.454	21.9795
1340.000000	100.494	21.9884
1360.000000	100.527	22.0471
1380.000000	100.558	22.1758
1400.000000	100.592	22.3817
1430.000000	100.662	22.7402
1450.000000	100.716	22.9287
1475.000000	100.779	23.1171
1500.000000	100.833	23.3097
1525.000000	100.881	23.5581
1550.000000	100.929	23.8979
1575.000000	100.993	24.3106
1600.000000	101.076	24.6826
1625.000000	101.163	24.9431
1650.000000	101.243	25.1379
1675.000000	101.315	25.3287
1700.000000	101.383	25.5381
1725.000000	101.448	25.7648
1750.000000	101.508	26.0311
1775.000000	101.570	26.3760
1800.000000	101.643	26.7897
1825.000000	101.732	27.1965
1850.000000	101.829	27.5507
1875.000000	101.928	27.8613
1900.000000	102.027	28.1548
1925.000000	102.129	28.4565
1950.000000	102.239	28.7704
1975.000000	102.359	29.0565
2000.000000	102.486	29.2686
2030.000000	102.638	29.4304
2060.000000	102.785	29.5425
2090.000000	102.931	29.6310
2120.000000	103.077	29.6946
2140.000000	103.174	29.7333
2180.000000	103.378	29.8250
2200.000000	103.489	29.8518
2240.000000	103.722	29.7755
2270.000000	103.898	29.5905
2300.000000	104.070	29.3257
2330.000000	104.242	29.0070
2360.000000	104.418	28.6120
2400.000000	104.651	27.8894
2430.000000	104.813	27.1938
2470.000000	105.004	26.1169
2500.000000	105.123	25.2463
2540.000000	105.253	24.0985
2580.000000	105.361	23.0339
2620.000000	105.461	22.0138
2650.000000	105.529	21.2539
2690.000000	105.607	20.2726
2720.000000	105.661	19.5829
2760.000000	105.735	18.6996
2800.000000	105.813	17.7933
2850.000000	105.907	16.5778
2900.000000	105.987	15.2688
2950.000000	106.049	13.9187
3000.000000	106.098	12.5170
3040.000000	106.122	11.3217
3070.000000	106.125	10.4034
3110.000000	106.110	9.2067
3150.000000	106.077	8.0684
3200.000000	106.019	6.7122
3250.000000	105.937	5.4278
3300.000000	105.828	4.2645
3350.000000	105.698	3.2996
3400.000000	105.559	2.5426
3450.000000	105.416	1.9694
3500.000000	105.272	1.6009
3550.000000	105.138	1.4327
3600.000000	105.025	1.3943
3650.000000	104.930	1.4110
3700.000000	104.846	1.4583
3750.000000	104.770	1.5554
3820.000000	104.679	1.7697
3870.000000	104.625	1.9795
3950.000000	104.567	2.4387
4000.000000	104.556	2.7414
4060.000000	104.565	3.0303
4120.000000	104.586	3.2206
4180.000000	104.613	3.3295
4250.000000	104.648	3.3726
4310.000000	104.680	3.3881
4370.000000	104.722	3.3868
4440.000000	104.786	3.2813
4500.000000	104.846	3.0533
4550.000000	104.893	2.7684
4620.000000	104.949	2.2405
4680.000000	104.981	1.7182
4750.000000	105.006	1.0950
4820.000000	105.024	0.4483
4870.000000	105.033	-0.0516
4940.000000	105.036	-0.8125
5000.000000	105.026	-1.5195
5080.000000	104.988	-2.4956
5150.000000	104.933	-3.3157
5220.000000	104.865	-4.0935
5300.000000	104.774	-4.9582
5380.000000	104.663	-5.8069
5450.000000	104.545	-6.5137
5520.000000	104.406	-7.1266
5600.000000	104.228	-7.6616
5700.000000	103.991	-8.0883
5800.000000	103.740	-8.2712
5900.000000	103.472	-8.1572
6000.000000	103.198	-7.6180
6080.000000	102.996	-6.8722
6150.000000	102.843	-6.0428
6220.000000	102.715	-5.1072
6300.000000	102.598	-3.9485
6400.000000	102.496	-2.3900
6500.000000	102.447	-0.7560
6600.000000	102.453	0.8637
6700.000000	102.510	2.3956
6800.000000	102.613	3.8171
6900.000000	102.765	5.0906
7000.000000	102.965	6.1310
7100.000000	103.205	6.8575
7200.000000	103.476	7.2260
7300.000000	103.770	7.1818
7400.000000	104.075	6.6384
7500.000000	104.368	5.5380
7620.000000	104.673	3.5162
7750.000000	104.914	0.5869
7880.000000	105.032	-2.9321
8000.000000	105.008	-6.4076
8120.000000	104.861	-9.7526
8250.000000	104.590	-12.9606
8380.000000	104.239	-15.5813
8500.000000	103.882	-17.4265
8620.000000	103.535	-18.8413
8750.000000	103.195	-20.1772
8850.000000	102.956	-21.2402
9000.000000	102.614	-23.1016
9120.000000	102.327	-24.9384
9250.000000	101.962	-27.2777
9380.000000	101.507	-29.8292
9500.000000	100.986	-32.1668
9620.000000	100.352	-34.2289
9750.000000	99.536	-35.7968
9880.000000	98.603	-36.3431
10000.000000	97.669	-35.7584
10150.000000	96.455	-33.4407
10300.000000	95.267	-29.4160
10440.000000	94.257	-24.3456
10600.000000	93.298	-17.3699
10750.000000	92.651	-10.1388
10900.000000	92.278	-2.7345
11060.000000	92.174	4.8704
11200.000000	92.297	10.9181
11380.000000	92.670	17.4431
11500.000000	92.999	20.8595
11720.000000	93.638	25.0352
11800.000000	93.851	25.9189
12060.000000	94.362	27.0116
12200.000000	94.493	26.9243
12410.000000	94.503	26.7347
12500.000000	94.452	26.8085
12650.000000	94.318	27.2953
12800.000000	94.157	28.3024
13150.000000	93.869	32.4172
13200.000000	93.853	33.1464
13400.000000	93.876	36.1942
13600.000000	94.052	39.1805
13800.000000	94.377	41.7473
14000.000000	94.826	43.5741
14300.000000	95.645	44.3575
14500.000000	96.210	43.3249
14750.000000	96.838	40.2344
15000.000000	97.292	35.5181
15250.000000	97.549	30.0432
15500.000000	97.723	24.6580
15750.000000	98.008	19.0328
16000.000000	98.463	11.7639
16250.000000	99.003	1.4033
16500.000000	99.423	-13.5106
16750.000000	99.386	-33.2731
17000.000000	98.626	-55.5930
17250.000000	97.135	-77.5333
17500.000000	95.080	-98.0812
17750.000000	92.576	-116.9148
18000.000000	89.625	-132.7775
18250.000000	86.215	-145.3091
18500.000000	82.383	-159.4907
18750.000000	78.213	165.3428
19000.000000	73.795	52.2296
19250.000000	69.218	75.3077
19500.000000	64.560	-73.6055
19750.000000	59.906	-160.8496
20000.000000	55.399	54.0864
