* Measurement data measured by REW V5.20.13
* Source: EXCL: Microphone (Realtek(R) Audio), MICROPHONE (Master Volume), L, volume: 0.680
* Format: 256k Log Swept Sine, 1 sweep at -12.0 dBFS with no timing reference
* Dated: Jul 22, 2023 2:41:17 PM
* REW Settings:
*  C-weighting compensation: Off
*  Target level: 75.0 dB
* Note: Tranya T6 L
* Measurement: Tranya T6
* Smoothing: 1/12 octave
* Frequency Step: 1/48 octave
* Start Frequency: 20.000 Hz
*
* Freq(Hz)	SPL(dB)	Phase(degrees)
20.000000	105.962	-144.4140
20.299999	106.031	-144.7230
20.600000	106.101	-145.0693
20.900000	106.170	-145.4476
21.200001	106.237	-145.8455
21.400000	106.281	-146.1132
21.799999	106.366	-146.6432
22.000000	106.408	-146.9013
22.400000	106.493	-147.4014
22.700001	106.558	-147.7665
23.000000	106.624	-148.1285
23.299999	106.692	-148.4920
23.600000	106.759	-148.8603
24.000000	106.849	-149.3628
24.299999	106.914	-149.7506
24.700001	106.999	-150.2840
25.000000	107.060	-150.6968
25.400000	107.137	-151.2631
25.799999	107.208	-151.8431
26.200001	107.273	-152.4308
26.500000	107.318	-152.8730
26.900000	107.374	-153.4614
27.200001	107.414	-153.9012
27.600000	107.464	-154.4864
28.000000	107.512	-155.0718
28.500000	107.568	-155.8052
29.000000	107.621	-156.5385
29.500000	107.670	-157.2679
30.000000	107.716	-157.9900
30.400000	107.750	-158.5605
30.700001	107.774	-158.9828
31.100000	107.803	-159.5355
31.500000	107.829	-160.0735
32.000000	107.858	-160.7231
32.500000	107.884	-161.3502
33.000000	107.907	-161.9606
33.500000	107.927	-162.5575
34.000000	107.943	-163.1412
34.500000	107.957	-163.7136
35.000000	107.967	-164.2791
35.500000	107.972	-164.8360
36.000000	107.973	-165.3678
36.500000	107.969	-165.8490
37.000000	107.967	-166.2647
37.500000	107.972	-166.6285
38.200001	107.994	-167.1230
38.700001	108.017	-167.5094
39.500000	108.050	-168.1881
40.000000	108.066	-168.6215
40.599998	108.080	-169.1306
41.200001	108.090	-169.6232
41.799999	108.094	-170.0887
42.500000	108.097	-170.5784
43.099998	108.103	-170.9611
43.700001	108.115	-171.3462
44.400002	108.133	-171.8337
45.000000	108.148	-172.2852
45.500000	108.158	-172.6745
46.200001	108.170	-173.2238
46.799999	108.177	-173.6835
47.500000	108.184	-174.1892
48.200001	108.193	-174.6605
48.700001	108.202	-174.9810
49.400002	108.218	-175.4158
50.000000	108.237	-175.7949
50.799999	108.268	-176.3630
51.500000	108.290	-176.9370
52.200001	108.299	-177.5377
53.000000	108.300	-178.1952
53.799999	108.295	-178.8129
54.500000	108.289	-179.3269
55.200001	108.285	-179.8186
56.000000	108.284	179.6158
57.000000	108.283	178.8589
58.000000	108.277	178.0799
59.000000	108.271	177.2864
60.000000	108.261	176.4315
60.799999	108.244	175.7170
61.500000	108.220	175.1035
62.200001	108.190	174.5244
63.000000	108.152	173.9119
64.000000	108.105	173.1979
65.000000	108.058	172.5081
66.000000	108.008	171.8315
67.000000	107.955	171.1713
68.000000	107.899	170.5374
69.000000	107.841	169.9402
70.000000	107.783	169.3758
71.000000	107.724	168.8318
72.000000	107.663	168.2953
73.000000	107.596	167.7688
74.000000	107.524	167.2735
75.000000	107.449	166.8161
76.199997	107.362	166.2882
77.500000	107.264	165.7529
78.800003	107.170	165.3373
80.000000	107.098	165.0073
81.199997	107.034	164.6577
82.500000	106.961	164.2792
83.800003	106.884	163.9291
85.000000	106.811	163.6377
86.199997	106.738	163.3735
87.500000	106.662	163.1056
88.500000	106.604	162.9070
90.000000	106.517	162.6306
91.199997	106.450	162.4364
92.500000	106.380	162.2397
93.800003	106.313	162.0380
95.000000	106.251	161.8442
96.199997	106.191	161.6343
97.500000	106.125	161.3804
98.800003	106.058	161.1282
100.000000	105.997	160.9276
101.500000	105.926	160.7279
103.000000	105.855	160.5924
104.400002	105.786	160.5030
106.000000	105.701	160.3890
107.500000	105.617	160.2493
109.000000	105.538	160.0939
110.599998	105.464	159.9592
112.000000	105.404	159.9050
113.800003	105.309	159.9243
115.000000	105.225	159.9526
117.199997	105.026	159.9269
118.000000	104.952	159.8981
120.599998	104.810	159.7663
122.000000	104.815	159.5733
124.099998	104.850	159.2560
125.000000	104.854	159.1926
126.500000	104.833	159.2038
128.000000	104.779	159.3001
131.500000	104.594	159.6504
132.000000	104.573	159.7187
134.000000	104.523	159.9849
136.000000	104.517	160.1191
138.000000	104.524	160.0679
140.000000	104.530	159.8562
143.000000	104.514	159.2515
145.000000	104.473	158.6567
147.500000	104.395	157.7692
150.000000	104.314	156.8802
152.500000	104.231	156.1595
155.000000	104.115	155.7537
157.500000	103.966	155.6483
160.000000	103.814	155.6360
162.500000	103.675	155.5749
165.000000	103.544	155.4847
167.500000	103.414	155.4165
170.000000	103.288	155.3888
172.500000	103.169	155.4016
175.000000	103.054	155.4514
177.500000	102.942	155.5284
180.000000	102.831	155.6234
182.500000	102.723	155.7317
185.000000	102.618	155.8505
187.500000	102.515	155.9812
190.000000	102.415	156.1293
192.500000	102.318	156.2938
195.000000	102.223	156.4620
197.500000	102.129	156.6242
200.000000	102.037	156.7853
203.000000	101.931	156.9891
206.000000	101.829	157.2059
209.000000	101.728	157.4299
212.000000	101.630	157.6571
214.000000	101.565	157.8095
218.000000	101.440	158.1183
220.000000	101.378	158.2755
224.000000	101.257	158.5953
227.000000	101.166	158.8376
230.000000	101.077	159.0815
233.000000	100.988	159.3297
236.000000	100.902	159.5801
240.000000	100.789	159.9102
243.000000	100.705	160.1565
247.000000	100.593	160.4904
250.000000	100.509	160.7472
254.000000	100.398	161.0952
258.000000	100.288	161.4453
262.000000	100.178	161.8031
265.000000	100.096	162.0805
269.000000	99.988	162.4621
272.000000	99.908	162.7555
276.000000	99.803	163.1558
280.000000	99.699	163.5662
285.000000	99.571	164.0913
290.000000	99.444	164.6285
295.000000	99.319	165.1806
300.000000	99.197	165.7507
304.000000	99.100	166.2188
307.000000	99.029	166.5761
311.000000	98.936	167.0605
315.000000	98.843	167.5540
320.000000	98.729	168.1810
325.000000	98.618	168.8170
330.000000	98.509	169.4638
335.000000	98.402	170.1256
340.000000	98.297	170.8000
345.000000	98.195	171.4810
350.000000	98.096	172.1679
355.000000	98.000	172.8621
360.000000	97.906	173.5634
365.000000	97.815	174.2713
370.000000	97.726	174.9858
375.000000	97.638	175.7061
382.000000	97.520	176.7223
387.000000	97.438	177.4521
395.000000	97.311	178.6243
400.000000	97.235	179.3593
406.000000	97.146	-179.7538
412.000000	97.060	-178.8604
418.000000	96.977	-177.9623
425.000000	96.884	-176.9105
431.000000	96.807	-176.0063
437.000000	96.732	-175.0991
444.000000	96.649	-174.0366
450.000000	96.580	-173.1240
455.000000	96.524	-172.3631
462.000000	96.449	-171.2962
468.000000	96.386	-170.3802
475.000000	96.316	-169.3105
482.000000	96.249	-168.2397
487.000000	96.203	-167.4742
494.000000	96.141	-166.4026
500.000000	96.091	-165.4848
508.000000	96.027	-164.2653
515.000000	95.975	-163.2016
522.000000	95.924	-162.1463
530.000000	95.868	-160.9302
538.000000	95.820	-159.7255
545.000000	95.779	-158.7073
552.000000	95.735	-157.6963
560.000000	95.684	-156.5119
570.000000	95.628	-154.9973
580.000000	95.586	-153.4906
590.000000	95.554	-151.9974
600.000000	95.527	-150.4932
608.000000	95.505	-149.2862
615.000000	95.485	-148.2458
622.000000	95.467	-147.2257
630.000000	95.450	-146.0702
640.000000	95.434	-144.6254
650.000000	95.421	-143.1885
660.000000	95.412	-141.7613
670.000000	95.408	-140.3423
680.000000	95.408	-138.9314
690.000000	95.412	-137.5298
700.000000	95.420	-136.1383
710.000000	95.431	-134.7585
720.000000	95.446	-133.3915
730.000000	95.465	-132.0373
740.000000	95.487	-130.6954
750.000000	95.513	-129.3671
762.000000	95.549	-127.7944
775.000000	95.594	-126.1191
788.000000	95.643	-124.4729
800.000000	95.694	-122.9805
812.000000	95.749	-121.5147
825.000000	95.813	-119.9569
838.000000	95.883	-118.4317
850.000000	95.952	-117.0542
862.000000	96.024	-115.7076
875.000000	96.107	-114.2841
885.000000	96.173	-113.2133
900.000000	96.276	-111.6461
912.000000	96.361	-110.4262
925.000000	96.456	-109.1397
938.000000	96.554	-107.8907
950.000000	96.645	-106.7722
962.000000	96.738	-105.6885
975.000000	96.840	-104.5542
988.000000	96.942	-103.4604
1000.000000	97.036	-102.4855
1015.000000	97.154	-101.3124
1030.000000	97.271	-100.1889
1044.000000	97.379	-99.1832
1060.000000	97.500	-98.0811
1075.000000	97.610	-97.0901
1090.000000	97.718	-96.1364
1106.000000	97.830	-95.1556
1120.000000	97.924	-94.3246
1138.000000	98.040	-93.2878
1150.000000	98.115	-92.6124
1172.000000	98.247	-91.3977
1180.000000	98.293	-90.9616
1206.000000	98.436	-89.5558
1220.000000	98.510	-88.8013
1241.000000	98.618	-87.6678
1250.000000	98.663	-87.1817
1265.000000	98.739	-86.3731
1280.000000	98.814	-85.5682
1315.000000	98.988	-83.7104
1320.000000	99.013	-83.4471
1340.000000	99.113	-82.3986
1360.000000	99.214	-81.3585
1380.000000	99.315	-80.3293
1400.000000	99.418	-79.3125
1430.000000	99.573	-77.8111
1450.000000	99.678	-76.8263
1475.000000	99.810	-75.6130
1500.000000	99.944	-74.4204
1525.000000	100.079	-73.2504
1550.000000	100.216	-72.1028
1575.000000	100.355	-70.9781
1600.000000	100.495	-69.8787
1625.000000	100.638	-68.8060
1650.000000	100.783	-67.7596
1675.000000	100.931	-66.7405
1700.000000	101.081	-65.7516
1725.000000	101.235	-64.7988
1750.000000	101.391	-63.8894
1775.000000	101.548	-63.0292
1800.000000	101.705	-62.2185
1825.000000	101.861	-61.4533
1850.000000	102.016	-60.7270
1875.000000	102.170	-60.0343
1900.000000	102.322	-59.3729
1925.000000	102.474	-58.7421
1950.000000	102.625	-58.1412
1975.000000	102.776	-57.5707
2000.000000	102.927	-57.0320
2030.000000	103.108	-56.4284
2060.000000	103.288	-55.8721
2090.000000	103.467	-55.3643
2120.000000	103.646	-54.9082
2140.000000	103.765	-54.6342
2180.000000	104.002	-54.1606
2200.000000	104.120	-53.9613
2240.000000	104.354	-53.6406
2270.000000	104.527	-53.4717
2300.000000	104.698	-53.3691
2330.000000	104.866	-53.3376
2360.000000	105.030	-53.3789
2400.000000	105.242	-53.5444
2430.000000	105.395	-53.7492
2470.000000	105.589	-54.1300
2500.000000	105.725	-54.4970
2540.000000	105.892	-55.0927
2580.000000	106.041	-55.8057
2620.000000	106.169	-56.6269
2650.000000	106.249	-57.3055
2690.000000	106.334	-58.2784
2720.000000	106.381	-59.0473
2760.000000	106.418	-60.1065
2800.000000	106.426	-61.1824
2850.000000	106.396	-62.5107
2900.000000	106.322	-63.7730
2950.000000	106.208	-64.9210
3000.000000	106.057	-65.9098
3040.000000	105.915	-66.5623
3070.000000	105.799	-66.9627
3110.000000	105.633	-67.3736
3150.000000	105.460	-67.6476
3200.000000	105.239	-67.8191
3250.000000	105.017	-67.8413
3300.000000	104.796	-67.7609
3350.000000	104.570	-67.6048
3400.000000	104.335	-67.3677
3450.000000	104.088	-67.0172
3500.000000	103.829	-66.5124
3550.000000	103.564	-65.8204
3600.000000	103.302	-64.9349
3650.000000	103.051	-63.8879
3700.000000	102.813	-62.7287
3750.000000	102.587	-61.4896
3820.000000	102.289	-59.6353
3870.000000	102.090	-58.2273
3950.000000	101.794	-55.8457
4000.000000	101.625	-54.2895
4060.000000	101.437	-52.3662
4120.000000	101.265	-50.3945
4180.000000	101.109	-48.3865
4250.000000	100.944	-46.0076
4310.000000	100.818	-43.9418
4370.000000	100.705	-41.8559
4440.000000	100.590	-39.4053
4500.000000	100.505	-37.2973
4550.000000	100.442	-35.5395
4620.000000	100.368	-33.0814
4680.000000	100.314	-30.9776
4750.000000	100.260	-28.5197
4820.000000	100.216	-26.0402
4870.000000	100.189	-24.2399
4940.000000	100.162	-21.6532
5000.000000	100.151	-19.3588
5080.000000	100.161	-16.1911
5150.000000	100.198	-13.3482
5220.000000	100.262	-10.4800
5300.000000	100.371	-7.2146
5380.000000	100.515	-3.9880
5450.000000	100.666	-1.1996
5520.000000	100.843	1.5619
5600.000000	101.078	4.6945
5700.000000	101.431	8.5789
5800.000000	101.865	12.3969
5900.000000	102.396	16.0667
6000.000000	103.038	19.4678
6080.000000	103.639	21.8946
6150.000000	104.233	23.7222
6220.000000	104.894	25.1882
6300.000000	105.726	26.2856
6400.000000	106.862	26.4884
6500.000000	108.047	24.9252
6600.000000	109.176	21.0682
6700.000000	110.110	14.5818
6800.000000	110.716	5.6674
6900.000000	110.918	-4.7316
7000.000000	110.705	-15.1126
7100.000000	110.112	-23.9848
7200.000000	109.223	-30.5087
7300.000000	108.156	-34.6043
7400.000000	107.028	-36.6223
7500.000000	105.927	-37.0210
7620.000000	104.711	-35.9582
7750.000000	103.566	-33.5303
7880.000000	102.607	-30.2337
8000.000000	101.876	-26.6678
8120.000000	101.279	-22.7723
8250.000000	100.771	-18.2912
8380.000000	100.399	-13.5954
8500.000000	100.172	-9.1555
8620.000000	100.050	-4.7122
8750.000000	100.037	0.0155
8850.000000	100.114	3.5571
9000.000000	100.392	8.6622
9120.000000	100.774	12.4948
9250.000000	101.376	16.2347
9380.000000	102.196	19.2539
9500.000000	103.154	21.0180
9620.000000	104.279	21.2839
9750.000000	105.590	19.0558
9880.000000	106.822	13.2108
10000.000000	107.693	4.0700
10150.000000	108.167	-11.5755
10300.000000	107.794	-28.5387
10440.000000	106.714	-41.7350
10600.000000	104.843	-51.2877
10750.000000	102.766	-55.1741
10900.000000	100.636	-55.5608
11060.000000	98.504	-53.5816
11200.000000	96.836	-50.6409
11380.000000	94.984	-45.8862
11500.000000	93.914	-42.3341
11720.000000	92.230	-35.3419
11800.000000	91.692	-32.6931
12060.000000	90.160	-23.8347
12200.000000	89.453	-18.9572
12410.000000	88.525	-11.5621
12500.000000	88.170	-8.3758
12650.000000	87.629	-3.0559
12800.000000	87.149	2.2647
13150.000000	86.255	14.5996
13200.000000	86.154	16.3411
13400.000000	85.808	23.2499
13600.000000	85.551	30.0975
13800.000000	85.379	36.8535
14000.000000	85.275	43.4681
14300.000000	85.229	53.2014
14500.000000	85.301	59.6314
14750.000000	85.533	67.5426
15000.000000	85.931	75.1574
15250.000000	86.516	82.4197
15500.000000	87.328	89.2314
15750.000000	88.430	95.3858
16000.000000	89.915	100.6794
16250.000000	91.803	104.4270
16500.000000	93.944	105.1511
16750.000000	96.028	100.8094
17000.000000	97.653	89.6957
17250.000000	98.445	72.5341
17500.000000	98.227	53.8837
17750.000000	97.123	39.2581
18000.000000	95.484	30.8821
18250.000000	93.741	27.5035
18500.000000	92.294	26.6121
18750.000000	91.392	25.7428
19000.000000	90.998	22.7517
19250.000000	90.804	16.1273
19500.000000	90.410	6.0808
19750.000000	89.502	-4.7900
20000.000000	87.943	-12.7854
