* Measurement data measured by REW V5.20.13
* Source: EXCL: Microphone (Realtek(R) Audio), MICROPHONE (Master Volume), L, volume: 0.680
* Format: 256k Log Swept Sine, 1 sweep at -12.0 dBFS with no timing reference
* Dated: Jul 13, 2023 11:46:36 PM
* REW Settings:
*  C-weighting compensation: Off
*  Target level: 75.0 dB
* Note: Tripowin x HBB Kailua L
* Measurement: Tripowin x HBB Kailua L
* Smoothing: 1/12 octave
* Frequency Step: 1/48 octave
* Start Frequency: 20.000 Hz
*
* Freq(Hz)	SPL(dB)	Phase(degrees)
20.000000	109.867	-142.2677
20.299999	109.952	-142.5386
20.600000	110.086	-142.9771
20.900000	110.242	-143.7496
21.200001	110.382	-144.8997
21.400000	110.450	-145.8091
21.799999	110.509	-147.7396
22.000000	110.501	-148.6278
22.400000	110.428	-149.9967
22.700001	110.355	-150.5730
23.000000	110.301	-150.7850
23.299999	110.287	-150.7734
23.600000	110.323	-150.7112
24.000000	110.436	-150.8317
24.299999	110.543	-151.2374
24.700001	110.674	-152.2590
25.000000	110.736	-153.3084
25.400000	110.748	-154.8716
25.799999	110.680	-156.3147
26.200001	110.557	-157.3776
26.500000	110.453	-157.8582
26.900000	110.332	-158.1125
27.200001	110.273	-158.1056
27.600000	110.247	-157.9922
28.000000	110.281	-157.9402
28.500000	110.387	-158.1757
29.000000	110.522	-158.8828
29.500000	110.647	-160.0602
30.000000	110.725	-161.5418
30.400000	110.748	-162.7751
30.700001	110.745	-163.6553
31.100000	110.724	-164.7257
31.500000	110.692	-165.6819
32.000000	110.641	-166.7460
32.500000	110.575	-167.6476
33.000000	110.500	-168.3199
33.500000	110.436	-168.7633
34.000000	110.395	-169.1037
34.500000	110.368	-169.4763
35.000000	110.334	-169.8720
35.500000	110.288	-170.1530
36.000000	110.250	-170.2334
36.500000	110.246	-170.2360
37.000000	110.273	-170.3322
37.500000	110.306	-170.6538
38.200001	110.319	-171.3034
38.700001	110.308	-171.7135
39.500000	110.306	-172.2568
40.000000	110.321	-172.7038
40.599998	110.334	-173.4465
41.200001	110.321	-174.3029
41.799999	110.289	-175.1225
42.500000	110.254	-176.0002
43.099998	110.234	-176.7621
43.700001	110.217	-177.5458
44.400002	110.200	-178.4201
45.000000	110.193	-179.1066
45.500000	110.194	-179.6510
46.200001	110.200	179.6198
46.799999	110.204	179.0490
47.500000	110.205	178.4706
48.200001	110.199	177.9890
48.700001	110.191	177.7092
49.400002	110.179	177.3940
50.000000	110.172	177.1324
50.799999	110.157	176.6856
51.500000	110.128	176.2068
52.200001	110.083	175.7109
53.000000	110.024	175.1425
53.799999	109.962	174.5952
54.500000	109.912	174.2045
55.200001	109.886	173.8810
56.000000	109.887	173.4449
57.000000	109.893	172.7184
58.000000	109.881	172.0030
59.000000	109.858	171.3572
60.000000	109.816	170.6973
60.799999	109.760	170.2253
61.500000	109.704	169.8968
62.200001	109.654	169.6072
63.000000	109.605	169.2406
64.000000	109.546	168.7072
65.000000	109.484	168.2079
66.000000	109.435	167.7846
67.000000	109.400	167.3532
68.000000	109.362	166.9019
69.000000	109.314	166.5102
70.000000	109.265	166.1947
71.000000	109.223	165.8635
72.000000	109.176	165.4526
73.000000	109.115	165.0425
74.000000	109.051	164.7490
75.000000	109.009	164.5451
76.199997	108.984	164.2298
77.500000	108.951	163.7399
78.800003	108.889	163.2449
80.000000	108.812	162.8793
81.199997	108.736	162.5308
82.500000	108.658	162.0128
83.800003	108.576	161.3351
85.000000	108.496	160.6684
86.199997	108.416	160.0606
87.500000	108.334	159.5802
88.500000	108.280	159.3574
90.000000	108.212	159.1686
91.199997	108.159	159.0512
92.500000	108.094	158.8821
93.800003	108.016	158.6346
95.000000	107.932	158.3779
96.199997	107.844	158.1489
97.500000	107.749	157.9791
98.800003	107.660	157.9264
100.000000	107.584	157.9954
101.500000	107.502	158.2074
103.000000	107.439	158.4954
104.400002	107.406	158.7573
106.000000	107.401	158.9251
107.500000	107.416	158.8875
109.000000	107.434	158.6374
110.599998	107.444	158.1615
112.000000	107.439	157.6599
113.800003	107.426	157.0807
115.000000	107.422	156.8050
117.199997	107.424	156.5379
118.000000	107.423	156.4640
120.599998	107.351	155.9489
122.000000	107.243	155.5811
124.099998	107.054	155.1417
125.000000	106.984	154.9764
126.500000	106.893	154.7007
128.000000	106.825	154.4344
131.500000	106.674	154.0759
132.000000	106.649	154.0620
134.000000	106.552	154.0316
136.000000	106.466	153.9442
138.000000	106.405	153.7598
140.000000	106.363	153.5536
143.000000	106.293	153.5090
145.000000	106.217	153.5898
147.500000	106.063	153.6610
150.000000	105.898	153.7129
152.500000	105.783	153.6574
155.000000	105.711	153.5474
157.500000	105.654	153.4757
160.000000	105.592	153.3978
162.500000	105.514	153.2726
165.000000	105.423	153.1457
167.500000	105.332	153.0562
170.000000	105.246	153.0051
172.500000	105.163	153.0045
175.000000	105.081	153.0659
177.500000	105.000	153.1612
180.000000	104.922	153.2444
182.500000	104.845	153.2980
185.000000	104.768	153.3409
187.500000	104.689	153.4073
190.000000	104.609	153.5209
192.500000	104.529	153.6817
195.000000	104.453	153.8834
197.500000	104.383	154.1211
200.000000	104.322	154.3831
203.000000	104.261	154.7064
206.000000	104.213	154.9984
209.000000	104.174	155.2083
212.000000	104.134	155.3304
214.000000	104.102	155.3876
218.000000	104.031	155.5160
220.000000	103.996	155.5898
224.000000	103.934	155.6948
227.000000	103.889	155.7165
230.000000	103.841	155.7248
233.000000	103.788	155.7477
236.000000	103.729	155.7810
240.000000	103.645	155.8280
243.000000	103.578	155.8768
247.000000	103.486	155.9891
250.000000	103.416	156.1223
254.000000	103.327	156.3718
258.000000	103.250	156.6616
262.000000	103.183	156.9189
265.000000	103.132	157.0843
269.000000	103.061	157.3053
272.000000	103.007	157.4921
276.000000	102.937	157.7729
280.000000	102.873	158.0755
285.000000	102.806	158.4465
290.000000	102.747	158.7421
295.000000	102.684	158.9501
300.000000	102.609	159.1607
304.000000	102.546	159.3703
307.000000	102.500	159.5454
311.000000	102.439	159.7869
315.000000	102.379	160.0309
320.000000	102.303	160.3560
325.000000	102.229	160.7212
330.000000	102.162	161.1100
335.000000	102.100	161.4944
340.000000	102.041	161.8602
345.000000	101.983	162.2155
350.000000	101.924	162.5765
355.000000	101.867	162.9483
360.000000	101.812	163.3271
365.000000	101.758	163.7093
370.000000	101.706	164.0942
375.000000	101.656	164.4828
382.000000	101.589	165.0324
387.000000	101.544	165.4277
395.000000	101.474	166.0650
400.000000	101.433	166.4649
406.000000	101.387	166.9385
412.000000	101.341	167.4016
418.000000	101.295	167.8703
425.000000	101.243	168.4484
431.000000	101.204	168.9630
437.000000	101.172	169.4702
444.000000	101.142	170.0351
450.000000	101.120	170.4811
455.000000	101.103	170.8094
462.000000	101.073	171.2162
468.000000	101.038	171.5692
475.000000	100.994	172.0260
482.000000	100.952	172.5114
487.000000	100.922	172.8610
494.000000	100.880	173.3699
500.000000	100.845	173.8372
508.000000	100.807	174.4722
515.000000	100.777	175.0089
522.000000	100.747	175.5367
530.000000	100.712	176.1587
538.000000	100.681	176.8012
545.000000	100.658	177.3643
552.000000	100.638	177.9243
560.000000	100.619	178.5515
570.000000	100.596	179.3086
580.000000	100.572	-179.9371
590.000000	100.549	-179.1678
600.000000	100.528	-178.3736
608.000000	100.516	-177.7317
615.000000	100.506	-177.1756
622.000000	100.497	-176.6149
630.000000	100.487	-175.9489
640.000000	100.483	-175.0857
650.000000	100.490	-174.2172
660.000000	100.508	-173.3713
670.000000	100.536	-172.6062
680.000000	100.561	-171.9263
690.000000	100.578	-171.2716
700.000000	100.590	-170.5955
710.000000	100.603	-169.8892
720.000000	100.620	-169.1731
730.000000	100.640	-168.4583
740.000000	100.662	-167.7422
750.000000	100.686	-167.0229
762.000000	100.720	-166.1572
775.000000	100.762	-165.2233
788.000000	100.807	-164.2938
800.000000	100.854	-163.4207
812.000000	100.911	-162.5353
825.000000	100.987	-161.6214
838.000000	101.068	-160.7996
850.000000	101.140	-160.0938
862.000000	101.210	-159.4046
875.000000	101.287	-158.6660
885.000000	101.348	-158.1027
900.000000	101.443	-157.2776
912.000000	101.521	-156.6295
925.000000	101.611	-155.9416
938.000000	101.706	-155.2886
950.000000	101.796	-154.7302
962.000000	101.886	-154.2092
975.000000	101.981	-153.6724
988.000000	102.076	-153.1576
1000.000000	102.162	-152.6971
1015.000000	102.270	-152.1257
1030.000000	102.383	-151.5669
1044.000000	102.491	-151.0896
1060.000000	102.610	-150.6073
1075.000000	102.714	-150.1574
1090.000000	102.818	-149.6653
1106.000000	102.937	-149.1202
1120.000000	103.049	-148.6650
1138.000000	103.198	-148.1383
1150.000000	103.300	-147.8248
1172.000000	103.486	-147.3097
1180.000000	103.556	-147.1370
1206.000000	103.790	-146.6825
1220.000000	103.915	-146.5536
1241.000000	104.085	-146.4878
1250.000000	104.150	-146.4787
1265.000000	104.249	-146.4558
1280.000000	104.339	-146.3981
1315.000000	104.543	-146.0811
1320.000000	104.573	-146.0297
1340.000000	104.690	-145.8443
1360.000000	104.791	-145.5878
1380.000000	104.898	-145.1065
1400.000000	105.047	-144.4906
1430.000000	105.341	-143.8165
1450.000000	105.549	-143.6514
1475.000000	105.801	-143.6762
1500.000000	106.037	-143.8861
1525.000000	106.253	-144.2066
1550.000000	106.454	-144.5503
1575.000000	106.652	-144.8871
1600.000000	106.855	-145.2908
1625.000000	107.053	-145.8189
1650.000000	107.238	-146.4430
1675.000000	107.410	-147.1220
1700.000000	107.572	-147.8408
1725.000000	107.725	-148.6043
1750.000000	107.867	-149.4025
1775.000000	108.002	-150.2182
1800.000000	108.135	-151.0764
1825.000000	108.261	-152.0414
1850.000000	108.369	-153.1254
1875.000000	108.450	-154.2784
1900.000000	108.502	-155.4324
1925.000000	108.528	-156.5213
1950.000000	108.535	-157.5046
1975.000000	108.531	-158.3930
2000.000000	108.517	-159.2125
2030.000000	108.483	-160.0862
2060.000000	108.433	-160.7890
2090.000000	108.374	-161.2938
2120.000000	108.314	-161.5911
2140.000000	108.276	-161.6621
2180.000000	108.228	-161.5008
2200.000000	108.226	-161.3173
2240.000000	108.269	-160.9091
2270.000000	108.336	-160.6407
2300.000000	108.426	-160.4287
2330.000000	108.539	-160.2887
2360.000000	108.677	-160.2759
2400.000000	108.883	-160.5717
2430.000000	109.037	-161.0464
2470.000000	109.227	-161.9606
2500.000000	109.351	-162.8091
2540.000000	109.491	-164.0794
2580.000000	109.607	-165.4736
2620.000000	109.697	-167.0418
2650.000000	109.736	-168.3246
2690.000000	109.737	-170.0577
2720.000000	109.703	-171.2733
2760.000000	109.626	-172.7069
2800.000000	109.528	-173.9181
2850.000000	109.389	-175.1271
2900.000000	109.250	-176.0531
2950.000000	109.121	-176.7851
3000.000000	109.004	-177.4514
3040.000000	108.907	-177.9866
3070.000000	108.824	-178.3559
3110.000000	108.701	-178.7339
3150.000000	108.574	-178.9467
3200.000000	108.424	-179.0114
3250.000000	108.287	-178.9148
3300.000000	108.162	-178.6872
3350.000000	108.050	-178.3080
3400.000000	107.960	-177.7995
3450.000000	107.894	-177.2117
3500.000000	107.851	-176.5514
3550.000000	107.838	-175.8448
3600.000000	107.857	-175.1676
3650.000000	107.899	-174.5827
3700.000000	107.956	-174.0932
3750.000000	108.023	-173.6623
3820.000000	108.139	-173.1498
3870.000000	108.237	-172.8482
3950.000000	108.431	-172.4664
4000.000000	108.585	-172.3700
4060.000000	108.793	-172.5182
4120.000000	109.013	-173.0022
4180.000000	109.234	-173.8329
4250.000000	109.477	-175.2485
4310.000000	109.665	-176.8185
4370.000000	109.831	-178.7434
4440.000000	109.976	178.4727
4500.000000	110.030	175.6395
4550.000000	110.009	173.0520
4620.000000	109.860	169.2847
4680.000000	109.613	166.1676
4750.000000	109.195	162.9831
4820.000000	108.663	160.5085
4870.000000	108.228	159.2520
4940.000000	107.563	158.2881
5000.000000	106.960	158.2413
5080.000000	106.140	159.3526
5150.000000	105.444	161.4437
5220.000000	104.814	164.4913
5300.000000	104.224	168.9323
5380.000000	103.816	174.1137
5450.000000	103.631	179.0117
5520.000000	103.620	-175.9509
5600.000000	103.830	-170.3018
5700.000000	104.405	-163.9525
5800.000000	105.248	-159.0303
5900.000000	106.238	-156.0181
6000.000000	107.255	-155.1348
6080.000000	108.013	-155.9815
6150.000000	108.589	-157.7596
6220.000000	109.055	-160.3189
6300.000000	109.436	-163.8517
6400.000000	109.689	-168.5278
6500.000000	109.739	-172.8737
6600.000000	109.642	-176.5389
6700.000000	109.446	-179.3604
6800.000000	109.201	178.7400
6900.000000	108.966	177.6946
7000.000000	108.787	177.2894
7100.000000	108.692	177.2667
7200.000000	108.694	177.3982
7300.000000	108.801	177.4525
7400.000000	109.011	177.1614
7500.000000	109.304	176.2535
7620.000000	109.719	174.0167
7750.000000	110.165	169.7736
7880.000000	110.473	163.3730
8000.000000	110.505	155.8565
8120.000000	110.218	147.6728
8250.000000	109.527	139.3119
8380.000000	108.485	132.6220
8500.000000	107.295	128.4972
8620.000000	105.983	126.3657
8750.000000	104.524	125.9861
8850.000000	103.419	126.8202
9000.000000	101.843	129.5377
9120.000000	100.675	132.6999
9250.000000	99.511	136.9177
9380.000000	98.448	141.8738
9500.000000	97.557	147.0511
9620.000000	96.753	152.7849
9750.000000	95.986	159.6531
9880.000000	95.350	167.2167
10000.000000	94.912	174.7606
10150.000000	94.630	-175.2343
10300.000000	94.714	-165.0311
10440.000000	95.137	-155.9758
10600.000000	95.942	-146.9865
10750.000000	96.859	-140.4173
10900.000000	97.790	-135.7523
11060.000000	98.712	-132.4769
11200.000000	99.441	-130.5443
11380.000000	100.310	-128.6658
11500.000000	100.887	-127.5466
11720.000000	102.053	-125.6983
11800.000000	102.534	-125.1748
12060.000000	104.340	-124.9343
12200.000000	105.410	-126.4751
12410.000000	106.934	-132.3438
12500.000000	107.479	-136.4180
12650.000000	108.137	-145.1864
12800.000000	108.400	-155.6092
13150.000000	107.388	-177.8053
13200.000000	107.092	179.9692
13400.000000	105.704	174.0390
13600.000000	104.213	172.2321
13800.000000	102.867	173.2601
14000.000000	101.817	175.9378
14300.000000	100.934	-178.8435
14500.000000	100.826	-175.5660
14750.000000	101.186	-172.9650
15000.000000	101.922	-173.6423
15250.000000	102.676	-179.2536
15500.000000	103.025	169.9938
15750.000000	102.657	156.5815
16000.000000	101.496	144.7020
16250.000000	99.694	137.3683
16500.000000	97.535	134.9806
16750.000000	95.312	136.3290
17000.000000	93.257	139.9290
17250.000000	91.504	144.5651
17500.000000	90.095	149.3143
17750.000000	88.993	153.4551
18000.000000	88.108	156.4517
18250.000000	87.312	158.0577
18500.000000	86.466	158.4791
18750.000000	85.447	158.4705
19000.000000	84.177	159.2297
19250.000000	82.639	162.0384
19500.000000	80.886	167.7656
19750.000000	79.047	176.4778
20000.000000	77.317	-172.6523
