* Measurement data measured by REW V5.20.5
* Source: USB Sound Device        , MICROPHONE, R, volume: 0.514
* Format: 256k Log Swept Sine, 1 sweep at -6.0 dBFS with no timing reference
* Dated: 26 Jul, 2023 10:47:44 PM
* REW Settings:
*  C-weighting compensation: Off
*  Target level: 75.0 dB
* Note: 
* Measurement: CVJ FREEDOM DD Jul 26
* Smoothing: None
* Frequency Step: 1/48 octave
* Start Frequency: 20.000 Hz
*
* Freq(Hz)	SPL(dB)	Phase(degrees)
20.000000	91.142	38.8375
20.299999	91.181	38.2722
20.600000	91.219	37.7122
20.900000	91.256	37.1614
21.200001	91.294	36.6224
21.400000	91.319	36.2695
21.799999	91.370	35.5770
22.000000	91.396	35.2361
22.400000	91.448	34.5626
22.700001	91.487	34.0660
23.000000	91.523	33.5802
23.299999	91.558	33.1088
23.600000	91.592	32.6540
24.000000	91.635	32.0730
24.299999	91.665	31.6530
24.700001	91.705	31.1089
25.000000	91.732	30.7101
25.400000	91.767	30.1897
25.799999	91.798	29.6809
26.200001	91.827	29.1796
26.500000	91.848	28.8046
26.900000	91.873	28.3032
27.200001	91.890	27.9267
27.600000	91.910	27.4284
28.000000	91.928	26.9389
28.500000	91.952	26.3369
29.000000	91.976	25.7326
29.500000	92.000	25.1195
30.000000	92.022	24.5112
30.400000	92.038	24.0413
30.700001	92.050	23.7008
31.100000	92.068	23.2567
31.500000	92.087	22.8150
32.000000	92.109	22.2608
32.500000	92.127	21.7194
33.000000	92.142	21.2141
33.500000	92.156	20.7451
34.000000	92.174	20.2848
34.500000	92.190	19.8084
35.000000	92.202	19.3221
35.500000	92.208	18.8527
36.000000	92.214	18.4123
36.500000	92.221	17.9831
37.000000	92.229	17.5411
37.500000	92.236	17.0866
38.200001	92.240	16.4686
38.700001	92.243	16.0521
39.500000	92.252	15.3923
40.000000	92.257	14.9736
40.599998	92.260	14.4793
41.200001	92.262	14.0055
41.799999	92.263	13.5507
42.500000	92.264	13.0403
43.099998	92.266	12.6099
43.700001	92.267	12.1719
44.400002	92.265	11.6602
45.000000	92.261	11.2413
45.500000	92.259	10.9030
46.200001	92.256	10.4276
46.799999	92.251	10.0253
47.500000	92.244	9.5820
48.200001	92.240	9.1479
48.700001	92.236	8.8351
49.400002	92.229	8.4126
50.000000	92.225	8.0632
50.799999	92.221	7.5654
51.500000	92.210	7.1136
52.200001	92.194	6.7091
53.000000	92.182	6.2871
53.799999	92.173	5.8391
54.500000	92.161	5.4433
55.200001	92.149	5.0708
56.000000	92.136	4.6490
57.000000	92.115	4.1285
58.000000	92.096	3.6781
59.000000	92.086	3.1805
60.000000	92.061	2.6543
60.799999	92.042	2.3055
61.500000	92.031	1.9904
62.200001	92.016	1.6513
63.000000	91.997	1.2973
64.000000	91.979	0.8716
65.000000	91.957	0.4201
66.000000	91.933	0.0103
67.000000	91.910	-0.4042
68.000000	91.884	-0.7995
69.000000	91.862	-1.1866
70.000000	91.837	-1.6003
71.000000	91.807	-1.9665
72.000000	91.783	-2.3222
73.000000	91.757	-2.6888
74.000000	91.729	-3.0278
75.000000	91.705	-3.3549
76.199997	91.676	-3.7764
77.500000	91.640	-4.2131
78.800003	91.603	-4.6381
80.000000	91.571	-5.0100
81.199997	91.535	-5.3602
82.500000	91.504	-5.7325
83.800003	91.465	-6.1285
85.000000	91.432	-6.4654
86.199997	91.397	-6.8009
87.500000	91.361	-7.1529
88.500000	91.332	-7.4226
90.000000	91.287	-7.8058
91.199997	91.254	-8.0927
92.500000	91.214	-8.4248
93.800003	91.178	-8.7184
95.000000	91.142	-9.0177
96.199997	91.106	-9.2812
97.500000	91.066	-9.5806
98.800003	91.031	-9.8424
100.000000	90.993	-10.1454
101.500000	90.944	-10.4001
103.000000	90.901	-10.7108
104.400002	90.863	-10.9731
106.000000	90.813	-11.2841
107.500000	90.766	-11.5454
109.000000	90.725	-11.8002
110.599998	90.674	-12.0756
112.000000	90.633	-12.3255
113.800003	90.576	-12.6009
115.000000	90.540	-12.8068
117.199997	90.476	-13.1238
118.000000	90.452	-13.2466
120.599998	90.374	-13.6070
122.000000	90.333	-13.8019
124.099998	90.268	-14.0744
125.000000	90.241	-14.1852
126.500000	90.198	-14.3705
128.000000	90.151	-14.5513
131.500000	90.045	-14.9050
132.000000	90.032	-14.9536
134.000000	89.970	-15.1841
136.000000	89.914	-15.3809
138.000000	89.851	-15.5598
140.000000	89.796	-15.7734
143.000000	89.710	-16.0218
145.000000	89.653	-16.2050
147.500000	89.586	-16.3392
150.000000	89.502	-16.5629
152.500000	89.441	-16.7042
155.000000	89.364	-16.8647
157.500000	89.292	-16.9865
160.000000	89.224	-17.1099
162.500000	89.156	-17.2337
165.000000	89.085	-17.3415
167.500000	89.020	-17.4075
170.000000	88.945	-17.5744
172.500000	88.878	-17.6606
175.000000	88.814	-17.6956
177.500000	88.754	-17.7444
180.000000	88.677	-17.8111
182.500000	88.618	-17.8495
185.000000	88.555	-17.9063
187.500000	88.492	-17.9517
190.000000	88.425	-17.9648
192.500000	88.362	-17.9622
195.000000	88.300	-17.9780
197.500000	88.239	-18.0075
200.000000	88.179	-18.0037
203.000000	88.106	-17.9894
206.000000	88.029	-17.9498
209.000000	87.951	-17.9278
212.000000	87.887	-17.9369
214.000000	87.841	-17.8938
218.000000	87.750	-17.8126
220.000000	87.696	-17.7958
224.000000	87.612	-17.7390
227.000000	87.545	-17.6209
230.000000	87.479	-17.5528
233.000000	87.415	-17.4630
236.000000	87.348	-17.3852
240.000000	87.265	-17.2770
243.000000	87.196	-17.1387
247.000000	87.118	-17.0101
250.000000	87.050	-16.9549
254.000000	86.971	-16.7489
258.000000	86.891	-16.5515
262.000000	86.815	-16.4053
265.000000	86.756	-16.2812
269.000000	86.685	-16.0949
272.000000	86.626	-15.9168
276.000000	86.549	-15.7315
280.000000	86.483	-15.5204
285.000000	86.381	-15.2350
290.000000	86.299	-14.9740
295.000000	86.219	-14.7000
300.000000	86.126	-14.3486
304.000000	86.062	-14.1673
307.000000	86.016	-13.9450
311.000000	85.948	-13.7026
315.000000	85.884	-13.4641
320.000000	85.814	-13.1276
325.000000	85.735	-12.7496
330.000000	85.652	-12.3938
335.000000	85.578	-12.0791
340.000000	85.512	-11.7512
345.000000	85.438	-11.3764
350.000000	85.367	-11.0104
355.000000	85.301	-10.6669
360.000000	85.235	-10.2649
365.000000	85.163	-9.9283
370.000000	85.118	-9.5965
375.000000	85.055	-9.1838
382.000000	84.970	-8.6316
387.000000	84.907	-8.1968
395.000000	84.825	-7.6048
400.000000	84.757	-7.1764
406.000000	84.696	-6.7806
412.000000	84.641	-6.2553
418.000000	84.580	-5.8341
425.000000	84.511	-5.2677
431.000000	84.456	-4.7903
437.000000	84.402	-4.3069
444.000000	84.329	-3.7084
450.000000	84.271	-3.2206
455.000000	84.234	-2.8902
462.000000	84.172	-2.2627
468.000000	84.116	-1.8326
475.000000	84.059	-1.1962
482.000000	84.006	-0.6961
487.000000	83.967	-0.2179
494.000000	83.917	0.3669
500.000000	83.865	0.8418
508.000000	83.804	1.5319
515.000000	83.761	2.1153
522.000000	83.710	2.7328
530.000000	83.657	3.4016
538.000000	83.609	4.1406
545.000000	83.573	4.7272
552.000000	83.534	5.3338
560.000000	83.490	5.9833
570.000000	83.436	6.8996
580.000000	83.388	7.8106
590.000000	83.350	8.6365
600.000000	83.300	9.5105
608.000000	83.270	10.2102
615.000000	83.244	10.8298
622.000000	83.213	11.4207
630.000000	83.189	12.1216
640.000000	83.171	13.0244
650.000000	83.152	13.9254
660.000000	83.111	14.8425
670.000000	83.087	15.7400
680.000000	83.067	16.6228
690.000000	83.062	17.5186
700.000000	83.045	18.3985
710.000000	83.031	19.3304
720.000000	83.030	20.1750
730.000000	83.035	21.1210
740.000000	83.034	21.9406
750.000000	83.045	22.8648
762.000000	83.044	23.9356
775.000000	83.062	25.0944
788.000000	83.079	26.1998
800.000000	83.108	27.2583
812.000000	83.141	28.3283
825.000000	83.182	29.4410
838.000000	83.220	30.5297
850.000000	83.275	31.4775
862.000000	83.327	32.5287
875.000000	83.384	33.5456
885.000000	83.429	34.3697
900.000000	83.518	35.5073
912.000000	83.592	36.3493
925.000000	83.677	37.2506
938.000000	83.774	38.1885
950.000000	83.857	38.9714
962.000000	83.952	39.7590
975.000000	84.048	40.5855
988.000000	84.147	41.3201
1000.000000	84.237	42.1132
1015.000000	84.365	42.7159
1030.000000	84.509	43.4328
1044.000000	84.638	44.0604
1060.000000	84.769	44.6983
1075.000000	84.900	45.1911
1090.000000	85.035	45.6335
1106.000000	85.176	46.1051
1120.000000	85.296	46.4786
1138.000000	85.449	46.8234
1150.000000	85.547	47.0323
1172.000000	85.723	47.4304
1180.000000	85.786	47.5642
1206.000000	85.983	47.8572
1220.000000	86.085	48.0693
1241.000000	86.245	48.2729
1250.000000	86.304	48.3330
1265.000000	86.417	48.4483
1280.000000	86.524	48.5471
1315.000000	86.782	48.7109
1320.000000	86.821	48.7740
1340.000000	86.964	48.7836
1360.000000	87.110	48.6912
1380.000000	87.257	48.5626
1400.000000	87.396	48.4093
1430.000000	87.615	47.9484
1450.000000	87.749	47.6203
1475.000000	87.907	47.1610
1500.000000	88.061	46.5148
1525.000000	88.194	45.8161
1550.000000	88.320	45.0510
1575.000000	88.439	44.2359
1600.000000	88.537	43.2867
1625.000000	88.632	42.3552
1650.000000	88.699	41.4317
1675.000000	88.760	40.4104
1700.000000	88.797	39.3321
1725.000000	88.836	38.3192
1750.000000	88.842	37.3212
1775.000000	88.847	36.2611
1800.000000	88.833	35.2509
1825.000000	88.807	34.2485
1850.000000	88.770	33.2775
1875.000000	88.724	32.3544
1900.000000	88.667	31.4499
1925.000000	88.593	30.6204
1950.000000	88.523	29.8052
1975.000000	88.433	29.0942
2000.000000	88.335	28.4318
2030.000000	88.223	27.6191
2060.000000	88.107	26.9463
2090.000000	87.976	26.3441
2120.000000	87.831	25.8415
2140.000000	87.746	25.4780
2180.000000	87.560	25.0121
2200.000000	87.470	24.7345
2240.000000	87.280	24.4563
2270.000000	87.141	24.2822
2300.000000	87.004	24.2269
2330.000000	86.867	24.1086
2360.000000	86.734	24.0771
2400.000000	86.556	24.1709
2430.000000	86.433	24.2201
2470.000000	86.284	24.5175
2500.000000	86.169	24.6630
2540.000000	86.008	25.0672
2580.000000	85.884	25.3923
2620.000000	85.750	25.7695
2650.000000	85.664	25.9768
2690.000000	85.554	26.4780
2720.000000	85.476	26.8118
2760.000000	85.381	27.2185
2800.000000	85.289	27.5453
2850.000000	85.204	28.0967
2900.000000	85.115	28.4634
2950.000000	85.037	28.6782
3000.000000	84.970	28.7279
3040.000000	84.853	28.8367
3070.000000	84.750	28.6456
3110.000000	84.604	28.3828
3150.000000	84.377	28.3317
3200.000000	84.015	28.5860
3250.000000	83.559	30.1710
3300.000000	83.191	33.4565
3350.000000	83.098	37.5813
3400.000000	83.215	41.1540
3450.000000	83.459	43.9841
3500.000000	83.766	45.7694
3550.000000	84.062	47.2622
3600.000000	84.357	48.2136
3650.000000	84.648	48.8098
3700.000000	84.933	49.1675
3750.000000	85.217	49.4394
3820.000000	85.619	49.3826
3870.000000	85.888	48.8876
3950.000000	86.356	47.9399
4000.000000	86.632	47.0354
4060.000000	86.977	45.3490
4120.000000	87.291	43.2227
4180.000000	87.580	40.6642
4250.000000	87.823	37.0275
4310.000000	87.963	33.5265
4370.000000	88.004	29.5726
4440.000000	87.904	24.7474
4500.000000	87.686	20.7890
4550.000000	87.405	17.7026
4620.000000	86.909	14.0699
4680.000000	86.407	11.7177
4750.000000	85.801	10.0130
4820.000000	85.263	8.8971
4870.000000	84.892	8.2169
4940.000000	84.409	7.5504
5000.000000	83.964	7.3789
5080.000000	83.369	7.0218
5150.000000	82.876	7.1135
5220.000000	82.348	7.5248
5300.000000	81.830	8.4046
5380.000000	81.306	9.5762
5450.000000	80.922	10.6228
5520.000000	80.520	12.2675
5600.000000	80.126	14.1015
5700.000000	79.644	16.7349
5800.000000	79.253	19.3535
5900.000000	78.892	22.4681
6000.000000	78.581	25.4673
6080.000000	78.425	28.2370
6150.000000	78.267	30.3238
6220.000000	78.156	32.8962
6300.000000	78.052	35.3899
6400.000000	77.976	38.5114
6500.000000	77.937	42.3275
6600.000000	77.930	45.4651
6700.000000	78.058	48.8992
6800.000000	78.201	51.7434
6900.000000	78.452	55.0122
7000.000000	78.704	58.1919
7100.000000	79.012	61.1705
7200.000000	79.443	63.7473
7300.000000	79.971	66.1482
7400.000000	80.544	67.9704
7500.000000	81.185	69.3143
7620.000000	82.117	70.1342
7750.000000	83.211	69.4262
7880.000000	84.392	66.3784
8000.000000	85.453	60.8760
8120.000000	86.233	52.9354
8250.000000	86.615	42.5076
8380.000000	86.422	31.9633
8500.000000	85.848	23.6024
8620.000000	84.997	17.1164
8750.000000	84.016	12.6130
8850.000000	83.220	10.3230
9000.000000	82.140	9.0774
9120.000000	81.346	9.0941
9250.000000	80.684	9.9504
9380.000000	80.064	11.3416
9500.000000	79.653	12.7362
9620.000000	79.282	14.4648
9750.000000	78.957	16.0800
9880.000000	78.771	17.8811
10000.000000	78.637	20.0488
10150.000000	78.559	22.0130
10300.000000	78.580	24.1628
10440.000000	78.670	25.5722
10600.000000	78.854	27.0480
10750.000000	79.096	28.0416
10900.000000	79.379	28.1922
11060.000000	79.742	28.3848
11200.000000	80.028	27.5865
11380.000000	80.352	26.0459
11500.000000	80.627	24.7631
11720.000000	81.015	21.4770
11800.000000	81.164	19.8757
12060.000000	81.403	15.2028
12200.000000	81.457	12.3910
12410.000000	81.454	9.0026
12500.000000	81.420	7.3420
12650.000000	81.453	5.6233
12800.000000	81.505	3.2125
13150.000000	81.692	-1.8480
13200.000000	81.771	-2.6166
13400.000000	81.999	-6.0447
13600.000000	82.366	-10.3072
13800.000000	82.758	-15.8990
14000.000000	83.160	-23.8823
14300.000000	83.388	-39.0714
14500.000000	83.118	-51.0703
14750.000000	82.057	-66.0359
15000.000000	80.415	-78.7095
15250.000000	78.609	-87.9783
15500.000000	76.675	-94.2931
15750.000000	74.838	-98.2023
16000.000000	73.199	-100.2150
16250.000000	71.633	-102.3222
16500.000000	70.216	-101.8450
16750.000000	68.888	-102.7257
17000.000000	67.203	-101.8101
17250.000000	65.470	-102.2714
17500.000000	64.114	-97.8364
17750.000000	61.915	-91.6236
18000.000000	60.722	-79.5731
18250.000000	60.210	-52.0084
18500.000000	62.854	-43.8305
18750.000000	66.044	-51.1734
19000.000000	64.867	-75.3937
19250.000000	63.169	-67.7446
19500.000000	63.183	-61.5191
19750.000000	63.636	-60.8344
