* Measurement data measured by REW V5.20.5
* Source: USB Sound Device        , MICROPHONE, R, volume: 0.514
* Format: 256k Log Swept Sine, 1 sweep at -6.0 dBFS with no timing reference
* Dated: 26 Jul, 2023 10:43:45 PM
* REW Settings:
*  C-weighting compensation: Off
*  Target level: 75.0 dB
* Note: 
* Measurement: CVJ FREEDOM UD Jul 26
* Smoothing: None
* Frequency Step: 1/48 octave
* Start Frequency: 20.000 Hz
*
* Freq(Hz)	SPL(dB)	Phase(degrees)
20.000000	91.200	38.9843
20.299999	91.243	38.4588
20.600000	91.285	37.9427
20.900000	91.326	37.4314
21.200001	91.367	36.9222
21.400000	91.393	36.5847
21.799999	91.443	35.9180
22.000000	91.467	35.5906
22.400000	91.514	34.9498
22.700001	91.547	34.4808
23.000000	91.580	34.0197
23.299999	91.612	33.5651
23.600000	91.644	33.1162
24.000000	91.684	32.5254
24.299999	91.712	32.0876
24.700001	91.749	31.5112
25.000000	91.774	31.0855
25.400000	91.806	30.5292
25.799999	91.836	29.9874
26.200001	91.865	29.4576
26.500000	91.886	29.0651
26.900000	91.913	28.5457
27.200001	91.932	28.1598
27.600000	91.955	27.6528
28.000000	91.977	27.1574
28.500000	92.004	26.5528
29.000000	92.029	25.9595
29.500000	92.054	25.3770
30.000000	92.077	24.8077
30.400000	92.095	24.3600
30.700001	92.108	24.0265
31.100000	92.125	23.5841
31.500000	92.140	23.1467
32.000000	92.158	22.6124
32.500000	92.175	22.0909
33.000000	92.190	21.5754
33.500000	92.204	21.0668
34.000000	92.214	20.5756
34.500000	92.225	20.1071
35.000000	92.236	19.6503
35.500000	92.249	19.1881
36.000000	92.260	18.7166
36.500000	92.268	18.2473
37.000000	92.273	17.7946
37.500000	92.278	17.3604
38.200001	92.287	16.7640
38.700001	92.293	16.3360
39.500000	92.298	15.6653
40.000000	92.301	15.2655
40.599998	92.306	14.7932
41.200001	92.310	14.3129
41.799999	92.311	13.8364
42.500000	92.309	13.3121
43.099998	92.309	12.8798
43.700001	92.310	12.4426
44.400002	92.308	11.9333
45.000000	92.304	11.5106
45.500000	92.302	11.1647
46.200001	92.296	10.6878
46.799999	92.290	10.3020
47.500000	92.286	9.8774
48.200001	92.286	9.4327
48.700001	92.283	9.0934
49.400002	92.273	8.6299
50.000000	92.263	8.2717
50.799999	92.254	7.8164
51.500000	92.247	7.4053
52.200001	92.238	6.9912
53.000000	92.225	6.5294
53.799999	92.212	6.0925
54.500000	92.203	5.7208
55.200001	92.194	5.3325
56.000000	92.177	4.8999
57.000000	92.158	4.4220
58.000000	92.144	3.9260
59.000000	92.124	3.4236
60.000000	92.100	2.9565
60.799999	92.084	2.6119
61.500000	92.074	2.2941
62.200001	92.061	1.9434
63.000000	92.040	1.5604
64.000000	92.015	1.1403
65.000000	91.995	0.7207
66.000000	91.974	0.2920
67.000000	91.950	-0.1279
68.000000	91.927	-0.5297
69.000000	91.901	-0.9379
70.000000	91.874	-1.2966
71.000000	91.854	-1.6742
72.000000	91.827	-2.0623
73.000000	91.801	-2.4152
74.000000	91.775	-2.7860
75.000000	91.746	-3.1279
76.199997	91.716	-3.5162
77.500000	91.682	-3.9438
78.800003	91.648	-4.3526
80.000000	91.618	-4.7355
81.199997	91.584	-5.1233
82.500000	91.545	-5.5013
83.800003	91.510	-5.8616
85.000000	91.477	-6.2098
86.199997	91.443	-6.5396
87.500000	91.404	-6.8965
88.500000	91.374	-7.1457
90.000000	91.331	-7.5411
91.199997	91.293	-7.8311
92.500000	91.258	-8.1427
93.800003	91.219	-8.4489
95.000000	91.188	-8.7473
96.199997	91.146	-9.0323
97.500000	91.111	-9.2767
98.800003	91.074	-9.6000
100.000000	91.034	-9.8616
101.500000	90.987	-10.1537
103.000000	90.943	-10.4377
104.400002	90.903	-10.6997
106.000000	90.854	-10.9993
107.500000	90.809	-11.2560
109.000000	90.764	-11.5338
110.599998	90.714	-11.8042
112.000000	90.675	-12.0387
113.800003	90.619	-12.3456
115.000000	90.583	-12.5124
117.199997	90.517	-12.8121
118.000000	90.495	-12.9392
120.599998	90.414	-13.3081
122.000000	90.370	-13.5095
124.099998	90.311	-13.7913
125.000000	90.283	-13.9122
126.500000	90.238	-14.0691
128.000000	90.194	-14.2723
131.500000	90.088	-14.6345
132.000000	90.074	-14.6825
134.000000	90.014	-14.9211
136.000000	89.955	-15.0643
138.000000	89.900	-15.2871
140.000000	89.842	-15.4389
143.000000	89.753	-15.7103
145.000000	89.693	-15.8912
147.500000	89.618	-16.0425
150.000000	89.551	-16.1953
152.500000	89.473	-16.3570
155.000000	89.405	-16.5371
157.500000	89.337	-16.6801
160.000000	89.268	-16.8035
162.500000	89.198	-16.9204
165.000000	89.129	-17.0229
167.500000	89.060	-17.1345
170.000000	88.994	-17.2323
172.500000	88.929	-17.3199
175.000000	88.856	-17.3967
177.500000	88.798	-17.4216
180.000000	88.733	-17.4564
182.500000	88.663	-17.5090
185.000000	88.595	-17.5928
187.500000	88.530	-17.6224
190.000000	88.473	-17.6361
192.500000	88.410	-17.6642
195.000000	88.345	-17.6412
197.500000	88.276	-17.6814
200.000000	88.225	-17.6581
203.000000	88.148	-17.6385
206.000000	88.081	-17.6688
209.000000	88.002	-17.6168
212.000000	87.931	-17.5683
214.000000	87.885	-17.5292
218.000000	87.796	-17.4669
220.000000	87.747	-17.4556
224.000000	87.657	-17.3538
227.000000	87.592	-17.2921
230.000000	87.520	-17.1824
233.000000	87.452	-17.1132
236.000000	87.398	-16.9922
240.000000	87.305	-16.8711
243.000000	87.243	-16.8091
247.000000	87.156	-16.6711
250.000000	87.100	-16.4965
254.000000	87.017	-16.3754
258.000000	86.940	-16.1894
262.000000	86.855	-16.0140
265.000000	86.806	-15.8845
269.000000	86.731	-15.6572
272.000000	86.666	-15.4910
276.000000	86.588	-15.3140
280.000000	86.522	-15.0709
285.000000	86.439	-14.7993
290.000000	86.346	-14.5641
295.000000	86.258	-14.2598
300.000000	86.166	-13.9596
304.000000	86.107	-13.6771
307.000000	86.061	-13.5198
311.000000	85.996	-13.2078
315.000000	85.931	-13.0283
320.000000	85.857	-12.6738
325.000000	85.776	-12.2932
330.000000	85.698	-11.9469
335.000000	85.636	-11.6454
340.000000	85.567	-11.2269
345.000000	85.488	-10.8917
350.000000	85.423	-10.5019
355.000000	85.361	-10.1309
360.000000	85.297	-9.7836
365.000000	85.231	-9.3931
370.000000	85.171	-8.9835
375.000000	85.110	-8.6332
382.000000	85.026	-8.0684
387.000000	84.968	-7.7142
395.000000	84.881	-7.0692
400.000000	84.833	-6.6946
406.000000	84.765	-6.1873
412.000000	84.702	-5.7361
418.000000	84.643	-5.1878
425.000000	84.571	-4.7002
431.000000	84.507	-4.2013
437.000000	84.457	-3.8005
444.000000	84.392	-3.2022
450.000000	84.332	-2.6940
455.000000	84.293	-2.3231
462.000000	84.226	-1.7714
468.000000	84.173	-1.2450
475.000000	84.119	-0.7065
482.000000	84.065	-0.0812
487.000000	84.021	0.3715
494.000000	83.971	0.9365
500.000000	83.927	1.5233
508.000000	83.865	2.1273
515.000000	83.822	2.7788
522.000000	83.774	3.3135
530.000000	83.710	4.0258
538.000000	83.668	4.7136
545.000000	83.626	5.3492
552.000000	83.586	5.9809
560.000000	83.545	6.7073
570.000000	83.491	7.5532
580.000000	83.443	8.4946
590.000000	83.402	9.3988
600.000000	83.354	10.2565
608.000000	83.329	10.8995
615.000000	83.294	11.5759
622.000000	83.279	12.2015
630.000000	83.250	12.9148
640.000000	83.218	13.8409
650.000000	83.193	14.8252
660.000000	83.168	15.6353
670.000000	83.145	16.6121
680.000000	83.133	17.4470
690.000000	83.129	18.3992
700.000000	83.101	19.2790
710.000000	83.099	20.1833
720.000000	83.095	21.0524
730.000000	83.093	22.0010
740.000000	83.082	22.8980
750.000000	83.089	23.7740
762.000000	83.104	24.8444
775.000000	83.128	26.0724
788.000000	83.139	27.1600
800.000000	83.178	28.2090
812.000000	83.188	29.2705
825.000000	83.235	30.4711
838.000000	83.282	31.5047
850.000000	83.334	32.5233
862.000000	83.393	33.5102
875.000000	83.436	34.6044
885.000000	83.496	35.4625
900.000000	83.586	36.5522
912.000000	83.653	37.4826
925.000000	83.740	38.4714
938.000000	83.831	39.3264
950.000000	83.905	40.1284
962.000000	84.008	40.9600
975.000000	84.111	41.7801
988.000000	84.214	42.5076
1000.000000	84.318	43.2593
1015.000000	84.434	44.0126
1030.000000	84.569	44.7337
1044.000000	84.691	45.3715
1060.000000	84.830	45.9896
1075.000000	84.965	46.5807
1090.000000	85.096	47.0605
1106.000000	85.236	47.5449
1120.000000	85.355	47.9207
1138.000000	85.510	48.3755
1150.000000	85.611	48.6199
1172.000000	85.796	48.9602
1180.000000	85.847	49.1371
1206.000000	86.055	49.5182
1220.000000	86.157	49.6649
1241.000000	86.318	49.8898
1250.000000	86.376	49.9418
1265.000000	86.489	50.1510
1280.000000	86.591	50.2025
1315.000000	86.850	50.4669
1320.000000	86.889	50.4902
1340.000000	87.039	50.5015
1360.000000	87.189	50.4708
1380.000000	87.329	50.4209
1400.000000	87.478	50.2462
1430.000000	87.684	49.9107
1450.000000	87.820	49.5805
1475.000000	87.969	49.0769
1500.000000	88.130	48.4902
1525.000000	88.271	47.8973
1550.000000	88.399	47.1958
1575.000000	88.511	46.3839
1600.000000	88.610	45.5027
1625.000000	88.702	44.6558
1650.000000	88.780	43.7074
1675.000000	88.839	42.7631
1700.000000	88.875	41.7641
1725.000000	88.905	40.7596
1750.000000	88.919	39.7773
1775.000000	88.911	38.8545
1800.000000	88.903	37.8746
1825.000000	88.873	36.9512
1850.000000	88.844	36.0179
1875.000000	88.801	35.1892
1900.000000	88.736	34.3839
1925.000000	88.669	33.6269
1950.000000	88.592	32.8635
1975.000000	88.508	32.1997
2000.000000	88.433	31.6208
2030.000000	88.304	30.9054
2060.000000	88.183	30.2766
2090.000000	88.056	29.8140
2120.000000	87.918	29.3470
2140.000000	87.830	29.0735
2180.000000	87.644	28.7341
2200.000000	87.557	28.5814
2240.000000	87.370	28.3372
2270.000000	87.235	28.2223
2300.000000	87.103	28.1875
2330.000000	86.972	28.2538
2360.000000	86.836	28.3288
2400.000000	86.665	28.5613
2430.000000	86.565	28.7252
2470.000000	86.385	29.0804
2500.000000	86.277	29.3443
2540.000000	86.137	29.8558
2580.000000	85.999	30.3217
2620.000000	85.882	30.9133
2650.000000	85.800	31.2810
2690.000000	85.687	31.8592
2720.000000	85.616	32.2690
2760.000000	85.517	32.8457
2800.000000	85.448	33.3788
2850.000000	85.353	34.1850
2900.000000	85.252	34.7236
2950.000000	85.182	35.2104
3000.000000	85.086	35.6502
3040.000000	85.005	35.8004
3070.000000	84.926	35.7325
3110.000000	84.764	35.9193
3150.000000	84.562	36.0054
3200.000000	84.210	36.6779
3250.000000	83.785	38.5107
3300.000000	83.431	42.0503
3350.000000	83.357	46.2967
3400.000000	83.503	50.1873
3450.000000	83.762	53.1572
3500.000000	84.070	55.3441
3550.000000	84.387	56.9536
3600.000000	84.687	58.1652
3650.000000	84.990	59.0784
3700.000000	85.285	59.8482
3750.000000	85.574	60.2297
3820.000000	85.968	60.6099
3870.000000	86.259	60.6418
3950.000000	86.733	60.2198
4000.000000	87.008	59.5305
4060.000000	87.349	58.5053
4120.000000	87.664	57.0402
4180.000000	87.924	55.0769
4250.000000	88.179	52.3757
4310.000000	88.295	49.6849
4370.000000	88.343	46.8194
4440.000000	88.244	43.4589
4500.000000	88.056	40.8370
4550.000000	87.808	39.1589
4620.000000	87.455	37.6269
4680.000000	87.140	37.1556
4750.000000	86.862	37.0789
4820.000000	86.690	37.0605
4870.000000	86.576	36.8695
4940.000000	86.425	36.3488
5000.000000	86.240	35.7130
5080.000000	85.972	34.9885
5150.000000	85.688	34.5844
5220.000000	85.366	34.4684
5300.000000	85.012	34.7386
5380.000000	84.680	35.4152
5450.000000	84.369	36.4034
5520.000000	84.100	37.5951
5600.000000	83.826	39.2108
5700.000000	83.522	41.4069
5800.000000	83.303	44.0615
5900.000000	83.125	46.8568
6000.000000	83.011	49.6549
6080.000000	82.965	52.2798
6150.000000	82.939	54.4294
6220.000000	82.970	56.5362
6300.000000	83.049	58.8640
6400.000000	83.143	61.8599
6500.000000	83.339	65.1163
6600.000000	83.605	68.0361
6700.000000	83.877	70.7139
6800.000000	84.251	73.5579
6900.000000	84.638	75.9613
7000.000000	85.137	78.4000
7100.000000	85.714	80.3017
7200.000000	86.307	82.0345
7300.000000	87.025	83.3163
7400.000000	87.774	83.8816
7500.000000	88.591	84.0462
7620.000000	89.662	82.9229
7750.000000	90.895	79.9485
7880.000000	92.098	74.5015
8000.000000	93.085	66.9617
8120.000000	93.713	57.3705
8250.000000	93.911	45.8539
8380.000000	93.617	35.1358
8500.000000	93.036	26.9597
8620.000000	92.306	20.6816
8750.000000	91.467	15.8807
8850.000000	90.834	13.3132
9000.000000	89.966	11.0054
9120.000000	89.367	9.7766
9250.000000	88.793	9.1671
9380.000000	88.330	9.0223
9500.000000	87.944	8.9515
9620.000000	87.634	9.0325
9750.000000	87.376	9.2267
9880.000000	87.169	9.3876
10000.000000	87.003	9.6294
10150.000000	86.842	9.8860
10300.000000	86.742	9.6734
10440.000000	86.691	9.5553
10600.000000	86.671	9.0851
10750.000000	86.671	8.5970
10900.000000	86.689	7.6433
11060.000000	86.727	6.5352
11200.000000	86.747	5.4961
11380.000000	86.785	3.6392
11500.000000	86.760	2.1354
11720.000000	86.745	-0.8185
11800.000000	86.719	-1.8676
12060.000000	86.591	-5.5041
12200.000000	86.460	-7.2974
12410.000000	86.256	-9.8013
12500.000000	86.172	-10.6479
12650.000000	86.017	-12.0061
12800.000000	85.966	-13.1385
13150.000000	85.963	-16.4146
13200.000000	85.980	-16.9209
13400.000000	86.148	-19.3231
13600.000000	86.374	-22.8315
13800.000000	86.712	-27.5908
14000.000000	86.997	-34.6293
14300.000000	87.013	-48.8588
14500.000000	86.560	-59.7891
14750.000000	85.337	-73.2198
15000.000000	83.595	-83.3549
15250.000000	81.688	-90.3506
15500.000000	79.781	-93.8651
15750.000000	78.042	-96.1381
16000.000000	76.484	-97.0553
16250.000000	75.010	-96.4407
16500.000000	73.654	-96.0578
16750.000000	72.222	-95.2239
17000.000000	71.087	-93.4909
17250.000000	69.807	-93.0609
17500.000000	68.387	-93.1971
17750.000000	66.779	-91.2274
18000.000000	64.281	-82.6800
18250.000000	62.470	-64.7407
18500.000000	62.838	-36.0793
18750.000000	66.787	-32.9656
19000.000000	67.082	-42.4828
19250.000000	67.502	-45.2033
19500.000000	66.554	-44.6399
19750.000000	66.976	-42.1525
