* Measurement data measured by REW V5.20.5
* Source: USB Sound Device        , MICROPHONE, R, volume: 0.501
* Format: 256k Log Swept Sine, 1 sweep at -6.0 dBFS with no timing reference
* Dated: 9 Aug, 2023 10:36:53 PM
* REW Settings:
*  C-weighting compensation: Off
*  Target level: 75.0 dB
* Note: 
* Measurement: CVJ KUMO UUDD Aug 9
* Smoothing: None
* Frequency Step: 1/48 octave
* Start Frequency: 20.000 Hz
*
* Freq(Hz)	SPL(dB)	Phase(degrees)
20.000000	89.312	-171.1297
20.299999	89.328	-171.3458
20.600000	89.341	-171.5493
20.900000	89.350	-171.7482
21.200001	89.357	-171.9509
21.400000	89.360	-172.0904
21.799999	89.363	-172.3811
22.000000	89.363	-172.5339
22.400000	89.363	-172.8596
22.700001	89.362	-173.1272
23.000000	89.361	-173.4169
23.299999	89.359	-173.7226
23.600000	89.356	-174.0348
24.000000	89.353	-174.4485
24.299999	89.355	-174.7542
24.700001	89.362	-175.1637
25.000000	89.371	-175.4784
25.400000	89.386	-175.9060
25.799999	89.401	-176.3245
26.200001	89.416	-176.7134
26.500000	89.429	-176.9816
26.900000	89.448	-177.3127
27.200001	89.463	-177.5460
27.600000	89.482	-177.8392
28.000000	89.499	-178.1104
28.500000	89.517	-178.4231
29.000000	89.533	-178.7241
29.500000	89.542	-179.0225
30.000000	89.544	-179.3102
30.400000	89.544	-179.5315
30.700001	89.543	-179.6982
31.100000	89.543	-179.9315
31.500000	89.541	179.8199
32.000000	89.539	179.4953
32.500000	89.538	179.1629
33.000000	89.539	178.8157
33.500000	89.543	178.4485
34.000000	89.546	178.0771
34.500000	89.549	177.7233
35.000000	89.555	177.3922
35.500000	89.563	177.0747
36.000000	89.572	176.7648
36.500000	89.579	176.4631
37.000000	89.585	176.1713
37.500000	89.588	175.8914
38.200001	89.589	175.5244
38.700001	89.589	175.2762
39.500000	89.589	174.8771
40.000000	89.589	174.6171
40.599998	89.588	174.2885
41.200001	89.587	173.9410
41.799999	89.582	173.5915
42.500000	89.576	173.2111
43.099998	89.573	172.9075
43.700001	89.572	172.6075
44.400002	89.573	172.2528
45.000000	89.572	171.9459
45.500000	89.570	171.6914
46.200001	89.566	171.3410
46.799999	89.561	171.0477
47.500000	89.555	170.7183
48.200001	89.551	170.3904
48.700001	89.549	170.1392
49.400002	89.541	169.7811
50.000000	89.532	169.5180
50.799999	89.530	169.1933
51.500000	89.528	168.8494
52.200001	89.514	168.5385
53.000000	89.508	168.2906
53.799999	89.518	167.9366
54.500000	89.511	167.5361
55.200001	89.493	167.2097
56.000000	89.481	166.8674
57.000000	89.460	166.3963
58.000000	89.444	166.0370
59.000000	89.441	165.5880
60.000000	89.423	165.1592
60.799999	89.414	164.8672
61.500000	89.407	164.5795
62.200001	89.395	164.2985
63.000000	89.383	163.9930
64.000000	89.368	163.5859
65.000000	89.350	163.1652
66.000000	89.327	162.7609
67.000000	89.311	162.4167
68.000000	89.301	162.0190
69.000000	89.282	161.6308
70.000000	89.266	161.2813
71.000000	89.248	160.8992
72.000000	89.224	160.5499
73.000000	89.206	160.2209
74.000000	89.189	159.8613
75.000000	89.171	159.5088
76.199997	89.150	159.0751
77.500000	89.124	158.6193
78.800003	89.098	158.1625
80.000000	89.070	157.7721
81.199997	89.046	157.3969
82.500000	89.019	156.9648
83.800003	88.988	156.5547
85.000000	88.964	156.1969
86.199997	88.939	155.7961
87.500000	88.907	155.3982
88.500000	88.888	155.0798
90.000000	88.854	154.6066
91.199997	88.828	154.2300
92.500000	88.794	153.8534
93.800003	88.765	153.4898
95.000000	88.738	153.1301
96.199997	88.706	152.7739
97.500000	88.677	152.4163
98.800003	88.647	152.0340
100.000000	88.619	151.6913
101.500000	88.581	151.3008
103.000000	88.547	150.9136
104.400002	88.511	150.5383
106.000000	88.474	150.1138
107.500000	88.434	149.7295
109.000000	88.399	149.3275
110.599998	88.357	148.9216
112.000000	88.317	148.6020
113.800003	88.278	148.1405
115.000000	88.243	147.8636
117.199997	88.189	147.3564
118.000000	88.168	147.1556
120.599998	88.098	146.5458
122.000000	88.062	146.2280
124.099998	88.008	145.7666
125.000000	87.990	145.5635
126.500000	87.947	145.2135
128.000000	87.906	144.9047
131.500000	87.813	144.1590
132.000000	87.800	144.0526
134.000000	87.747	143.6307
136.000000	87.695	143.2356
138.000000	87.645	142.8406
140.000000	87.593	142.4318
143.000000	87.518	141.8660
145.000000	87.458	141.4971
147.500000	87.394	141.0691
150.000000	87.327	140.5820
152.500000	87.265	140.1376
155.000000	87.199	139.7055
157.500000	87.136	139.3025
160.000000	87.072	138.9144
162.500000	87.008	138.5004
165.000000	86.942	138.1317
167.500000	86.879	137.7258
170.000000	86.824	137.3455
172.500000	86.754	136.9873
175.000000	86.686	136.6471
177.500000	86.626	136.2693
180.000000	86.568	135.9222
182.500000	86.499	135.5801
185.000000	86.435	135.2573
187.500000	86.374	134.9061
190.000000	86.314	134.6430
192.500000	86.254	134.3126
195.000000	86.193	134.0150
197.500000	86.138	133.7190
200.000000	86.072	133.4661
203.000000	86.001	133.0985
206.000000	85.936	132.7866
209.000000	85.864	132.4761
212.000000	85.790	132.1667
214.000000	85.746	132.0010
218.000000	85.656	131.5918
220.000000	85.613	131.4097
224.000000	85.521	131.0474
227.000000	85.456	130.8253
230.000000	85.384	130.5140
233.000000	85.320	130.2444
236.000000	85.253	129.9759
240.000000	85.174	129.7462
243.000000	85.109	129.4979
247.000000	85.014	129.2271
250.000000	84.959	129.0087
254.000000	84.875	128.7709
258.000000	84.792	128.5283
262.000000	84.717	128.2622
265.000000	84.663	128.0771
269.000000	84.584	127.8496
272.000000	84.530	127.6920
276.000000	84.449	127.4949
280.000000	84.375	127.2969
285.000000	84.283	127.0807
290.000000	84.202	126.9251
295.000000	84.100	126.6900
300.000000	84.026	126.5276
304.000000	83.950	126.4089
307.000000	83.900	126.3226
311.000000	83.835	126.1953
315.000000	83.772	126.0687
320.000000	83.694	125.9332
325.000000	83.618	125.8657
330.000000	83.541	125.7043
335.000000	83.472	125.6447
340.000000	83.394	125.6150
345.000000	83.318	125.5384
350.000000	83.254	125.4673
355.000000	83.195	125.4117
360.000000	83.122	125.4533
365.000000	83.062	125.3312
370.000000	83.014	125.3401
375.000000	82.938	125.3836
382.000000	82.862	125.3238
387.000000	82.804	125.3483
395.000000	82.712	125.4037
400.000000	82.664	125.4365
406.000000	82.616	125.5079
412.000000	82.547	125.5864
418.000000	82.482	125.5899
425.000000	82.429	125.6728
431.000000	82.368	125.8568
437.000000	82.327	125.9435
444.000000	82.261	126.0853
450.000000	82.215	126.2421
455.000000	82.181	126.3369
462.000000	82.124	126.5243
468.000000	82.081	126.6037
475.000000	82.028	126.8657
482.000000	81.984	127.0990
487.000000	81.967	127.2626
494.000000	81.937	127.5348
500.000000	81.904	127.7365
508.000000	81.866	128.0234
515.000000	81.826	128.2963
522.000000	81.799	128.5692
530.000000	81.770	128.9166
538.000000	81.747	129.3189
545.000000	81.724	129.6580
552.000000	81.696	129.9816
560.000000	81.696	130.4091
570.000000	81.677	130.9126
580.000000	81.663	131.3190
590.000000	81.651	131.9131
600.000000	81.665	132.4157
608.000000	81.672	132.9272
615.000000	81.676	133.3532
622.000000	81.694	133.7323
630.000000	81.696	134.1413
640.000000	81.719	134.8212
650.000000	81.747	135.4891
660.000000	81.777	136.0575
670.000000	81.816	136.7290
680.000000	81.830	137.3318
690.000000	81.898	137.9773
700.000000	81.946	138.5891
710.000000	81.988	139.3237
720.000000	82.066	139.9593
730.000000	82.124	140.6137
740.000000	82.204	141.3185
750.000000	82.275	142.0100
762.000000	82.363	142.7511
775.000000	82.474	143.5863
788.000000	82.598	144.3958
800.000000	82.710	145.2480
812.000000	82.835	145.9434
825.000000	82.983	146.7710
838.000000	83.126	147.5658
850.000000	83.260	148.3697
862.000000	83.420	149.0219
875.000000	83.581	149.6788
885.000000	83.720	150.2203
900.000000	83.927	151.0842
912.000000	84.099	151.6478
925.000000	84.301	152.2212
938.000000	84.497	152.7650
950.000000	84.683	153.2671
962.000000	84.870	153.7780
975.000000	85.078	154.1163
988.000000	85.303	154.5390
1000.000000	85.510	154.9262
1015.000000	85.766	155.2025
1030.000000	86.013	155.4362
1044.000000	86.248	155.5881
1060.000000	86.522	155.7386
1075.000000	86.781	155.7750
1090.000000	87.036	155.7473
1106.000000	87.301	155.6763
1120.000000	87.538	155.5286
1138.000000	87.830	155.2330
1150.000000	88.026	155.0260
1172.000000	88.371	154.4813
1180.000000	88.496	154.3180
1206.000000	88.880	153.4976
1220.000000	89.079	153.0354
1241.000000	89.371	152.2232
1250.000000	89.487	151.8666
1265.000000	89.686	151.2158
1280.000000	89.873	150.5743
1315.000000	90.272	148.8984
1320.000000	90.331	148.6164
1340.000000	90.539	147.6460
1360.000000	90.731	146.5809
1380.000000	90.907	145.5086
1400.000000	91.072	144.3987
1430.000000	91.293	142.7391
1450.000000	91.418	141.6674
1475.000000	91.554	140.3095
1500.000000	91.681	138.9339
1525.000000	91.777	137.6428
1550.000000	91.863	136.3317
1575.000000	91.928	135.1049
1600.000000	91.981	133.9431
1625.000000	92.019	132.8270
1650.000000	92.041	131.7563
1675.000000	92.056	130.8025
1700.000000	92.063	129.8462
1725.000000	92.062	129.0156
1750.000000	92.049	128.1776
1775.000000	92.026	127.4548
1800.000000	92.010	126.7495
1825.000000	91.983	126.1223
1850.000000	91.948	125.5654
1875.000000	91.913	125.0598
1900.000000	91.877	124.5877
1925.000000	91.846	124.2255
1950.000000	91.802	123.8099
1975.000000	91.765	123.4751
2000.000000	91.727	123.2769
2030.000000	91.674	122.9280
2060.000000	91.635	122.6356
2090.000000	91.588	122.4981
2120.000000	91.540	122.3566
2140.000000	91.518	122.2420
2180.000000	91.463	122.1064
2200.000000	91.441	122.0956
2240.000000	91.389	122.0444
2270.000000	91.354	122.0300
2300.000000	91.328	122.0399
2330.000000	91.288	122.0773
2360.000000	91.263	122.1334
2400.000000	91.230	122.2169
2430.000000	91.203	122.2783
2470.000000	91.162	122.4543
2500.000000	91.144	122.6163
2540.000000	91.107	122.7917
2580.000000	91.082	123.0558
2620.000000	91.052	123.2787
2650.000000	91.035	123.5062
2690.000000	91.012	123.7810
2720.000000	91.006	124.0219
2760.000000	90.990	124.3610
2800.000000	90.979	124.7035
2850.000000	90.973	125.1209
2900.000000	90.964	125.5310
2950.000000	90.952	125.9625
3000.000000	90.954	126.3725
3040.000000	90.948	126.7855
3070.000000	90.953	127.0009
3110.000000	90.953	127.4126
3150.000000	90.953	127.7581
3200.000000	90.959	128.1949
3250.000000	90.957	128.5943
3300.000000	90.955	129.0292
3350.000000	90.953	129.4835
3400.000000	90.950	129.9091
3450.000000	90.937	130.4405
3500.000000	90.922	131.0040
3550.000000	90.914	131.6505
3600.000000	90.916	132.4707
3650.000000	90.929	133.4091
3700.000000	91.001	134.4886
3750.000000	91.127	135.4749
3820.000000	91.396	136.0529
3870.000000	91.577	135.8423
3950.000000	91.746	134.6328
4000.000000	91.779	134.0859
4060.000000	91.765	133.1241
4120.000000	91.728	132.5382
4180.000000	91.688	131.9435
4250.000000	91.614	131.4309
4310.000000	91.533	131.0025
4370.000000	91.443	130.5789
4440.000000	91.318	130.0936
4500.000000	91.177	129.7275
4550.000000	91.057	129.4532
4620.000000	90.873	129.1843
4680.000000	90.680	129.0483
4750.000000	90.461	128.9878
4820.000000	90.230	129.0614
4870.000000	90.047	129.1329
4940.000000	89.790	129.3752
5000.000000	89.557	129.6766
5080.000000	89.208	130.1908
5150.000000	88.885	130.8784
5220.000000	88.541	131.7961
5300.000000	88.141	133.2761
5380.000000	87.722	135.1998
5450.000000	87.393	137.3421
5520.000000	87.087	139.6483
5600.000000	86.779	142.5804
5700.000000	86.502	146.6884
5800.000000	86.328	151.0142
5900.000000	86.297	155.0960
6000.000000	86.379	159.0397
6080.000000	86.542	161.6135
6150.000000	86.729	163.3559
6220.000000	86.933	164.4376
6300.000000	87.152	164.8701
6400.000000	87.288	164.4529
6500.000000	87.198	163.3972
6600.000000	86.917	162.8353
6700.000000	86.490	163.1492
6800.000000	86.013	164.8639
6900.000000	85.603	167.3975
7000.000000	85.242	170.7913
7100.000000	84.999	174.6259
7200.000000	84.883	178.9784
7300.000000	84.896	-176.7867
7400.000000	84.996	-172.6536
7500.000000	85.205	-168.7163
7620.000000	85.583	-164.4489
7750.000000	86.194	-160.7478
7880.000000	86.927	-158.4279
8000.000000	87.686	-158.0889
8120.000000	88.363	-159.4741
8250.000000	88.927	-163.1773
8380.000000	89.164	-168.0501
8500.000000	89.045	-172.4863
8620.000000	88.698	-175.9968
8750.000000	88.170	-178.2467
8850.000000	87.751	-178.8466
9000.000000	87.196	-178.3639
9120.000000	86.856	-177.2470
9250.000000	86.647	-175.5580
9380.000000	86.654	-173.8728
9500.000000	86.814	-172.8884
9620.000000	87.129	-173.2051
9750.000000	87.546	-175.5947
9880.000000	87.814	179.2902
10000.000000	87.809	172.5168
10150.000000	87.156	162.6179
10300.000000	85.661	154.4762
10440.000000	83.878	151.1468
10600.000000	81.861	151.7736
10750.000000	80.155	155.4238
10900.000000	78.765	160.9402
11060.000000	77.455	168.2233
11200.000000	76.602	175.5271
11380.000000	75.863	-174.6290
11500.000000	75.480	-168.3220
11720.000000	75.235	-157.1636
11800.000000	75.304	-153.4869
12060.000000	75.755	-143.5408
12200.000000	76.107	-140.0466
12410.000000	76.702	-137.0975
12500.000000	76.936	-136.5171
12650.000000	77.185	-137.4081
12800.000000	77.331	-138.8941
13150.000000	76.685	-145.6616
13200.000000	76.440	-146.8454
13400.000000	75.045	-146.6870
13600.000000	73.825	-143.0629
13800.000000	72.866	-137.2748
14000.000000	72.291	-130.1466
14300.000000	71.932	-119.2742
14500.000000	72.159	-113.0499
14750.000000	73.035	-108.7107
15000.000000	73.742	-108.8830
15250.000000	74.288	-112.6327
15500.000000	74.328	-120.4481
15750.000000	73.454	-127.9196
16000.000000	71.890	-131.6035
16250.000000	70.082	-130.4007
16500.000000	68.902	-124.1553
16750.000000	68.152	-119.6848
17000.000000	67.496	-113.2294
17250.000000	67.346	-106.4291
17500.000000	67.363	-102.0669
17750.000000	67.349	-98.8786
18000.000000	67.705	-97.9386
18250.000000	68.106	-96.4418
18500.000000	68.556	-98.4695
18750.000000	68.515	-104.3708
19000.000000	68.017	-106.7822
19250.000000	67.205	-108.1164
19500.000000	65.454	-108.0654
19750.000000	64.702	-107.2059
