* Measurement data measured by REW V5.20.5
* Source: USB Sound Device        , MICROPHONE, R, volume: 0.501
* Format: 256k Log Swept Sine, 1 sweep at -6.0 dBFS with no timing reference
* Dated: 5 Sep, 2023 7:39:18 PM
* REW Settings:
*  C-weighting compensation: Off
*  Target level: 75.0 dB
* Note: 
* Measurement: CVJ KONOKA DU Sep 5
* Smoothing: None
* Frequency Step: 1/48 octave
* Start Frequency: 20.000 Hz
*
* Freq(Hz)	SPL(dB)	Phase(degrees)
20.000000	90.180	-161.9445
20.299999	90.185	-162.3798
20.600000	90.190	-162.8022
20.900000	90.193	-163.2141
21.200001	90.196	-163.6194
21.400000	90.198	-163.8882
21.799999	90.200	-164.4242
22.000000	90.200	-164.6915
22.400000	90.198	-165.2217
22.700001	90.195	-165.6121
23.000000	90.191	-165.9946
23.299999	90.187	-166.3709
23.600000	90.184	-166.7433
24.000000	90.179	-167.2364
24.299999	90.176	-167.6034
24.700001	90.171	-168.0865
25.000000	90.167	-168.4434
25.400000	90.163	-168.9131
25.799999	90.157	-169.3764
26.200001	90.151	-169.8272
26.500000	90.144	-170.1501
26.900000	90.136	-170.5541
27.200001	90.130	-170.8395
27.600000	90.126	-171.2079
28.000000	90.122	-171.5783
28.500000	90.116	-172.0515
29.000000	90.105	-172.5163
29.500000	90.091	-172.9525
30.000000	90.077	-173.3682
30.400000	90.067	-173.7019
30.700001	90.058	-173.9566
31.100000	90.045	-174.2966
31.500000	90.029	-174.6265
32.000000	90.009	-175.0147
32.500000	89.992	-175.3862
33.000000	89.978	-175.7665
33.500000	89.964	-176.1680
34.000000	89.946	-176.5735
34.500000	89.924	-176.9508
35.000000	89.902	-177.2866
35.500000	89.885	-177.6010
36.000000	89.871	-177.9227
36.500000	89.856	-178.2558
37.000000	89.837	-178.5806
37.500000	89.818	-178.8865
38.200001	89.792	-179.3080
38.700001	89.772	-179.6158
39.500000	89.735	179.9172
40.000000	89.712	179.6444
40.599998	89.686	179.3114
41.200001	89.658	178.9737
41.799999	89.629	178.6544
42.500000	89.598	178.2916
43.099998	89.571	177.9671
43.700001	89.541	177.6567
44.400002	89.508	177.3257
45.000000	89.480	177.0329
45.500000	89.454	176.7867
46.200001	89.415	176.4868
46.799999	89.387	176.2447
47.500000	89.351	175.9128
48.200001	89.302	175.6293
48.700001	89.272	175.4942
49.400002	89.246	175.2536
50.000000	89.214	174.9426
50.799999	89.145	174.6644
51.500000	89.106	174.5876
52.200001	89.084	174.3662
53.000000	89.029	174.0636
53.799999	88.980	174.0097
54.500000	88.968	173.8622
55.200001	88.936	173.5560
56.000000	88.878	173.4102
57.000000	88.858	173.2564
58.000000	88.810	172.7834
59.000000	88.740	172.5878
60.000000	88.701	172.3226
60.799999	88.645	172.0381
61.500000	88.588	171.9190
62.200001	88.544	171.8636
63.000000	88.503	171.7481
64.000000	88.439	171.5302
65.000000	88.359	171.4491
66.000000	88.300	171.4753
67.000000	88.242	171.4081
68.000000	88.170	171.4462
69.000000	88.114	171.6095
70.000000	88.079	171.7555
71.000000	88.048	171.8225
72.000000	88.017	171.9315
73.000000	88.003	172.0220
74.000000	87.990	172.0343
75.000000	87.980	172.0524
76.199997	87.974	171.9933
77.500000	87.957	171.8511
78.800003	87.936	171.7518
80.000000	87.924	171.5690
81.199997	87.899	171.3238
82.500000	87.859	171.0489
83.800003	87.819	170.8956
85.000000	87.792	170.6841
86.199997	87.756	170.4721
87.500000	87.708	170.2584
88.500000	87.671	170.1930
90.000000	87.644	170.1692
91.199997	87.666	170.0332
92.500000	87.706	169.4891
93.800003	87.744	168.5815
95.000000	87.780	167.1553
96.199997	87.726	164.6278
97.500000	87.288	161.1255
98.800003	86.348	160.0883
100.000000	85.521	163.4922
101.500000	85.193	170.8008
103.000000	85.742	176.2956
104.400002	86.327	176.3341
106.000000	86.449	175.3906
107.500000	86.475	175.6086
109.000000	86.495	176.0454
110.599998	86.517	176.5364
112.000000	86.524	177.0282
113.800003	86.574	177.6799
115.000000	86.632	178.0439
117.199997	86.805	178.4617
118.000000	86.883	178.4525
120.599998	87.098	177.8700
122.000000	87.176	177.2879
124.099998	87.226	176.2437
125.000000	87.228	175.8140
126.500000	87.224	175.1554
128.000000	87.208	174.5439
131.500000	87.119	173.5568
132.000000	87.102	173.4633
134.000000	87.032	173.0953
136.000000	86.948	172.7993
138.000000	86.866	172.5647
140.000000	86.790	172.3646
143.000000	86.682	172.2502
145.000000	86.613	172.1701
147.500000	86.534	172.2365
150.000000	86.450	172.2525
152.500000	86.368	172.3353
155.000000	86.293	172.4456
157.500000	86.228	172.5653
160.000000	86.155	172.7162
162.500000	86.089	172.8690
165.000000	86.023	173.0408
167.500000	85.968	173.1871
170.000000	85.905	173.4086
172.500000	85.847	173.6246
175.000000	85.794	173.8429
177.500000	85.743	174.0417
180.000000	85.687	174.2600
182.500000	85.637	174.4680
185.000000	85.592	174.6971
187.500000	85.546	174.9144
190.000000	85.500	175.1721
192.500000	85.454	175.3783
195.000000	85.412	175.6296
197.500000	85.371	175.8576
200.000000	85.334	176.0526
203.000000	85.283	176.3492
206.000000	85.240	176.6606
209.000000	85.191	176.9812
212.000000	85.148	177.3113
214.000000	85.125	177.4643
218.000000	85.069	177.8962
220.000000	85.042	178.0463
224.000000	84.987	178.4523
227.000000	84.951	178.7731
230.000000	84.921	179.1028
233.000000	84.889	179.4445
236.000000	84.856	179.6995
240.000000	84.806	-179.9190
243.000000	84.784	-179.6337
247.000000	84.738	-179.2011
250.000000	84.715	-178.8857
254.000000	84.674	-178.4727
258.000000	84.645	-178.0940
262.000000	84.612	-177.6838
265.000000	84.588	-177.3941
269.000000	84.554	-177.0283
272.000000	84.532	-176.7479
276.000000	84.499	-176.3802
280.000000	84.478	-176.0250
285.000000	84.439	-175.5813
290.000000	84.401	-175.1333
295.000000	84.366	-174.6862
300.000000	84.334	-174.2476
304.000000	84.296	-173.8445
307.000000	84.285	-173.5149
311.000000	84.271	-173.0865
315.000000	84.242	-172.6744
320.000000	84.243	-172.2051
325.000000	84.239	-171.8487
330.000000	84.222	-171.6319
335.000000	84.179	-171.4270
340.000000	84.125	-171.1010
345.000000	84.075	-170.5956
350.000000	84.032	-170.0348
355.000000	84.013	-169.3652
360.000000	83.995	-168.8843
365.000000	83.999	-168.4752
370.000000	83.983	-168.0400
375.000000	83.986	-167.6387
382.000000	83.975	-167.1140
387.000000	83.971	-166.8613
395.000000	83.950	-166.3654
400.000000	83.933	-166.1740
406.000000	83.918	-165.7999
412.000000	83.895	-165.4979
418.000000	83.860	-165.2719
425.000000	83.822	-164.9215
431.000000	83.784	-164.7246
437.000000	83.740	-164.3970
444.000000	83.681	-164.1023
450.000000	83.621	-163.8596
455.000000	83.568	-163.5708
462.000000	83.486	-163.1857
468.000000	83.404	-162.7917
475.000000	83.313	-162.2139
482.000000	83.230	-161.7304
487.000000	83.163	-161.2883
494.000000	83.062	-160.5663
500.000000	82.960	-159.5653
508.000000	82.918	-158.7946
515.000000	82.833	-157.8672
522.000000	82.772	-156.9986
530.000000	82.704	-155.9052
538.000000	82.645	-154.6930
545.000000	82.606	-153.7343
552.000000	82.568	-152.7418
560.000000	82.556	-151.5423
570.000000	82.523	-150.1876
580.000000	82.512	-148.7455
590.000000	82.507	-147.3913
600.000000	82.516	-145.9891
608.000000	82.527	-144.9121
615.000000	82.554	-144.0495
622.000000	82.564	-143.1454
630.000000	82.575	-142.2059
640.000000	82.625	-141.0442
650.000000	82.651	-139.7604
660.000000	82.688	-138.6719
670.000000	82.735	-137.5343
680.000000	82.769	-136.4079
690.000000	82.816	-135.3670
700.000000	82.864	-134.3030
710.000000	82.910	-133.2680
720.000000	82.957	-132.2517
730.000000	83.010	-131.2511
740.000000	83.062	-130.2548
750.000000	83.117	-129.2570
762.000000	83.183	-128.1558
775.000000	83.253	-127.0323
788.000000	83.325	-125.8387
800.000000	83.393	-124.6475
812.000000	83.456	-123.6581
825.000000	83.505	-122.4870
838.000000	83.579	-121.2225
850.000000	83.641	-120.0475
862.000000	83.718	-118.8719
875.000000	83.817	-117.5780
885.000000	83.899	-116.6237
900.000000	84.016	-115.1686
912.000000	84.136	-114.0846
925.000000	84.256	-112.9336
938.000000	84.393	-111.8266
950.000000	84.505	-110.8782
962.000000	84.627	-109.8964
975.000000	84.759	-108.8261
988.000000	84.902	-107.8952
1000.000000	85.049	-107.2185
1015.000000	85.218	-106.0138
1030.000000	85.383	-105.1265
1044.000000	85.560	-104.2883
1060.000000	85.749	-103.4477
1075.000000	85.918	-102.7530
1090.000000	86.090	-102.0220
1106.000000	86.268	-101.3011
1120.000000	86.415	-100.7715
1138.000000	86.623	-100.0634
1150.000000	86.753	-99.6480
1172.000000	86.989	-98.9084
1180.000000	87.078	-98.6905
1206.000000	87.352	-97.8945
1220.000000	87.496	-97.5987
1241.000000	87.680	-97.1095
1250.000000	87.763	-96.9228
1265.000000	87.887	-96.5891
1280.000000	87.996	-96.1899
1315.000000	88.295	-94.4626
1320.000000	88.364	-94.1875
1340.000000	88.623	-93.7116
1360.000000	88.846	-93.4172
1380.000000	89.046	-93.1063
1400.000000	89.252	-92.7820
1430.000000	89.543	-92.2592
1450.000000	89.742	-91.9539
1475.000000	89.996	-91.5627
1500.000000	90.249	-91.2120
1525.000000	90.511	-90.9032
1550.000000	90.779	-90.6577
1575.000000	91.051	-90.4393
1600.000000	91.327	-90.2690
1625.000000	91.611	-90.2260
1650.000000	91.895	-90.2353
1675.000000	92.187	-90.3388
1700.000000	92.487	-90.5478
1725.000000	92.784	-90.8254
1750.000000	93.087	-91.2682
1775.000000	93.393	-91.8214
1800.000000	93.708	-92.5343
1825.000000	94.013	-93.3621
1850.000000	94.317	-94.3741
1875.000000	94.623	-95.5498
1900.000000	94.916	-96.9102
1925.000000	95.207	-98.4674
1950.000000	95.477	-100.2285
1975.000000	95.737	-102.1977
2000.000000	95.971	-104.4091
2030.000000	96.220	-107.2792
2060.000000	96.430	-110.3864
2090.000000	96.585	-113.7453
2120.000000	96.687	-117.2849
2140.000000	96.732	-119.6837
2180.000000	96.727	-124.5880
2200.000000	96.685	-127.0068
2240.000000	96.533	-131.7067
2270.000000	96.358	-134.9836
2300.000000	96.147	-138.0434
2330.000000	95.897	-140.8333
2360.000000	95.619	-143.3369
2400.000000	95.221	-146.2144
2430.000000	94.908	-148.0748
2470.000000	94.482	-150.1105
2500.000000	94.163	-151.3622
2540.000000	93.734	-152.6929
2580.000000	93.315	-153.6688
2620.000000	92.915	-154.3681
2650.000000	92.624	-154.7300
2690.000000	92.247	-154.9559
2720.000000	91.978	-155.0322
2760.000000	91.625	-154.9978
2800.000000	91.306	-154.7594
2850.000000	90.921	-154.3348
2900.000000	90.563	-153.6944
2950.000000	90.242	-153.0350
3000.000000	89.928	-152.1681
3040.000000	89.713	-151.3687
3070.000000	89.557	-150.7802
3110.000000	89.362	-149.9648
3150.000000	89.173	-149.0916
3200.000000	88.961	-147.9041
3250.000000	88.774	-146.7109
3300.000000	88.607	-145.5098
3350.000000	88.461	-144.2520
3400.000000	88.335	-142.9821
3450.000000	88.215	-141.7258
3500.000000	88.118	-140.4553
3550.000000	88.053	-139.1225
3600.000000	87.997	-137.8341
3650.000000	87.956	-136.5878
3700.000000	87.936	-135.2826
3750.000000	87.924	-134.0690
3820.000000	87.943	-132.2738
3870.000000	87.972	-131.1169
3950.000000	88.064	-129.2704
4000.000000	88.142	-128.1384
4060.000000	88.233	-126.9118
4120.000000	88.374	-125.7872
4180.000000	88.527	-124.7573
4250.000000	88.748	-123.7501
4310.000000	88.966	-123.0151
4370.000000	89.186	-122.5217
4440.000000	89.463	-122.1708
4500.000000	89.723	-122.0916
4550.000000	89.949	-122.3716
4620.000000	90.229	-123.1008
4680.000000	90.430	-123.9383
4750.000000	90.593	-124.9879
4820.000000	90.707	-125.6912
4870.000000	90.811	-125.7315
4940.000000	91.056	-125.4206
5000.000000	91.407	-125.4599
5080.000000	91.984	-126.6599
5150.000000	92.508	-129.1415
5220.000000	92.961	-132.8516
5300.000000	93.326	-138.2867
5380.000000	93.475	-144.4476
5450.000000	93.416	-150.0622
5520.000000	93.183	-155.3580
5600.000000	92.748	-160.8017
5700.000000	92.056	-166.1405
5800.000000	91.257	-169.9827
5900.000000	90.456	-172.4583
6000.000000	89.662	-173.8855
6080.000000	89.074	-174.2825
6150.000000	88.584	-174.2773
6220.000000	88.135	-173.9955
6300.000000	87.651	-173.5399
6400.000000	87.122	-172.4049
6500.000000	86.651	-171.1722
6600.000000	86.242	-169.7186
6700.000000	85.889	-167.9844
6800.000000	85.618	-166.2488
6900.000000	85.390	-164.3308
7000.000000	85.214	-162.4792
7100.000000	85.102	-160.7022
7200.000000	85.047	-158.7299
7300.000000	85.074	-156.9812
7400.000000	85.119	-155.5328
7500.000000	85.239	-154.2003
7620.000000	85.489	-152.9192
7750.000000	85.818	-152.0457
7880.000000	86.253	-151.7635
8000.000000	86.729	-152.5646
8120.000000	87.320	-154.2716
8250.000000	87.954	-157.8467
8380.000000	88.537	-163.5654
8500.000000	88.903	-170.6863
8620.000000	88.959	-179.3498
8750.000000	88.566	170.8747
8850.000000	87.920	164.1447
9000.000000	86.666	156.2915
9120.000000	85.509	152.3727
9250.000000	84.283	150.1649
9380.000000	83.133	149.6913
9500.000000	82.150	149.8878
9620.000000	81.270	151.3630
9750.000000	80.530	153.4380
9880.000000	79.891	156.0085
10000.000000	79.476	158.2941
10150.000000	79.055	161.0778
10300.000000	78.816	163.2348
10440.000000	78.576	165.0353
10600.000000	78.343	165.7178
10750.000000	78.117	166.3425
10900.000000	77.832	167.0233
11060.000000	77.560	167.2650
11200.000000	77.258	168.6432
11380.000000	76.814	171.0324
11500.000000	76.694	172.5821
11720.000000	76.588	174.4939
11800.000000	76.486	175.2610
12060.000000	76.361	179.7889
12200.000000	76.438	-177.3910
12410.000000	76.796	-174.0020
12500.000000	77.063	-172.1822
12650.000000	77.644	-170.1779
12800.000000	78.288	-168.7172
13150.000000	80.475	-170.6514
13200.000000	80.865	-171.4414
13400.000000	82.413	-178.6828
13600.000000	83.715	167.9717
13800.000000	84.051	149.5933
14000.000000	82.975	132.1248
14300.000000	80.359	117.1884
14500.000000	78.694	112.8767
14750.000000	76.965	110.2629
15000.000000	75.545	108.7945
15250.000000	74.231	109.5558
15500.000000	73.188	110.6276
15750.000000	72.696	111.9478
16000.000000	72.105	114.2279
16250.000000	71.768	114.4785
16500.000000	71.644	114.7947
16750.000000	71.800	112.5844
17000.000000	71.937	110.3210
17250.000000	72.002	104.9451
17500.000000	71.993	96.6898
17750.000000	71.120	87.8468
18000.000000	69.712	81.6628
18250.000000	68.103	74.7773
18500.000000	66.019	73.4553
18750.000000	64.717	74.2429
19000.000000	63.386	77.2422
19250.000000	61.697	81.7986
19500.000000	60.916	93.4299
19750.000000	59.997	100.3786
