* Measurement data measured by REW V5.20.5
* Source: USB Sound Device        , MICROPHONE, R, volume: 0.494
* Format: 256k Log Swept Sine, 1 sweep at -6.0 dBFS with no timing reference
* Dated: 7 Nov, 2023 7:34:13 PM
* REW Settings:
*  C-weighting compensation: Off
*  Target level: 75.0 dB
* Note: 
* Measurement: D&A DE2 Nov 7
* Smoothing: None
* Frequency Step: 1/48 octave
* Start Frequency: 20.000 Hz
*
* Freq(Hz)	SPL(dB)	Phase(degrees)
20.000000	97.470	1.1975
20.299999	97.456	0.7675
20.600000	97.443	0.3505
20.900000	97.431	-0.0598
21.200001	97.418	-0.4665
21.400000	97.408	-0.7313
21.799999	97.386	-1.2338
22.000000	97.375	-1.4684
22.400000	97.354	-1.9084
22.700001	97.341	-2.2304
23.000000	97.328	-2.5626
23.299999	97.313	-2.9067
23.600000	97.295	-3.2524
24.000000	97.266	-3.6942
24.299999	97.243	-4.0022
24.700001	97.215	-4.3928
25.000000	97.196	-4.6884
25.400000	97.172	-5.1018
25.799999	97.146	-5.5313
26.200001	97.118	-5.9565
26.500000	97.097	-6.2666
26.900000	97.070	-6.6726
27.200001	97.052	-6.9774
27.600000	97.028	-7.3849
28.000000	97.004	-7.7858
28.500000	96.977	-8.2692
29.000000	96.951	-8.7419
29.500000	96.926	-9.2083
30.000000	96.899	-9.6516
30.400000	96.878	-9.9839
30.700001	96.863	-10.2262
31.100000	96.844	-10.5510
31.500000	96.822	-10.8776
32.000000	96.792	-11.2708
32.500000	96.762	-11.6362
33.000000	96.733	-11.9960
33.500000	96.705	-12.3741
34.000000	96.674	-12.7620
34.500000	96.641	-13.1373
35.000000	96.609	-13.5007
35.500000	96.578	-13.8669
36.000000	96.548	-14.2378
36.500000	96.519	-14.6054
37.000000	96.489	-14.9678
37.500000	96.460	-15.3234
38.200001	96.418	-15.7910
38.700001	96.390	-16.1023
39.500000	96.348	-16.6025
40.000000	96.319	-16.9153
40.599998	96.283	-17.2717
41.200001	96.247	-17.6160
41.799999	96.212	-17.9643
42.500000	96.168	-18.3678
43.099998	96.130	-18.7058
43.700001	96.094	-19.0436
44.400002	96.051	-19.4375
45.000000	96.016	-19.7754
45.500000	95.985	-20.0549
46.200001	95.942	-20.4252
46.799999	95.908	-20.7251
47.500000	95.870	-21.0875
48.200001	95.828	-21.4514
48.700001	95.797	-21.6892
49.400002	95.755	-22.0023
50.000000	95.722	-22.2817
50.799999	95.674	-22.6696
51.500000	95.629	-22.9957
52.200001	95.585	-23.3009
53.000000	95.538	-23.6486
53.799999	95.491	-24.0127
54.500000	95.448	-24.3202
55.200001	95.405	-24.6066
56.000000	95.358	-24.9236
57.000000	95.300	-25.3185
58.000000	95.241	-25.7114
59.000000	95.181	-26.0948
60.000000	95.120	-26.4644
60.799999	95.073	-26.7402
61.500000	95.033	-26.9883
62.200001	94.993	-27.2399
63.000000	94.946	-27.5159
64.000000	94.887	-27.8526
65.000000	94.828	-28.1714
66.000000	94.769	-28.4908
67.000000	94.710	-28.8021
68.000000	94.652	-29.1122
69.000000	94.592	-29.4064
70.000000	94.535	-29.6885
71.000000	94.478	-29.9738
72.000000	94.420	-30.2448
73.000000	94.362	-30.4955
74.000000	94.306	-30.7448
75.000000	94.251	-31.0128
76.199997	94.179	-31.3361
77.500000	94.104	-31.6192
78.800003	94.034	-31.9286
80.000000	93.967	-32.2066
81.199997	93.900	-32.4582
82.500000	93.829	-32.7372
83.800003	93.755	-32.9980
85.000000	93.690	-33.2314
86.199997	93.625	-33.4784
87.500000	93.552	-33.7204
88.500000	93.498	-33.8926
90.000000	93.420	-34.1591
91.199997	93.353	-34.3597
92.500000	93.289	-34.5571
93.800003	93.218	-34.8022
95.000000	93.155	-34.9448
96.199997	93.094	-35.1566
97.500000	93.022	-35.3182
98.800003	92.959	-35.5167
100.000000	92.892	-35.6840
101.500000	92.817	-35.8571
103.000000	92.743	-36.0477
104.400002	92.670	-36.2273
106.000000	92.590	-36.3785
107.500000	92.517	-36.5637
109.000000	92.441	-36.7164
110.599998	92.363	-36.8851
112.000000	92.298	-37.0070
113.800003	92.210	-37.1793
115.000000	92.153	-37.2732
117.199997	92.049	-37.4222
118.000000	92.013	-37.5055
120.599998	91.890	-37.6977
122.000000	91.824	-37.8123
124.099998	91.732	-37.9557
125.000000	91.689	-38.0191
126.500000	91.620	-38.0917
128.000000	91.552	-38.1785
131.500000	91.400	-38.3437
132.000000	91.378	-38.3739
134.000000	91.291	-38.4437
136.000000	91.205	-38.5396
138.000000	91.119	-38.5950
140.000000	91.036	-38.6464
143.000000	90.911	-38.7342
145.000000	90.827	-38.7867
147.500000	90.725	-38.8327
150.000000	90.620	-38.8960
152.500000	90.522	-38.9282
155.000000	90.428	-38.9431
157.500000	90.334	-38.9454
160.000000	90.238	-38.9650
162.500000	90.139	-38.9663
165.000000	90.048	-38.9519
167.500000	89.955	-38.9326
170.000000	89.865	-38.9108
172.500000	89.776	-38.8755
175.000000	89.687	-38.8530
177.500000	89.598	-38.8163
180.000000	89.512	-38.7866
182.500000	89.426	-38.7055
185.000000	89.345	-38.6437
187.500000	89.260	-38.5860
190.000000	89.176	-38.5099
192.500000	89.090	-38.4363
195.000000	89.012	-38.3396
197.500000	88.930	-38.2894
200.000000	88.849	-38.1373
203.000000	88.758	-38.0409
206.000000	88.666	-37.9240
209.000000	88.574	-37.8137
212.000000	88.485	-37.6940
214.000000	88.427	-37.6164
218.000000	88.311	-37.4235
220.000000	88.254	-37.2795
224.000000	88.139	-37.1155
227.000000	88.056	-37.0058
230.000000	87.974	-36.7870
233.000000	87.889	-36.6270
236.000000	87.806	-36.4841
240.000000	87.706	-36.2325
243.000000	87.629	-36.0649
247.000000	87.519	-35.8131
250.000000	87.436	-35.5847
254.000000	87.345	-35.4029
258.000000	87.247	-35.1198
262.000000	87.149	-34.8894
265.000000	87.078	-34.6708
269.000000	86.985	-34.3953
272.000000	86.917	-34.2147
276.000000	86.821	-33.9084
280.000000	86.732	-33.6379
285.000000	86.619	-33.2772
290.000000	86.514	-32.9148
295.000000	86.407	-32.5275
300.000000	86.303	-32.2156
304.000000	86.221	-31.8862
307.000000	86.161	-31.6459
311.000000	86.077	-31.3408
315.000000	86.002	-31.0712
320.000000	85.899	-30.6265
325.000000	85.814	-30.2897
330.000000	85.714	-29.8563
335.000000	85.627	-29.4260
340.000000	85.534	-29.0029
345.000000	85.452	-28.6572
350.000000	85.359	-28.2159
355.000000	85.275	-27.8420
360.000000	85.191	-27.3884
365.000000	85.111	-26.9151
370.000000	85.035	-26.4603
375.000000	84.949	-26.0677
382.000000	84.839	-25.4808
387.000000	84.766	-25.0076
395.000000	84.641	-24.2776
400.000000	84.572	-23.9125
406.000000	84.485	-23.3412
412.000000	84.405	-22.8284
418.000000	84.319	-22.2814
425.000000	84.226	-21.6237
431.000000	84.146	-21.1000
437.000000	84.065	-20.5122
444.000000	83.980	-19.8762
450.000000	83.903	-19.3120
455.000000	83.852	-18.8680
462.000000	83.771	-18.2280
468.000000	83.699	-17.5778
475.000000	83.617	-16.9263
482.000000	83.548	-16.3162
487.000000	83.489	-15.8412
494.000000	83.428	-15.2322
500.000000	83.351	-14.6035
508.000000	83.273	-13.8182
515.000000	83.208	-13.1843
522.000000	83.145	-12.4730
530.000000	83.075	-11.7153
538.000000	83.004	-10.9927
545.000000	82.954	-10.2853
552.000000	82.883	-9.5908
560.000000	82.819	-8.6998
570.000000	82.735	-7.8287
580.000000	82.674	-6.7979
590.000000	82.607	-5.8939
600.000000	82.542	-4.9111
608.000000	82.482	-4.1438
615.000000	82.437	-3.3997
622.000000	82.406	-2.7299
630.000000	82.350	-1.9580
640.000000	82.307	-0.9463
650.000000	82.256	-0.0753
660.000000	82.200	0.9290
670.000000	82.151	1.9900
680.000000	82.110	2.8676
690.000000	82.055	3.7991
700.000000	81.993	4.7956
710.000000	81.937	5.8888
720.000000	81.899	7.0778
730.000000	81.869	8.1978
740.000000	81.849	9.3174
750.000000	81.851	10.4881
762.000000	81.834	11.7825
775.000000	81.812	13.0765
788.000000	81.831	14.5131
800.000000	81.828	15.7319
812.000000	81.837	17.0341
825.000000	81.864	18.3379
838.000000	81.881	19.6383
850.000000	81.909	20.9250
862.000000	81.956	22.0134
875.000000	81.992	23.3046
885.000000	82.029	24.2614
900.000000	82.103	25.7169
912.000000	82.139	26.7431
925.000000	82.208	27.8138
938.000000	82.267	29.0695
950.000000	82.337	30.0276
962.000000	82.402	31.1006
975.000000	82.496	32.1303
988.000000	82.570	33.1068
1000.000000	82.640	34.0974
1015.000000	82.768	35.0847
1030.000000	82.872	36.0875
1044.000000	82.970	37.0046
1060.000000	83.084	38.0013
1075.000000	83.188	38.8948
1090.000000	83.300	39.7050
1106.000000	83.409	40.6057
1120.000000	83.519	41.2573
1138.000000	83.643	42.2552
1150.000000	83.725	42.7863
1172.000000	83.896	43.7639
1180.000000	83.952	43.9824
1206.000000	84.120	45.1158
1220.000000	84.216	45.6749
1241.000000	84.361	46.3998
1250.000000	84.409	46.7153
1265.000000	84.495	47.2628
1280.000000	84.608	47.7800
1315.000000	84.812	48.9501
1320.000000	84.839	49.1394
1340.000000	84.963	49.8093
1360.000000	85.068	50.5403
1380.000000	85.180	51.1395
1400.000000	85.298	51.8045
1430.000000	85.466	52.7223
1450.000000	85.591	53.4424
1475.000000	85.734	54.2580
1500.000000	85.877	55.0375
1525.000000	86.029	55.9181
1550.000000	86.195	56.6374
1575.000000	86.357	57.4274
1600.000000	86.508	58.2456
1625.000000	86.669	58.9967
1650.000000	86.847	59.7730
1675.000000	87.017	60.5128
1700.000000	87.210	61.2315
1725.000000	87.383	61.9000
1750.000000	87.577	62.4835
1775.000000	87.773	63.1501
1800.000000	87.972	63.7854
1825.000000	88.168	64.3269
1850.000000	88.374	64.8861
1875.000000	88.587	65.4718
1900.000000	88.803	65.9743
1925.000000	89.042	66.4351
1950.000000	89.288	66.8309
1975.000000	89.529	67.0576
2000.000000	89.758	67.3159
2030.000000	90.060	67.4533
2060.000000	90.354	67.4724
2090.000000	90.649	67.4315
2120.000000	90.950	67.3062
2140.000000	91.147	67.1448
2180.000000	91.545	66.6186
2200.000000	91.732	66.2355
2240.000000	92.109	65.4185
2270.000000	92.371	64.5551
2300.000000	92.625	63.6398
2330.000000	92.857	62.7012
2360.000000	93.085	61.7319
2400.000000	93.383	60.2548
2430.000000	93.577	59.0108
2470.000000	93.803	57.2693
2500.000000	93.948	55.9122
2540.000000	94.115	54.1152
2580.000000	94.239	52.4029
2620.000000	94.340	50.7083
2650.000000	94.401	49.5231
2690.000000	94.467	48.0751
2720.000000	94.503	47.0102
2760.000000	94.540	45.8036
2800.000000	94.573	44.6680
2850.000000	94.605	43.4149
2900.000000	94.634	42.3692
2950.000000	94.675	41.4600
3000.000000	94.719	40.7182
3040.000000	94.759	40.1139
3070.000000	94.795	39.7464
3110.000000	94.850	39.2396
3150.000000	94.917	38.7701
3200.000000	95.007	38.2058
3250.000000	95.114	37.6573
3300.000000	95.240	37.0494
3350.000000	95.376	36.3699
3400.000000	95.524	35.6049
3450.000000	95.691	34.7170
3500.000000	95.855	33.6501
3550.000000	96.027	32.4218
3600.000000	96.199	30.9298
3650.000000	96.363	29.2509
3700.000000	96.511	27.3085
3750.000000	96.636	25.0912
3820.000000	96.744	21.6499
3870.000000	96.774	18.9938
3950.000000	96.702	14.5435
4000.000000	96.589	11.7606
4060.000000	96.363	8.7186
4120.000000	96.069	6.0509
4180.000000	95.727	3.8718
4250.000000	95.295	1.9464
4310.000000	94.908	0.9203
4370.000000	94.522	0.3065
4440.000000	94.103	0.1526
4500.000000	93.769	0.3705
4550.000000	93.514	0.7347
4620.000000	93.190	1.5159
4680.000000	92.943	2.3770
4750.000000	92.711	3.4813
4820.000000	92.504	4.7021
4870.000000	92.379	5.5294
4940.000000	92.232	6.7566
5000.000000	92.122	7.7746
5080.000000	91.995	9.2139
5150.000000	91.916	10.4834
5220.000000	91.852	11.7120
5300.000000	91.799	13.1509
5380.000000	91.771	14.5381
5450.000000	91.755	15.9268
5520.000000	91.751	17.1964
5600.000000	91.780	18.6053
5700.000000	91.829	20.4110
5800.000000	91.916	22.1998
5900.000000	92.042	23.8522
6000.000000	92.197	25.5323
6080.000000	92.342	26.7913
6150.000000	92.498	27.7371
6220.000000	92.665	28.7473
6300.000000	92.882	29.7249
6400.000000	93.192	30.7309
6500.000000	93.541	31.4805
6600.000000	93.927	31.8863
6700.000000	94.343	31.9514
6800.000000	94.782	31.5257
6900.000000	95.229	30.5212
7000.000000	95.681	28.8615
7100.000000	96.126	26.4375
7200.000000	96.514	23.2261
7300.000000	96.826	19.1541
7400.000000	97.002	14.4001
7500.000000	97.021	9.2712
7620.000000	96.826	3.0692
7750.000000	96.382	-2.9124
7880.000000	95.739	-7.6552
8000.000000	95.055	-10.8466
8120.000000	94.322	-12.7993
8250.000000	93.546	-13.7892
8380.000000	92.807	-13.9004
8500.000000	92.180	-13.2249
8620.000000	91.611	-12.1117
8750.000000	91.062	-10.4075
8850.000000	90.680	-8.8387
9000.000000	90.187	-6.2424
9120.000000	89.868	-3.8190
9250.000000	89.579	-1.2889
9380.000000	89.376	1.7418
9500.000000	89.252	4.4086
9620.000000	89.182	7.0360
9750.000000	89.169	9.9342
9880.000000	89.232	12.8176
10000.000000	89.347	15.3582
10150.000000	89.573	18.6179
10300.000000	89.931	21.6132
10440.000000	90.340	24.1854
10600.000000	90.956	26.5938
10750.000000	91.667	28.2628
10900.000000	92.538	28.9482
11060.000000	93.632	28.3608
11200.000000	94.738	25.9343
11380.000000	96.273	18.7340
11500.000000	97.187	10.2283
11720.000000	97.731	-12.8748
11800.000000	97.367	-21.7680
12060.000000	94.852	-41.7119
12200.000000	93.258	-46.5241
12410.000000	91.045	-48.7953
12500.000000	90.197	-48.5119
12650.000000	88.933	-47.2549
12800.000000	87.857	-44.8667
13150.000000	85.968	-37.2463
13200.000000	85.753	-35.9295
13400.000000	85.232	-31.0566
13600.000000	85.062	-27.4816
13800.000000	84.955	-26.5227
14000.000000	84.682	-28.7747
14300.000000	83.365	-31.0123
14500.000000	82.365	-29.2566
14750.000000	81.211	-25.8646
15000.000000	80.179	-20.5358
15250.000000	79.410	-14.3644
15500.000000	78.905	-7.1953
15750.000000	78.748	-0.3784
16000.000000	78.896	7.0007
16250.000000	79.165	12.9792
16500.000000	79.789	18.4382
16750.000000	80.635	22.6178
17000.000000	81.672	24.7087
17250.000000	82.972	24.3724
17500.000000	84.298	19.6707
17750.000000	85.251	10.3019
18000.000000	85.389	-2.4326
18250.000000	84.479	-14.0172
18500.000000	82.988	-21.0935
18750.000000	81.393	-22.3252
19000.000000	79.901	-20.6389
19250.000000	79.038	-16.3439
19500.000000	78.291	-11.2200
19750.000000	78.253	-6.1108
