* Measurement data measured by REW V5.20.5
* Source: USB Sound Device        , MICROPHONE, R, volume: 0.514
* Format: 256k Log Swept Sine, 1 sweep at -6.0 dBFS with no timing reference
* Dated: 26 Jul, 2023 11:00:14 PM
* REW Settings:
*  C-weighting compensation: Off
*  Target level: 75.0 dB
* Note: 
* Measurement: DUNU FALCON PRO Jul 26
* Smoothing: None
* Frequency Step: 1/48 octave
* Start Frequency: 20.000 Hz
*
* Freq(Hz)	SPL(dB)	Phase(degrees)
20.000000	91.342	-137.8693
20.299999	91.394	-138.4610
20.600000	91.444	-139.0405
20.900000	91.492	-139.6104
21.200001	91.539	-140.1749
21.400000	91.570	-140.5501
21.799999	91.627	-141.2983
22.000000	91.654	-141.6699
22.400000	91.705	-142.4031
22.700001	91.741	-142.9403
23.000000	91.775	-143.4664
23.299999	91.809	-143.9859
23.600000	91.843	-144.5037
24.000000	91.887	-145.1971
24.299999	91.918	-145.7190
24.700001	91.957	-146.4115
25.000000	91.984	-146.9231
25.400000	92.018	-147.5912
25.799999	92.050	-148.2439
26.200001	92.081	-148.8827
26.500000	92.104	-149.3528
26.900000	92.133	-149.9670
27.200001	92.154	-150.4192
27.600000	92.182	-151.0138
28.000000	92.208	-151.6031
28.500000	92.239	-152.3315
29.000000	92.265	-153.0417
29.500000	92.289	-153.7268
30.000000	92.312	-154.3931
30.400000	92.329	-154.9209
30.700001	92.342	-155.3162
31.100000	92.356	-155.8409
31.500000	92.369	-156.3590
32.000000	92.383	-156.9918
32.500000	92.395	-157.6077
33.000000	92.408	-158.2128
33.500000	92.419	-158.8126
34.000000	92.429	-159.4067
34.500000	92.438	-159.9903
35.000000	92.445	-160.5617
35.500000	92.452	-161.1250
36.000000	92.457	-161.6829
36.500000	92.459	-162.2314
37.000000	92.460	-162.7631
37.500000	92.460	-163.2761
38.200001	92.460	-163.9717
38.700001	92.459	-164.4603
39.500000	92.458	-165.2379
40.000000	92.456	-165.7220
40.599998	92.451	-166.2937
41.200001	92.446	-166.8508
41.799999	92.440	-167.4030
42.500000	92.432	-168.0492
43.099998	92.420	-168.5858
43.700001	92.408	-169.0916
44.400002	92.395	-169.6602
45.000000	92.384	-170.1453
45.500000	92.374	-170.5417
46.200001	92.359	-171.0770
46.799999	92.348	-171.5325
47.500000	92.333	-172.0723
48.200001	92.314	-172.5954
48.700001	92.301	-172.9507
49.400002	92.285	-173.4465
50.000000	92.269	-173.8806
50.799999	92.243	-174.4310
51.500000	92.223	-174.8785
52.200001	92.205	-175.3440
53.000000	92.177	-175.8816
53.799999	92.148	-176.3489
54.500000	92.129	-176.7471
55.200001	92.110	-177.1895
56.000000	92.078	-177.6785
57.000000	92.041	-178.2215
58.000000	92.004	-178.7840
59.000000	91.964	-179.2625
60.000000	91.938	-179.7720
60.799999	91.907	179.7608
61.500000	91.872	179.4109
62.200001	91.843	179.1081
63.000000	91.814	178.7471
64.000000	91.776	178.2750
65.000000	91.735	177.8197
66.000000	91.694	177.3910
67.000000	91.654	176.9774
68.000000	91.614	176.5587
69.000000	91.569	176.1637
70.000000	91.528	175.8118
71.000000	91.490	175.4277
72.000000	91.445	175.0672
73.000000	91.405	174.7163
74.000000	91.360	174.3559
75.000000	91.317	174.0493
76.199997	91.267	173.6385
77.500000	91.211	173.2649
78.800003	91.156	172.8513
80.000000	91.102	172.5199
81.199997	91.049	172.1855
82.500000	90.994	171.8560
83.800003	90.939	171.5056
85.000000	90.886	171.2148
86.199997	90.834	170.9376
87.500000	90.781	170.6506
88.500000	90.738	170.4096
90.000000	90.669	170.1226
91.199997	90.623	169.8839
92.500000	90.565	169.6157
93.800003	90.509	169.3757
95.000000	90.456	169.1662
96.199997	90.406	168.9623
97.500000	90.352	168.7488
98.800003	90.296	168.5336
100.000000	90.245	168.3801
101.500000	90.184	168.1461
103.000000	90.121	167.9810
104.400002	90.068	167.7725
106.000000	89.996	167.5644
107.500000	89.940	167.4174
109.000000	89.878	167.2436
110.599998	89.815	167.0850
112.000000	89.755	166.9626
113.800003	89.681	166.8236
115.000000	89.637	166.7314
117.199997	89.547	166.5623
118.000000	89.519	166.4966
120.599998	89.418	166.3380
122.000000	89.366	166.2843
124.099998	89.284	166.1538
125.000000	89.249	166.1134
126.500000	89.192	166.0698
128.000000	89.139	166.0010
131.500000	89.008	165.9282
132.000000	88.993	165.8889
134.000000	88.913	165.8363
136.000000	88.846	165.7950
138.000000	88.774	165.7885
140.000000	88.703	165.7663
143.000000	88.596	165.7419
145.000000	88.536	165.8058
147.500000	88.446	165.8153
150.000000	88.359	165.8150
152.500000	88.285	165.8852
155.000000	88.206	165.9274
157.500000	88.127	166.0477
160.000000	88.045	166.1053
162.500000	87.969	166.2042
165.000000	87.893	166.2987
167.500000	87.817	166.4127
170.000000	87.742	166.5342
172.500000	87.672	166.6472
175.000000	87.596	166.7976
177.500000	87.523	166.9493
180.000000	87.455	167.1088
182.500000	87.384	167.2623
185.000000	87.320	167.4189
187.500000	87.251	167.6326
190.000000	87.182	167.7907
192.500000	87.118	167.9715
195.000000	87.061	168.1185
197.500000	86.992	168.3728
200.000000	86.938	168.5471
203.000000	86.861	168.8289
206.000000	86.786	169.0618
209.000000	86.717	169.3334
212.000000	86.647	169.6187
214.000000	86.602	169.8007
218.000000	86.513	170.1619
220.000000	86.476	170.3367
224.000000	86.385	170.7910
227.000000	86.323	171.0577
230.000000	86.260	171.3697
233.000000	86.198	171.6837
236.000000	86.139	171.9928
240.000000	86.064	172.4110
243.000000	86.015	172.7377
247.000000	85.944	173.1484
250.000000	85.891	173.4306
254.000000	85.821	173.8786
258.000000	85.756	174.3493
262.000000	85.693	174.7341
265.000000	85.645	175.0518
269.000000	85.578	175.4636
272.000000	85.534	175.7839
276.000000	85.476	176.2072
280.000000	85.420	176.6053
285.000000	85.352	177.1851
290.000000	85.271	177.6970
295.000000	85.198	178.2100
300.000000	85.131	178.7394
304.000000	85.083	179.1788
307.000000	85.035	179.5013
311.000000	84.978	179.9215
315.000000	84.928	-179.6126
320.000000	84.866	-179.0833
325.000000	84.799	-178.4996
330.000000	84.735	-177.9285
335.000000	84.680	-177.3696
340.000000	84.610	-176.7770
345.000000	84.554	-176.2233
350.000000	84.496	-175.6445
355.000000	84.445	-175.0370
360.000000	84.385	-174.4552
365.000000	84.340	-173.9040
370.000000	84.293	-173.3010
375.000000	84.234	-172.7225
382.000000	84.175	-171.9160
387.000000	84.125	-171.2977
395.000000	84.049	-170.2742
400.000000	84.005	-169.7445
406.000000	83.959	-168.9725
412.000000	83.907	-168.3139
418.000000	83.861	-167.5519
425.000000	83.802	-166.6990
431.000000	83.761	-165.9859
437.000000	83.721	-165.2493
444.000000	83.671	-164.4137
450.000000	83.625	-163.7542
455.000000	83.601	-163.1349
462.000000	83.559	-162.2590
468.000000	83.523	-161.5654
475.000000	83.479	-160.7446
482.000000	83.434	-159.9231
487.000000	83.415	-159.3326
494.000000	83.374	-158.4454
500.000000	83.350	-157.7373
508.000000	83.310	-156.8497
515.000000	83.272	-155.9740
522.000000	83.239	-155.1715
530.000000	83.209	-154.2379
538.000000	83.174	-153.2610
545.000000	83.150	-152.4136
552.000000	83.115	-151.6068
560.000000	83.102	-150.6501
570.000000	83.076	-149.4333
580.000000	83.046	-148.3438
590.000000	83.016	-147.1676
600.000000	82.987	-145.9247
608.000000	82.954	-145.0327
615.000000	82.947	-144.1653
622.000000	82.930	-143.3570
630.000000	82.913	-142.4482
640.000000	82.903	-141.2697
650.000000	82.898	-140.0827
660.000000	82.881	-138.9165
670.000000	82.874	-137.7810
680.000000	82.873	-136.6040
690.000000	82.866	-135.4108
700.000000	82.859	-134.2686
710.000000	82.860	-133.0957
720.000000	82.868	-131.9993
730.000000	82.875	-130.7366
740.000000	82.888	-129.6078
750.000000	82.899	-128.3537
762.000000	82.908	-127.0668
775.000000	82.939	-125.5181
788.000000	82.954	-124.0127
800.000000	82.998	-122.7033
812.000000	83.026	-121.3155
825.000000	83.068	-119.8285
838.000000	83.113	-118.4529
850.000000	83.167	-116.9900
862.000000	83.214	-115.6490
875.000000	83.278	-114.3750
885.000000	83.334	-113.2800
900.000000	83.418	-111.6966
912.000000	83.488	-110.4809
925.000000	83.570	-109.1670
938.000000	83.645	-107.8797
950.000000	83.738	-106.7440
962.000000	83.809	-105.6521
975.000000	83.919	-104.4540
988.000000	84.004	-103.3010
1000.000000	84.124	-102.3016
1015.000000	84.210	-101.0743
1030.000000	84.334	-99.8679
1044.000000	84.442	-98.8047
1060.000000	84.575	-97.6880
1075.000000	84.691	-96.6965
1090.000000	84.808	-95.6490
1106.000000	84.942	-94.6234
1120.000000	85.034	-93.7829
1138.000000	85.190	-92.8128
1150.000000	85.278	-92.1560
1172.000000	85.442	-91.0636
1180.000000	85.491	-90.6705
1206.000000	85.659	-89.5562
1220.000000	85.740	-88.8881
1241.000000	85.842	-87.9496
1250.000000	85.902	-87.4418
1265.000000	85.995	-86.7720
1280.000000	86.083	-86.0712
1315.000000	86.295	-84.6735
1320.000000	86.308	-84.5643
1340.000000	86.412	-83.8132
1360.000000	86.487	-83.1711
1380.000000	86.561	-82.5743
1400.000000	86.601	-81.7931
1430.000000	86.661	-80.5269
1450.000000	86.712	-79.4242
1475.000000	86.774	-78.0113
1500.000000	86.867	-76.7021
1525.000000	86.974	-75.2885
1550.000000	87.085	-73.9510
1575.000000	87.212	-72.6383
1600.000000	87.332	-71.4339
1625.000000	87.464	-70.2537
1650.000000	87.591	-69.0802
1675.000000	87.722	-67.9688
1700.000000	87.858	-66.8770
1725.000000	87.990	-65.7758
1750.000000	88.124	-64.7717
1775.000000	88.268	-63.7172
1800.000000	88.408	-62.7846
1825.000000	88.550	-61.8285
1850.000000	88.696	-60.9238
1875.000000	88.837	-59.9613
1900.000000	88.990	-59.1499
1925.000000	89.134	-58.3606
1950.000000	89.282	-57.5889
1975.000000	89.422	-56.8674
2000.000000	89.588	-56.0778
2030.000000	89.753	-55.4169
2060.000000	89.924	-54.6574
2090.000000	90.111	-53.9756
2120.000000	90.273	-53.3771
2140.000000	90.394	-52.9958
2180.000000	90.619	-52.2503
2200.000000	90.727	-51.9675
2240.000000	90.946	-51.3605
2270.000000	91.109	-51.0311
2300.000000	91.272	-50.6740
2330.000000	91.429	-50.4360
2360.000000	91.573	-50.1785
2400.000000	91.772	-49.9883
2430.000000	91.909	-49.8777
2470.000000	92.092	-49.7849
2500.000000	92.217	-49.7673
2540.000000	92.383	-49.8068
2580.000000	92.533	-49.9411
2620.000000	92.668	-50.1430
2650.000000	92.765	-50.3299
2690.000000	92.875	-50.5665
2720.000000	92.955	-50.7977
2760.000000	93.049	-51.1198
2800.000000	93.123	-51.4949
2850.000000	93.200	-51.9818
2900.000000	93.260	-52.4318
2950.000000	93.294	-52.9031
3000.000000	93.317	-53.3768
3040.000000	93.315	-53.6940
3070.000000	93.309	-53.9185
3110.000000	93.298	-54.1489
3150.000000	93.265	-54.3891
3200.000000	93.234	-54.6400
3250.000000	93.178	-54.7746
3300.000000	93.117	-54.8381
3350.000000	93.051	-54.8742
3400.000000	92.981	-54.7664
3450.000000	92.906	-54.6392
3500.000000	92.830	-54.4360
3550.000000	92.757	-54.1702
3600.000000	92.676	-53.8600
3650.000000	92.606	-53.4585
3700.000000	92.531	-53.0217
3750.000000	92.457	-52.5803
3820.000000	92.364	-51.8673
3870.000000	92.303	-51.3268
3950.000000	92.205	-50.4039
4000.000000	92.136	-49.8577
4060.000000	92.081	-49.1831
4120.000000	92.027	-48.4334
4180.000000	91.966	-47.7532
4250.000000	91.905	-46.8836
4310.000000	91.861	-46.2111
4370.000000	91.815	-45.5674
4440.000000	91.758	-44.8554
4500.000000	91.704	-44.1704
4550.000000	91.676	-43.7100
4620.000000	91.624	-43.0027
4680.000000	91.581	-42.4440
4750.000000	91.506	-41.8501
4820.000000	91.442	-41.3519
4870.000000	91.391	-40.8993
4940.000000	91.305	-40.4214
5000.000000	91.225	-40.0124
5080.000000	91.105	-39.5095
5150.000000	90.977	-39.0470
5220.000000	90.835	-38.5271
5300.000000	90.651	-37.7613
5380.000000	90.445	-36.9238
5450.000000	90.248	-35.9861
5520.000000	90.004	-34.5990
5600.000000	89.922	-31.8125
5700.000000	89.905	-30.9770
5800.000000	89.677	-29.8552
5900.000000	89.459	-28.2232
6000.000000	89.259	-26.4124
6080.000000	89.096	-24.7368
6150.000000	88.961	-23.3126
6220.000000	88.851	-21.7623
6300.000000	88.725	-19.9408
6400.000000	88.572	-17.6151
6500.000000	88.458	-15.2461
6600.000000	88.363	-12.8306
6700.000000	88.292	-10.3835
6800.000000	88.253	-8.0010
6900.000000	88.228	-5.5328
7000.000000	88.247	-3.2264
7100.000000	88.280	-0.8501
7200.000000	88.373	1.3229
7300.000000	88.456	3.2427
7400.000000	88.566	5.0932
7500.000000	88.696	6.6536
7620.000000	88.887	8.4575
7750.000000	89.108	10.0402
7880.000000	89.399	11.2070
8000.000000	89.710	11.3889
8120.000000	89.989	11.0331
8250.000000	90.273	9.6225
8380.000000	90.447	7.2509
8500.000000	90.475	4.4934
8620.000000	90.340	1.2993
8750.000000	90.012	-1.9086
8850.000000	89.655	-4.0940
9000.000000	88.944	-6.4088
9120.000000	88.316	-7.3265
9250.000000	87.595	-7.4255
9380.000000	86.919	-6.6617
9500.000000	86.264	-5.4291
9620.000000	85.705	-3.5584
9750.000000	85.121	-1.2670
9880.000000	84.624	1.7688
10000.000000	84.212	4.7062
10150.000000	83.780	8.5337
10300.000000	83.388	12.6052
10440.000000	83.185	16.5576
10600.000000	82.982	20.8460
10750.000000	82.925	25.0015
10900.000000	82.954	29.0109
11060.000000	83.046	32.9444
11200.000000	83.256	36.2304
11380.000000	83.633	39.6367
11500.000000	83.978	41.2144
11720.000000	84.675	42.6866
11800.000000	84.946	42.7046
12060.000000	85.880	39.2323
12200.000000	86.265	35.2499
12410.000000	86.359	26.8710
12500.000000	86.189	22.8650
12650.000000	85.625	16.7723
12800.000000	84.717	11.9558
13150.000000	82.249	7.3604
13200.000000	81.875	7.5432
13400.000000	80.560	8.4990
13600.000000	79.361	11.1600
13800.000000	78.290	14.5971
14000.000000	77.409	18.7080
14300.000000	76.431	24.7583
14500.000000	75.871	29.3052
14750.000000	75.417	34.0124
15000.000000	75.119	38.3302
15250.000000	75.003	40.7045
15500.000000	74.919	41.6531
15750.000000	74.876	40.6040
16000.000000	74.598	38.7953
16250.000000	73.948	34.2122
16500.000000	72.858	30.6217
16750.000000	71.701	28.6425
17000.000000	70.376	28.3584
17250.000000	69.064	29.3655
17500.000000	67.837	32.8411
17750.000000	66.585	35.6361
18000.000000	65.766	36.6979
18250.000000	64.431	41.0287
18500.000000	63.602	42.8407
18750.000000	62.197	44.6009
19000.000000	61.134	48.2121
19250.000000	60.282	47.1229
19500.000000	57.841	45.1266
19750.000000	55.387	49.5798
