* Measurement data measured by REW V5.20.5
* Source: USB Sound Device        , MICROPHONE, R, volume: 0.777
* Format: 256k Log Swept Sine, 1 sweep at -6.0 dBFS with no timing reference
* Dated: 1 Jul, 2023 4:55:23 PM
* REW Settings:
*  C-weighting compensation: Off
*  Target level: 75.0 dB
* Note: 
* Measurement: DUNU ALPHA 3
* Smoothing: None
* Frequency Step: 1/48 octave
* Start Frequency: 20.000 Hz
*
* Freq(Hz)	SPL(dB)	Phase(degrees)
20.000000	78.117	-91.5128
20.299999	78.035	-91.7093
20.600000	77.957	-92.0823
20.900000	77.901	-92.6561
21.200001	77.877	-93.5066
21.400000	77.874	-94.2364
21.799999	77.885	-95.9366
22.000000	77.899	-96.7952
22.400000	77.962	-98.2587
22.700001	78.070	-99.0469
23.000000	78.253	-99.6685
23.299999	78.499	-100.3248
23.600000	78.776	-101.1106
24.000000	79.129	-102.3013
24.299999	79.349	-103.0873
24.700001	79.585	-103.6948
25.000000	79.742	-103.7491
25.400000	79.951	-103.4268
25.799999	80.161	-102.9463
26.200001	80.344	-102.4609
26.500000	80.453	-102.0641
26.900000	80.571	-101.4417
27.200001	80.653	-100.9494
27.600000	80.764	-100.4197
28.000000	80.863	-100.2125
28.500000	80.932	-100.4035
29.000000	80.931	-100.7668
29.500000	80.909	-101.0220
30.000000	80.932	-101.2147
30.400000	80.999	-101.5001
30.700001	81.072	-101.8556
31.100000	81.180	-102.4904
31.500000	81.288	-103.1778
32.000000	81.429	-103.8567
32.500000	81.611	-104.2559
33.000000	81.844	-104.6383
33.500000	82.080	-105.2432
34.000000	82.252	-105.8817
34.500000	82.362	-106.1044
35.000000	82.476	-105.8051
35.500000	82.640	-105.4222
36.000000	82.814	-105.3993
36.500000	82.936	-105.6784
37.000000	82.999	-105.9039
37.500000	83.049	-105.9369
38.200001	83.151	-106.0075
38.700001	83.230	-106.2561
39.500000	83.342	-106.7321
40.000000	83.426	-106.9833
40.599998	83.550	-107.3374
41.200001	83.679	-107.7813
41.799999	83.800	-108.1859
42.500000	83.947	-108.5151
43.099998	84.081	-108.7783
43.700001	84.206	-109.0449
44.400002	84.347	-109.2431
45.000000	84.487	-109.4523
45.500000	84.594	-109.8211
46.200001	84.680	-110.3254
46.799999	84.748	-110.2681
47.500000	84.948	-110.2023
48.200001	85.158	-111.2268
48.700001	85.189	-112.2081
49.400002	85.127	-112.4938
50.000000	85.195	-111.8491
50.799999	85.466	-111.9493
51.500000	85.591	-112.9728
52.200001	85.617	-113.3857
53.000000	85.739	-113.3812
53.799999	85.887	-113.8899
54.500000	85.977	-114.2402
55.200001	86.100	-114.4737
56.000000	86.240	-115.0237
57.000000	86.369	-115.5080
58.000000	86.526	-115.8654
59.000000	86.704	-116.2105
60.000000	86.897	-117.2278
60.799999	86.916	-118.0257
61.500000	86.952	-117.8926
62.200001	87.116	-117.9240
63.000000	87.271	-118.8805
64.000000	87.316	-119.5244
65.000000	87.481	-119.7516
66.000000	87.597	-120.5605
67.000000	87.706	-120.7325
68.000000	87.878	-121.5428
69.000000	87.907	-122.3290
70.000000	88.006	-122.3974
71.000000	88.141	-123.1323
72.000000	88.194	-123.6119
73.000000	88.328	-123.8967
74.000000	88.434	-124.7488
75.000000	88.483	-125.1069
76.199997	88.671	-125.6781
77.500000	88.763	-126.8511
78.800003	88.928	-127.4595
80.000000	89.036	-128.6797
81.199997	89.107	-129.1648
82.500000	89.236	-129.8281
83.800003	89.334	-130.4596
85.000000	89.427	-131.1747
86.199997	89.491	-131.8962
87.500000	89.578	-132.6239
88.500000	89.654	-133.2832
90.000000	89.744	-134.3425
91.199997	89.822	-134.9081
92.500000	89.932	-135.7767
93.800003	89.996	-136.5745
95.000000	90.063	-137.2192
96.199997	90.122	-137.9688
97.500000	90.156	-138.6094
98.800003	90.219	-139.4229
100.000000	90.234	-139.9308
101.500000	90.355	-140.9388
103.000000	90.392	-141.9627
104.400002	90.444	-142.8447
106.000000	90.518	-143.7354
107.500000	90.534	-144.5019
109.000000	90.616	-145.2190
110.599998	90.652	-146.2950
112.000000	90.676	-147.1704
113.800003	90.713	-148.2354
115.000000	90.717	-148.8582
117.199997	90.766	-149.9712
118.000000	90.770	-150.4598
120.599998	90.794	-151.7247
122.000000	90.807	-152.6428
124.099998	90.818	-153.7504
125.000000	90.811	-154.3114
126.500000	90.813	-154.9391
128.000000	90.801	-155.8792
131.500000	90.748	-157.3966
132.000000	90.746	-157.5981
134.000000	90.744	-158.4692
136.000000	90.685	-159.2217
138.000000	90.621	-160.1276
140.000000	90.657	-160.9911
143.000000	90.577	-162.2665
145.000000	90.492	-162.7839
147.500000	90.423	-163.5428
150.000000	90.303	-164.2874
152.500000	90.272	-164.8247
155.000000	90.253	-165.3083
157.500000	90.181	-165.8184
160.000000	90.242	-165.9494
162.500000	90.148	-166.5654
165.000000	90.083	-167.0499
167.500000	90.084	-167.7305
170.000000	89.996	-168.0366
172.500000	89.973	-168.8569
175.000000	89.816	-169.0892
177.500000	89.913	-170.0082
180.000000	89.885	-170.3163
182.500000	89.827	-170.7423
185.000000	89.772	-171.3074
187.500000	89.728	-171.6395
190.000000	89.674	-172.2983
192.500000	89.612	-172.4822
195.000000	89.546	-172.8799
197.500000	89.491	-173.0640
200.000000	89.477	-173.5715
203.000000	89.382	-174.0843
206.000000	89.318	-174.3330
209.000000	89.243	-174.8183
212.000000	89.191	-175.0248
214.000000	89.132	-175.3306
218.000000	88.985	-175.8143
220.000000	88.938	-175.9146
224.000000	88.911	-176.0341
227.000000	88.839	-176.7452
230.000000	88.820	-176.4259
233.000000	88.744	-176.3430
236.000000	88.488	-176.4438
240.000000	88.467	-175.8108
243.000000	88.522	-177.4923
247.000000	88.439	-176.9847
250.000000	88.330	-176.9664
254.000000	88.297	-177.3212
258.000000	88.186	-177.1395
262.000000	87.967	-177.3765
265.000000	88.063	-177.1862
269.000000	87.956	-178.0693
272.000000	87.902	-177.3762
276.000000	87.830	-177.4652
280.000000	87.725	-177.2390
285.000000	87.672	-177.4187
290.000000	87.579	-177.1194
295.000000	87.516	-177.1772
300.000000	87.446	-177.3311
304.000000	87.390	-176.8842
307.000000	87.377	-176.8838
311.000000	87.198	-176.8428
315.000000	87.197	-176.7620
320.000000	87.203	-176.4993
325.000000	87.065	-176.4923
330.000000	87.059	-175.6700
335.000000	86.884	-175.7900
340.000000	86.877	-175.7037
345.000000	86.814	-175.4568
350.000000	86.760	-175.1597
355.000000	86.685	-174.9737
360.000000	86.631	-174.7096
365.000000	86.596	-174.4414
370.000000	86.538	-174.1901
375.000000	86.482	-174.0891
382.000000	86.434	-173.5082
387.000000	86.369	-172.9707
395.000000	86.336	-172.7841
400.000000	86.248	-172.2312
406.000000	86.210	-172.1500
412.000000	86.162	-171.5811
418.000000	86.117	-171.4511
425.000000	86.109	-170.8897
431.000000	86.080	-170.6964
437.000000	85.963	-170.3470
444.000000	85.947	-170.0103
450.000000	85.957	-169.5439
455.000000	85.876	-169.4474
462.000000	85.841	-168.7928
468.000000	85.820	-168.7069
475.000000	85.779	-168.0657
482.000000	85.748	-167.8530
487.000000	85.700	-167.4424
494.000000	85.713	-167.3102
500.000000	85.661	-166.8399
508.000000	85.610	-166.3129
515.000000	85.597	-165.8811
522.000000	85.565	-165.7366
530.000000	85.540	-164.9833
538.000000	85.486	-164.5660
545.000000	85.466	-164.4421
552.000000	85.460	-163.8674
560.000000	85.403	-163.5410
570.000000	85.417	-162.8392
580.000000	85.393	-162.3984
590.000000	85.365	-161.8779
600.000000	85.320	-160.9811
608.000000	85.279	-160.7721
615.000000	85.273	-160.5332
622.000000	85.263	-160.1149
630.000000	85.247	-159.4916
640.000000	85.233	-159.1456
650.000000	85.232	-158.7656
660.000000	85.213	-158.0540
670.000000	85.209	-157.7113
680.000000	85.141	-156.9095
690.000000	85.154	-156.7244
700.000000	85.154	-156.1068
710.000000	85.105	-155.7535
720.000000	85.116	-155.1717
730.000000	85.090	-154.7486
740.000000	85.093	-154.1688
750.000000	85.119	-153.7381
762.000000	85.066	-153.0892
775.000000	85.036	-152.6859
788.000000	85.034	-151.9012
800.000000	85.045	-151.3775
812.000000	85.019	-151.0145
825.000000	85.021	-150.4396
838.000000	85.008	-149.6486
850.000000	85.003	-149.3107
862.000000	84.980	-148.4746
875.000000	84.970	-148.2081
885.000000	84.984	-147.7508
900.000000	84.969	-147.1906
912.000000	84.993	-146.5885
925.000000	84.953	-146.1365
938.000000	84.968	-145.3547
950.000000	84.968	-144.7422
962.000000	84.957	-144.1661
975.000000	84.963	-143.6751
988.000000	84.936	-143.0124
1000.000000	84.942	-142.6698
1015.000000	84.929	-141.7274
1030.000000	84.980	-140.8992
1044.000000	84.980	-140.3297
1060.000000	84.980	-139.6041
1075.000000	85.002	-138.9631
1090.000000	85.035	-138.0305
1106.000000	85.035	-137.4809
1120.000000	85.060	-136.8047
1138.000000	85.113	-136.1719
1150.000000	85.138	-135.4374
1172.000000	85.192	-134.5088
1180.000000	85.168	-134.1462
1206.000000	85.248	-133.1034
1220.000000	85.295	-132.4658
1241.000000	85.355	-131.9478
1250.000000	85.434	-131.5063
1265.000000	85.437	-130.8602
1280.000000	85.501	-130.5401
1315.000000	85.625	-129.2534
1320.000000	85.629	-129.2452
1340.000000	85.673	-128.5661
1360.000000	85.760	-127.9564
1380.000000	85.805	-127.4667
1400.000000	85.912	-127.1346
1430.000000	85.986	-126.2849
1450.000000	86.070	-125.5077
1475.000000	86.131	-125.3023
1500.000000	86.209	-124.9616
1525.000000	86.279	-124.4457
1550.000000	86.381	-124.2517
1575.000000	86.422	-123.9076
1600.000000	86.474	-123.4620
1625.000000	86.530	-123.3144
1650.000000	86.603	-122.9455
1675.000000	86.647	-122.5950
1700.000000	86.644	-122.4191
1725.000000	86.683	-121.9657
1750.000000	86.724	-121.9354
1775.000000	86.742	-121.3469
1800.000000	86.774	-121.0359
1825.000000	86.808	-120.5247
1850.000000	86.833	-120.2861
1875.000000	86.867	-120.0395
1900.000000	86.876	-119.3655
1925.000000	86.929	-119.1005
1950.000000	86.910	-118.5973
1975.000000	86.945	-117.8896
2000.000000	86.989	-117.3184
2030.000000	87.053	-117.1215
2060.000000	87.090	-116.4810
2090.000000	87.133	-116.2679
2120.000000	87.159	-115.3413
2140.000000	87.202	-115.0206
2180.000000	87.311	-113.9416
2200.000000	87.346	-113.7171
2240.000000	87.423	-112.5614
2270.000000	87.534	-111.9818
2300.000000	87.631	-111.3667
2330.000000	87.733	-110.7882
2360.000000	87.811	-110.1532
2400.000000	87.986	-109.2163
2430.000000	88.116	-108.6352
2470.000000	88.318	-108.1253
2500.000000	88.490	-107.6135
2540.000000	88.736	-107.2494
2580.000000	88.956	-107.1433
2620.000000	89.221	-107.2827
2650.000000	89.358	-107.8221
2690.000000	89.550	-107.9823
2720.000000	89.713	-108.4168
2760.000000	89.878	-108.8018
2800.000000	90.105	-109.6229
2850.000000	90.257	-110.8653
2900.000000	90.456	-111.8283
2950.000000	90.564	-113.0858
3000.000000	90.666	-114.7631
3040.000000	90.727	-115.2128
3070.000000	90.759	-115.9131
3110.000000	90.779	-116.6266
3150.000000	90.836	-117.5324
3200.000000	90.811	-118.4543
3250.000000	90.864	-119.1211
3300.000000	90.861	-119.9622
3350.000000	90.913	-120.6381
3400.000000	90.908	-121.3411
3450.000000	90.928	-122.1249
3500.000000	90.960	-122.7893
3550.000000	90.971	-123.5418
3600.000000	90.993	-124.3133
3650.000000	90.994	-124.8459
3700.000000	91.004	-125.6534
3750.000000	91.010	-126.3505
3820.000000	90.966	-127.3996
3870.000000	90.950	-127.7529
3950.000000	90.925	-128.3168
4000.000000	91.005	-129.0300
4060.000000	90.970	-129.4844
4120.000000	91.008	-129.7540
4180.000000	91.049	-130.2635
4250.000000	91.126	-130.6353
4310.000000	91.258	-131.1952
4370.000000	91.372	-131.6491
4440.000000	91.509	-132.8641
4500.000000	91.673	-133.6521
4550.000000	91.835	-134.7884
4620.000000	92.039	-136.7551
4680.000000	92.202	-138.6616
4750.000000	92.371	-141.1084
4820.000000	92.567	-144.1369
4870.000000	92.662	-146.7506
4940.000000	92.724	-150.8136
5000.000000	92.703	-154.6988
5080.000000	92.532	-159.6273
5150.000000	92.259	-164.1398
5220.000000	91.890	-168.2369
5300.000000	91.352	-172.8993
5380.000000	90.705	-176.5872
5450.000000	90.068	-179.3898
5520.000000	89.431	178.6774
5600.000000	88.661	176.7174
5700.000000	87.693	175.4266
5800.000000	86.776	174.8432
5900.000000	85.980	175.4208
6000.000000	85.159	176.0308
6080.000000	84.540	177.2453
6150.000000	84.014	177.9298
6220.000000	83.594	179.2475
6300.000000	83.042	-179.4381
6400.000000	82.373	-177.0958
6500.000000	81.899	-174.9542
6600.000000	81.277	-172.9832
6700.000000	80.894	-170.0688
6800.000000	80.498	-166.7656
6900.000000	80.072	-164.0772
7000.000000	79.657	-161.4694
7100.000000	79.451	-158.0968
7200.000000	79.217	-155.1589
7300.000000	79.075	-151.9264
7400.000000	78.816	-150.5718
7500.000000	78.753	-146.4176
7620.000000	78.624	-142.3283
7750.000000	78.621	-139.0997
7880.000000	78.366	-135.2991
8000.000000	78.485	-132.6044
8120.000000	78.483	-128.0583
8250.000000	78.743	-124.7717
8380.000000	79.043	-121.3756
8500.000000	79.220	-117.7922
8620.000000	79.543	-114.3441
8750.000000	79.997	-111.5978
8850.000000	80.322	-108.9310
9000.000000	81.164	-105.5446
9120.000000	81.708	-103.7651
9250.000000	82.448	-101.3150
9380.000000	83.455	-100.0674
9500.000000	84.495	-99.0362
9620.000000	85.712	-99.3979
9750.000000	87.174	-101.1412
9880.000000	88.886	-105.8735
10000.000000	90.490	-114.2444
10150.000000	91.941	-131.8736
10300.000000	91.744	-153.1661
10440.000000	90.199	-166.3677
10600.000000	88.483	-172.2601
10750.000000	87.525	-173.1538
10900.000000	87.114	-176.0882
11060.000000	86.525	-179.4293
11200.000000	85.885	176.8928
11380.000000	85.029	174.4091
11500.000000	84.586	174.4839
11720.000000	83.752	174.5332
11800.000000	83.568	174.8684
12060.000000	83.077	175.3102
12200.000000	82.919	175.9413
12410.000000	83.040	176.2306
12500.000000	83.044	176.1384
12650.000000	83.145	174.8303
12800.000000	83.316	172.9865
13150.000000	83.415	167.8823
13200.000000	83.426	166.3582
13400.000000	83.383	163.5483
13600.000000	83.171	159.2911
13800.000000	83.227	156.6561
14000.000000	83.384	150.6901
14300.000000	83.458	139.6189
14500.000000	82.989	129.8326
14750.000000	81.766	118.5723
15000.000000	79.937	111.9396
15250.000000	77.690	109.1158
15500.000000	75.963	113.2379
15750.000000	74.841	116.2523
16000.000000	73.712	122.4087
16250.000000	73.425	127.6692
16500.000000	73.353	130.4000
16750.000000	74.095	136.9658
17000.000000	74.652	140.1397
17250.000000	75.678	139.3729
17500.000000	76.730	137.1796
17750.000000	77.808	126.9414
18000.000000	78.364	113.8638
18250.000000	77.698	100.3222
18500.000000	76.165	89.2867
18750.000000	73.333	82.8401
19000.000000	71.518	86.8925
19250.000000	69.654	90.5443
19500.000000	68.975	101.0633
19750.000000	67.764	104.4216
