* Measurement data measured by REW V5.20.5
* Source: USB Sound Device        , MICROPHONE, R, volume: 0.514
* Format: 256k Log Swept Sine, 1 sweep at -6.0 dBFS with no timing reference
* Dated: 26 Jul, 2023 10:59:46 PM
* REW Settings:
*  C-weighting compensation: Off
*  Target level: 75.0 dB
* Note: 
* Measurement: DUNU FALCON PRO Jul 26
* Smoothing: None
* Frequency Step: 1/48 octave
* Start Frequency: 20.000 Hz
*
* Freq(Hz)	SPL(dB)	Phase(degrees)
20.000000	90.934	-137.8250
20.299999	90.987	-138.4262
20.600000	91.037	-139.0169
20.900000	91.085	-139.5972
21.200001	91.132	-140.1683
21.400000	91.162	-140.5452
21.799999	91.221	-141.2921
22.000000	91.249	-141.6626
22.400000	91.302	-142.3975
22.700001	91.340	-142.9423
23.000000	91.377	-143.4810
23.299999	91.412	-144.0141
23.600000	91.445	-144.5415
24.000000	91.487	-145.2349
24.299999	91.518	-145.7466
24.700001	91.558	-146.4183
25.000000	91.587	-146.9175
25.400000	91.624	-147.5830
25.799999	91.660	-148.2516
26.200001	91.690	-148.9155
26.500000	91.710	-149.4003
26.900000	91.734	-150.0179
27.200001	91.751	-150.4577
27.600000	91.774	-151.0207
28.000000	91.800	-151.5741
28.500000	91.832	-152.2734
29.000000	91.861	-152.9808
29.500000	91.884	-153.6780
30.000000	91.904	-154.3495
30.400000	91.919	-154.8688
30.700001	91.930	-155.2517
31.100000	91.945	-155.7598
31.500000	91.959	-156.2687
32.000000	91.974	-156.9054
32.500000	91.987	-157.5355
33.000000	91.997	-158.1519
33.500000	92.006	-158.7534
34.000000	92.013	-159.3410
34.500000	92.018	-159.9126
35.000000	92.024	-160.4658
35.500000	92.029	-161.0052
36.000000	92.035	-161.5408
36.500000	92.040	-162.0773
37.000000	92.042	-162.6090
37.500000	92.043	-163.1279
38.200001	92.042	-163.8317
38.700001	92.041	-164.3260
39.500000	92.036	-165.1074
40.000000	92.031	-165.5811
40.599998	92.025	-166.1285
41.200001	92.019	-166.6621
41.799999	92.015	-167.1965
42.500000	92.007	-167.8225
43.099998	91.998	-168.3455
43.700001	91.986	-168.8446
44.400002	91.973	-169.4019
45.000000	91.962	-169.8705
45.500000	91.952	-170.2565
46.200001	91.936	-170.7780
46.799999	91.924	-171.2083
47.500000	91.909	-171.7260
48.200001	91.888	-172.2561
48.700001	91.868	-172.6004
49.400002	91.845	-173.0208
50.000000	91.834	-173.3957
50.799999	91.815	-173.9653
51.500000	91.789	-174.4375
52.200001	91.766	-174.8709
53.000000	91.740	-175.3926
53.799999	91.708	-175.8771
54.500000	91.687	-176.2633
55.200001	91.667	-176.6985
56.000000	91.630	-177.1805
57.000000	91.592	-177.6356
58.000000	91.567	-178.1596
59.000000	91.529	-178.6880
60.000000	91.492	-179.1538
60.799999	91.464	-179.5358
61.500000	91.438	-179.8694
62.200001	91.409	179.7978
63.000000	91.374	179.4416
64.000000	91.333	179.0247
65.000000	91.293	178.5909
66.000000	91.251	178.1736
67.000000	91.207	177.7763
68.000000	91.166	177.4211
69.000000	91.129	177.0460
70.000000	91.086	176.6679
71.000000	91.042	176.3298
72.000000	91.000	175.9895
73.000000	90.955	175.6653
74.000000	90.912	175.3643
75.000000	90.870	175.0583
76.199997	90.818	174.7003
77.500000	90.762	174.3364
78.800003	90.708	173.9899
80.000000	90.654	173.6741
81.199997	90.606	173.4008
82.500000	90.549	173.0633
83.800003	90.494	172.7907
85.000000	90.441	172.5037
86.199997	90.387	172.2936
87.500000	90.338	172.0180
88.500000	90.292	171.8161
90.000000	90.229	171.5369
91.199997	90.176	171.3410
92.500000	90.126	171.1151
93.800003	90.065	170.9034
95.000000	90.017	170.7516
96.199997	89.967	170.5660
97.500000	89.914	170.4185
98.800003	89.862	170.2174
100.000000	89.812	170.0909
101.500000	89.753	169.8751
103.000000	89.692	169.7330
104.400002	89.633	169.5920
106.000000	89.573	169.4607
107.500000	89.514	169.3221
109.000000	89.451	169.2059
110.599998	89.392	169.0860
112.000000	89.334	168.9855
113.800003	89.265	168.8477
115.000000	89.219	168.7846
117.199997	89.136	168.6921
118.000000	89.108	168.6470
120.599998	89.012	168.5544
122.000000	88.959	168.5375
124.099998	88.885	168.4673
125.000000	88.851	168.4484
126.500000	88.797	168.4318
128.000000	88.746	168.3706
131.500000	88.624	168.3580
132.000000	88.606	168.3356
134.000000	88.533	168.3719
136.000000	88.468	168.3714
138.000000	88.396	168.3882
140.000000	88.333	168.4409
143.000000	88.236	168.4791
145.000000	88.169	168.5052
147.500000	88.085	168.5851
150.000000	88.012	168.6398
152.500000	87.936	168.7488
155.000000	87.865	168.8986
157.500000	87.787	169.0011
160.000000	87.719	169.0992
162.500000	87.646	169.2518
165.000000	87.574	169.3958
167.500000	87.503	169.5337
170.000000	87.430	169.7137
172.500000	87.367	169.8643
175.000000	87.298	170.0510
177.500000	87.235	170.2479
180.000000	87.174	170.4243
182.500000	87.110	170.5816
185.000000	87.048	170.7971
187.500000	86.984	170.9880
190.000000	86.923	171.2388
192.500000	86.868	171.4565
195.000000	86.807	171.6661
197.500000	86.751	171.8918
200.000000	86.695	172.1343
203.000000	86.628	172.4329
206.000000	86.565	172.7101
209.000000	86.498	173.0129
212.000000	86.438	173.2812
214.000000	86.398	173.5024
218.000000	86.315	173.8672
220.000000	86.287	174.1238
224.000000	86.205	174.5727
227.000000	86.152	174.8611
230.000000	86.100	175.1613
233.000000	86.039	175.5118
236.000000	85.984	175.8319
240.000000	85.919	176.2841
243.000000	85.869	176.6550
247.000000	85.801	177.0698
250.000000	85.757	177.3787
254.000000	85.692	177.8538
258.000000	85.631	178.3066
262.000000	85.581	178.8069
265.000000	85.536	179.1364
269.000000	85.481	179.5801
272.000000	85.442	179.9559
276.000000	85.389	-179.5641
280.000000	85.344	-179.1282
285.000000	85.276	-178.5210
290.000000	85.214	-178.0010
295.000000	85.158	-177.4269
300.000000	85.102	-176.8538
304.000000	85.057	-176.3907
307.000000	85.026	-176.1062
311.000000	84.983	-175.5998
315.000000	84.935	-175.1918
320.000000	84.884	-174.5674
325.000000	84.831	-174.0112
330.000000	84.787	-173.4130
335.000000	84.728	-172.8190
340.000000	84.675	-172.2700
345.000000	84.634	-171.6875
350.000000	84.587	-171.0685
355.000000	84.544	-170.4929
360.000000	84.494	-169.9097
365.000000	84.455	-169.3184
370.000000	84.411	-168.6886
375.000000	84.368	-168.1414
382.000000	84.315	-167.3194
387.000000	84.283	-166.6813
395.000000	84.225	-165.7998
400.000000	84.191	-165.1513
406.000000	84.148	-164.4831
412.000000	84.107	-163.7009
418.000000	84.068	-163.0084
425.000000	84.024	-162.2362
431.000000	84.001	-161.5270
437.000000	83.964	-160.7874
444.000000	83.924	-159.9446
450.000000	83.894	-159.2018
455.000000	83.870	-158.6553
462.000000	83.833	-157.8234
468.000000	83.812	-157.1534
475.000000	83.782	-156.3309
482.000000	83.745	-155.4819
487.000000	83.728	-154.9158
494.000000	83.700	-154.1125
500.000000	83.678	-153.3793
508.000000	83.649	-152.4265
515.000000	83.624	-151.6495
522.000000	83.601	-150.8455
530.000000	83.574	-149.9294
538.000000	83.563	-148.9865
545.000000	83.547	-148.1973
552.000000	83.536	-147.4208
560.000000	83.506	-146.4802
570.000000	83.482	-145.2960
580.000000	83.472	-144.1677
590.000000	83.447	-143.0429
600.000000	83.426	-141.8672
608.000000	83.421	-140.9677
615.000000	83.420	-140.1290
622.000000	83.405	-139.3358
630.000000	83.399	-138.4265
640.000000	83.399	-137.3397
650.000000	83.391	-136.1809
660.000000	83.393	-135.0135
670.000000	83.384	-133.8809
680.000000	83.396	-132.8280
690.000000	83.396	-131.6753
700.000000	83.403	-130.4423
710.000000	83.409	-129.3389
720.000000	83.417	-128.1488
730.000000	83.434	-127.1261
740.000000	83.450	-125.9112
750.000000	83.465	-124.8503
762.000000	83.496	-123.4913
775.000000	83.517	-122.0273
788.000000	83.561	-120.5080
800.000000	83.596	-119.1734
812.000000	83.649	-117.9020
825.000000	83.695	-116.5283
838.000000	83.742	-115.0562
850.000000	83.796	-113.7670
862.000000	83.860	-112.5154
875.000000	83.929	-111.1200
885.000000	83.992	-110.0545
900.000000	84.077	-108.5099
912.000000	84.155	-107.3265
925.000000	84.243	-106.0857
938.000000	84.343	-104.8607
950.000000	84.418	-103.7113
962.000000	84.503	-102.6335
975.000000	84.615	-101.4785
988.000000	84.711	-100.3614
1000.000000	84.819	-99.5140
1015.000000	84.928	-98.1902
1030.000000	85.050	-97.0309
1044.000000	85.173	-96.0310
1060.000000	85.303	-94.9079
1075.000000	85.431	-93.9632
1090.000000	85.548	-92.9540
1106.000000	85.676	-91.9441
1120.000000	85.794	-91.1758
1138.000000	85.933	-90.1265
1150.000000	86.035	-89.5451
1172.000000	86.199	-88.4041
1180.000000	86.262	-87.9754
1206.000000	86.453	-86.7669
1220.000000	86.557	-86.1754
1241.000000	86.703	-85.3436
1250.000000	86.764	-85.0309
1265.000000	86.863	-84.4368
1280.000000	86.949	-84.0360
1315.000000	87.100	-83.0114
1320.000000	87.109	-82.7854
1340.000000	87.157	-81.9703
1360.000000	87.229	-80.9310
1380.000000	87.314	-79.9213
1400.000000	87.413	-78.8871
1430.000000	87.568	-77.4316
1450.000000	87.663	-76.5189
1475.000000	87.808	-75.4085
1500.000000	87.931	-74.3644
1525.000000	88.063	-73.2329
1550.000000	88.193	-72.2118
1575.000000	88.324	-71.2018
1600.000000	88.456	-70.1958
1625.000000	88.582	-69.1917
1650.000000	88.715	-68.2570
1675.000000	88.851	-67.2947
1700.000000	88.984	-66.3668
1725.000000	89.118	-65.4672
1750.000000	89.256	-64.5976
1775.000000	89.387	-63.7025
1800.000000	89.526	-62.8758
1825.000000	89.661	-62.1121
1850.000000	89.803	-61.3170
1875.000000	89.946	-60.5532
1900.000000	90.079	-59.8251
1925.000000	90.226	-59.1475
1950.000000	90.361	-58.5639
1975.000000	90.503	-57.8581
2000.000000	90.655	-57.3545
2030.000000	90.826	-56.6558
2060.000000	90.994	-56.0589
2090.000000	91.165	-55.4743
2120.000000	91.334	-55.0003
2140.000000	91.449	-54.6984
2180.000000	91.672	-54.1601
2200.000000	91.785	-53.9423
2240.000000	92.006	-53.5400
2270.000000	92.164	-53.2992
2300.000000	92.326	-53.1557
2330.000000	92.478	-53.0527
2360.000000	92.625	-53.0116
2400.000000	92.818	-53.0392
2430.000000	92.957	-53.0936
2470.000000	93.128	-53.2773
2500.000000	93.247	-53.4993
2540.000000	93.399	-53.8507
2580.000000	93.524	-54.2560
2620.000000	93.643	-54.7421
2650.000000	93.721	-55.1378
2690.000000	93.807	-55.6973
2720.000000	93.857	-56.1980
2760.000000	93.919	-56.7925
2800.000000	93.959	-57.3953
2850.000000	93.986	-58.1788
2900.000000	93.988	-58.9199
2950.000000	93.958	-59.6072
3000.000000	93.907	-60.2415
3040.000000	93.865	-60.6869
3070.000000	93.823	-60.9981
3110.000000	93.756	-61.3261
3150.000000	93.676	-61.5629
3200.000000	93.576	-61.7904
3250.000000	93.471	-61.9410
3300.000000	93.346	-61.9822
3350.000000	93.229	-61.8985
3400.000000	93.107	-61.7282
3450.000000	92.993	-61.4501
3500.000000	92.866	-61.1177
3550.000000	92.747	-60.6805
3600.000000	92.631	-60.2464
3650.000000	92.519	-59.6733
3700.000000	92.414	-59.0815
3750.000000	92.304	-58.4194
3820.000000	92.175	-57.4306
3870.000000	92.089	-56.7551
3950.000000	91.951	-55.4836
4000.000000	91.885	-54.7392
4060.000000	91.801	-53.7636
4120.000000	91.723	-52.8422
4180.000000	91.654	-51.8756
4250.000000	91.577	-50.7742
4310.000000	91.517	-49.8609
4370.000000	91.464	-49.0184
4440.000000	91.405	-47.9801
4500.000000	91.356	-47.1190
4550.000000	91.316	-46.4440
4620.000000	91.269	-45.4323
4680.000000	91.212	-44.7668
4750.000000	91.160	-43.8821
4820.000000	91.104	-43.1208
4870.000000	91.055	-42.5401
4940.000000	90.993	-41.7654
5000.000000	90.919	-41.1523
5080.000000	90.826	-40.3972
5150.000000	90.726	-39.6216
5220.000000	90.623	-38.8900
5300.000000	90.493	-38.0931
5380.000000	90.345	-37.1877
5450.000000	90.201	-36.3317
5520.000000	90.036	-35.1746
5600.000000	89.941	-33.5337
5700.000000	89.794	-32.6338
5800.000000	89.578	-31.0865
5900.000000	89.362	-29.4314
6000.000000	89.170	-27.5500
6080.000000	89.027	-25.8924
6150.000000	88.892	-24.5196
6220.000000	88.792	-22.9308
6300.000000	88.676	-21.0957
6400.000000	88.555	-18.9325
6500.000000	88.453	-16.6652
6600.000000	88.399	-14.5204
6700.000000	88.349	-12.6210
6800.000000	88.290	-10.9649
6900.000000	88.191	-9.3341
7000.000000	88.037	-7.5809
7100.000000	87.851	-5.3997
7200.000000	87.720	-2.4880
7300.000000	87.680	0.6563
7400.000000	87.711	3.7032
7500.000000	87.836	6.6340
7620.000000	88.057	9.7833
7750.000000	88.400	12.6994
7880.000000	88.785	14.8700
8000.000000	89.198	16.2184
8120.000000	89.684	16.3993
8250.000000	90.198	15.5754
8380.000000	90.638	13.3782
8500.000000	90.944	10.1749
8620.000000	91.062	5.9330
8750.000000	90.944	0.9656
8850.000000	90.650	-2.7900
9000.000000	89.964	-7.5549
9120.000000	89.265	-10.1529
9250.000000	88.421	-11.6223
9380.000000	87.568	-11.8277
9500.000000	86.793	-11.2798
9620.000000	86.080	-10.0122
9750.000000	85.338	-7.9211
9880.000000	84.697	-5.4163
10000.000000	84.164	-2.7125
10150.000000	83.542	0.9434
10300.000000	83.038	4.8158
10440.000000	82.647	8.5766
10600.000000	82.228	13.0965
10750.000000	81.993	17.0884
10900.000000	81.783	21.5359
11060.000000	81.659	25.5600
11200.000000	81.601	29.3521
11380.000000	81.654	34.0015
11500.000000	81.752	36.8934
11720.000000	82.018	41.1492
11800.000000	82.163	42.3728
12060.000000	82.743	45.2718
12200.000000	83.131	45.5353
12410.000000	83.641	44.4318
12500.000000	83.850	43.1015
12650.000000	84.025	39.8079
12800.000000	84.039	35.5087
13150.000000	83.050	25.3960
13200.000000	82.785	24.3967
13400.000000	81.652	21.2152
13600.000000	80.442	20.3144
13800.000000	79.240	21.4958
14000.000000	78.199	23.6455
14300.000000	76.744	28.4877
14500.000000	75.946	32.8615
14750.000000	75.239	38.2477
15000.000000	74.656	43.4656
15250.000000	74.482	47.8931
15500.000000	74.468	51.8297
15750.000000	74.592	53.4130
16000.000000	74.780	52.7744
16250.000000	74.731	47.8422
16500.000000	74.448	41.4368
16750.000000	73.399	34.3986
17000.000000	71.819	29.9094
17250.000000	69.963	28.9627
17500.000000	67.939	29.2046
17750.000000	66.236	33.3661
18000.000000	64.764	38.5252
18250.000000	63.273	41.8877
18500.000000	62.122	51.5847
18750.000000	61.368	56.4551
19000.000000	59.708	61.4958
19250.000000	58.241	66.9106
19500.000000	57.650	75.4552
19750.000000	56.816	78.7828
