* Measurement data measured by REW V5.20.5
* Source: USB Sound Device        , MICROPHONE, R, volume: 0.514
* Format: 256k Log Swept Sine, 1 sweep at -6.0 dBFS with no timing reference
* Dated: 2 Aug, 2023 10:00:26 PM
* REW Settings:
*  C-weighting compensation: Off
*  Target level: 75.0 dB
* Note: 
* Measurement: EPZ Q5 Aug 2
* Smoothing: None
* Frequency Step: 1/48 octave
* Start Frequency: 20.000 Hz
*
* Freq(Hz)	SPL(dB)	Phase(degrees)
20.000000	93.829	-178.4281
20.299999	93.809	-178.8639
20.600000	93.787	-179.2908
20.900000	93.765	-179.7042
21.200001	93.743	179.8983
21.400000	93.729	179.6391
21.799999	93.700	179.1263
22.000000	93.686	178.8701
22.400000	93.655	178.3602
22.700001	93.629	177.9899
23.000000	93.603	177.6388
23.299999	93.577	177.3050
23.600000	93.553	176.9789
24.000000	93.523	176.5393
24.299999	93.501	176.1999
24.700001	93.467	175.7440
25.000000	93.441	175.4124
25.400000	93.405	174.9937
25.799999	93.371	174.5934
26.200001	93.339	174.1939
26.500000	93.316	173.8907
26.900000	93.284	173.4881
27.200001	93.259	173.1947
27.600000	93.225	172.8189
28.000000	93.193	172.4556
28.500000	93.154	172.0107
29.000000	93.114	171.5804
29.500000	93.074	171.1709
30.000000	93.035	170.7728
30.400000	93.004	170.4564
30.700001	92.980	170.2224
31.100000	92.947	169.9203
31.500000	92.913	169.6303
32.000000	92.872	169.2749
32.500000	92.831	168.9196
33.000000	92.788	168.5733
33.500000	92.745	168.2437
34.000000	92.703	167.9192
34.500000	92.663	167.5862
35.000000	92.620	167.2532
35.500000	92.576	166.9395
36.000000	92.534	166.6471
36.500000	92.494	166.3602
37.000000	92.456	166.0681
37.500000	92.416	165.7766
38.200001	92.359	165.3907
38.700001	92.319	165.1348
39.500000	92.258	164.7344
40.000000	92.220	164.4781
40.599998	92.170	164.1780
41.200001	92.120	163.9056
41.799999	92.073	163.6460
42.500000	92.018	163.3300
43.099998	91.969	163.0640
43.700001	91.919	162.8217
44.400002	91.865	162.5521
45.000000	91.820	162.3166
45.500000	91.783	162.1178
46.200001	91.730	161.8409
46.799999	91.683	161.6161
47.500000	91.629	161.3771
48.200001	91.576	161.1451
48.700001	91.537	160.9839
49.400002	91.483	160.7827
50.000000	91.440	160.6186
50.799999	91.383	160.3746
51.500000	91.329	160.1605
52.200001	91.275	159.9715
53.000000	91.215	159.7783
53.799999	91.160	159.5818
54.500000	91.111	159.3809
55.200001	91.055	159.1948
56.000000	90.995	159.0446
57.000000	90.929	158.8205
58.000000	90.852	158.5997
59.000000	90.784	158.4478
60.000000	90.717	158.2157
60.799999	90.653	158.0850
61.500000	90.606	158.0214
62.200001	90.566	157.9146
63.000000	90.514	157.7486
64.000000	90.441	157.6006
65.000000	90.374	157.4806
66.000000	90.306	157.3539
67.000000	90.238	157.2546
68.000000	90.176	157.1666
69.000000	90.114	157.0559
70.000000	90.050	156.9475
71.000000	89.984	156.8508
72.000000	89.918	156.7933
73.000000	89.857	156.7354
74.000000	89.794	156.6633
75.000000	89.732	156.6141
76.199997	89.659	156.5526
77.500000	89.581	156.4858
78.800003	89.503	156.4273
80.000000	89.433	156.3995
81.199997	89.367	156.3639
82.500000	89.292	156.3358
83.800003	89.222	156.3169
85.000000	89.149	156.3062
86.199997	89.085	156.3519
87.500000	89.015	156.3445
88.500000	88.960	156.3769
90.000000	88.882	156.3788
91.199997	88.816	156.3983
92.500000	88.746	156.4333
93.800003	88.681	156.4891
95.000000	88.622	156.5190
96.199997	88.562	156.5751
97.500000	88.500	156.6312
98.800003	88.436	156.7271
100.000000	88.385	156.7825
101.500000	88.305	156.8287
103.000000	88.234	156.9378
104.400002	88.164	157.0172
106.000000	88.094	157.1275
107.500000	88.023	157.2589
109.000000	87.961	157.3670
110.599998	87.889	157.5038
112.000000	87.827	157.6096
113.800003	87.746	157.7670
115.000000	87.700	157.8708
117.199997	87.610	158.0548
118.000000	87.578	158.1268
120.599998	87.479	158.3816
122.000000	87.417	158.5390
124.099998	87.334	158.7538
125.000000	87.300	158.8600
126.500000	87.244	159.0016
128.000000	87.191	159.1605
131.500000	87.068	159.5675
132.000000	87.050	159.6231
134.000000	86.979	159.8742
136.000000	86.909	160.0812
138.000000	86.840	160.3300
140.000000	86.772	160.5836
143.000000	86.680	160.9153
145.000000	86.611	161.1672
147.500000	86.535	161.5502
150.000000	86.452	161.8837
152.500000	86.380	162.1779
155.000000	86.311	162.5054
157.500000	86.243	162.8750
160.000000	86.173	163.2045
162.500000	86.101	163.5328
165.000000	86.032	163.8809
167.500000	85.971	164.2443
170.000000	85.904	164.5912
172.500000	85.848	164.9550
175.000000	85.780	165.3489
177.500000	85.719	165.6992
180.000000	85.662	166.0744
182.500000	85.607	166.4400
185.000000	85.549	166.7909
187.500000	85.494	167.1511
190.000000	85.444	167.5175
192.500000	85.388	167.8627
195.000000	85.342	168.2163
197.500000	85.293	168.6014
200.000000	85.246	169.0126
203.000000	85.179	169.4444
206.000000	85.127	169.8857
209.000000	85.076	170.3443
212.000000	85.021	170.7875
214.000000	84.983	171.0777
218.000000	84.915	171.6737
220.000000	84.885	171.9779
224.000000	84.823	172.5863
227.000000	84.770	172.9959
230.000000	84.727	173.4669
233.000000	84.683	173.9261
236.000000	84.636	174.3475
240.000000	84.580	174.9548
243.000000	84.539	175.4185
247.000000	84.490	175.9898
250.000000	84.441	176.4690
254.000000	84.395	177.0343
258.000000	84.349	177.6489
262.000000	84.292	178.1755
265.000000	84.267	178.6494
269.000000	84.214	179.2556
272.000000	84.185	179.6937
276.000000	84.146	-179.6980
280.000000	84.107	-179.1739
285.000000	84.057	-178.4748
290.000000	84.004	-177.7485
295.000000	83.967	-177.0164
300.000000	83.926	-176.2046
304.000000	83.900	-175.7117
307.000000	83.869	-175.2815
311.000000	83.835	-174.7133
315.000000	83.804	-174.2196
320.000000	83.772	-173.5146
325.000000	83.726	-172.7862
330.000000	83.699	-172.1474
335.000000	83.669	-171.4932
340.000000	83.642	-170.7901
345.000000	83.609	-170.1331
350.000000	83.593	-169.4904
355.000000	83.558	-168.8366
360.000000	83.535	-168.1676
365.000000	83.503	-167.5685
370.000000	83.478	-166.9047
375.000000	83.456	-166.2769
382.000000	83.426	-165.3515
387.000000	83.394	-164.7579
395.000000	83.367	-163.7866
400.000000	83.346	-163.2122
406.000000	83.320	-162.4014
412.000000	83.296	-161.6978
418.000000	83.269	-160.9441
425.000000	83.253	-160.0690
431.000000	83.229	-159.3936
437.000000	83.205	-158.6380
444.000000	83.183	-157.7786
450.000000	83.164	-157.1419
455.000000	83.146	-156.5108
462.000000	83.132	-155.5996
468.000000	83.120	-154.9274
475.000000	83.108	-154.0875
482.000000	83.086	-153.2448
487.000000	83.068	-152.6502
494.000000	83.062	-151.8241
500.000000	83.047	-151.0896
508.000000	83.030	-150.1393
515.000000	83.031	-149.3372
522.000000	83.006	-148.6200
530.000000	83.011	-147.5700
538.000000	82.997	-146.6737
545.000000	82.983	-145.8534
552.000000	82.978	-145.0967
560.000000	82.984	-144.1624
570.000000	82.970	-142.9712
580.000000	82.975	-141.9031
590.000000	82.977	-140.7806
600.000000	82.979	-139.6681
608.000000	82.983	-138.7693
615.000000	82.979	-138.0785
622.000000	82.992	-137.2893
630.000000	82.994	-136.5253
640.000000	82.995	-135.3572
650.000000	83.023	-134.3529
660.000000	83.044	-133.5986
670.000000	82.966	-133.0338
680.000000	82.836	-131.4341
690.000000	82.868	-129.7101
700.000000	82.926	-128.3147
710.000000	82.957	-127.1014
720.000000	82.998	-125.9406
730.000000	83.031	-124.7560
740.000000	83.070	-123.6647
750.000000	83.089	-122.6124
762.000000	83.149	-121.2722
775.000000	83.194	-119.8751
788.000000	83.241	-118.4588
800.000000	83.306	-117.1607
812.000000	83.350	-115.9512
825.000000	83.427	-114.4949
838.000000	83.499	-113.1382
850.000000	83.548	-111.8980
862.000000	83.612	-110.6839
875.000000	83.703	-109.4112
885.000000	83.770	-108.3688
900.000000	83.862	-106.9582
912.000000	83.956	-105.7664
925.000000	84.043	-104.5415
938.000000	84.139	-103.3452
950.000000	84.236	-102.4050
962.000000	84.331	-101.3127
975.000000	84.434	-100.1622
988.000000	84.541	-99.1737
1000.000000	84.630	-98.3468
1015.000000	84.769	-97.0879
1030.000000	84.897	-96.0007
1044.000000	85.010	-95.0274
1060.000000	85.146	-93.9505
1075.000000	85.271	-93.0079
1090.000000	85.401	-92.1180
1106.000000	85.533	-91.1652
1120.000000	85.637	-90.3722
1138.000000	85.780	-89.4412
1150.000000	85.873	-88.7837
1172.000000	86.030	-87.7117
1180.000000	86.092	-87.3737
1206.000000	86.287	-86.1516
1220.000000	86.378	-85.4718
1241.000000	86.513	-84.5649
1250.000000	86.572	-84.1769
1265.000000	86.671	-83.5217
1280.000000	86.758	-82.8874
1315.000000	86.982	-81.4275
1320.000000	87.008	-81.2502
1340.000000	87.125	-80.4007
1360.000000	87.236	-79.5649
1380.000000	87.346	-78.7596
1400.000000	87.459	-77.9653
1430.000000	87.626	-76.8109
1450.000000	87.733	-76.0232
1475.000000	87.867	-75.0527
1500.000000	88.005	-74.0502
1525.000000	88.141	-73.1918
1550.000000	88.276	-72.2652
1575.000000	88.410	-71.3454
1600.000000	88.548	-70.4716
1625.000000	88.688	-69.5743
1650.000000	88.820	-68.7313
1675.000000	88.960	-67.9230
1700.000000	89.105	-67.1088
1725.000000	89.247	-66.3957
1750.000000	89.386	-65.5360
1775.000000	89.531	-64.8792
1800.000000	89.672	-64.2037
1825.000000	89.818	-63.5002
1850.000000	89.957	-62.8778
1875.000000	90.099	-62.2793
1900.000000	90.243	-61.7355
1925.000000	90.391	-61.1732
1950.000000	90.536	-60.6876
1975.000000	90.678	-60.2374
2000.000000	90.808	-59.8374
2030.000000	90.991	-59.3544
2060.000000	91.150	-58.9789
2090.000000	91.309	-58.6230
2120.000000	91.479	-58.3127
2140.000000	91.581	-58.1792
2180.000000	91.786	-57.9461
2200.000000	91.879	-57.8862
2240.000000	92.072	-57.7573
2270.000000	92.219	-57.7385
2300.000000	92.346	-57.7583
2330.000000	92.467	-57.8457
2360.000000	92.582	-57.9524
2400.000000	92.724	-58.2004
2430.000000	92.823	-58.4103
2470.000000	92.937	-58.7228
2500.000000	93.018	-59.0180
2540.000000	93.101	-59.3839
2580.000000	93.170	-59.8129
2620.000000	93.229	-60.2333
2650.000000	93.257	-60.5692
2690.000000	93.286	-60.9633
2720.000000	93.298	-61.2259
2760.000000	93.302	-61.6013
2800.000000	93.288	-61.9388
2850.000000	93.254	-62.2753
2900.000000	93.204	-62.4859
2950.000000	93.146	-62.6457
3000.000000	93.084	-62.6980
3040.000000	93.015	-62.6327
3070.000000	92.966	-62.5633
3110.000000	92.894	-62.4070
3150.000000	92.830	-62.1675
3200.000000	92.743	-61.8503
3250.000000	92.652	-61.3543
3300.000000	92.563	-60.8363
3350.000000	92.480	-60.2050
3400.000000	92.404	-59.5147
3450.000000	92.329	-58.7462
3500.000000	92.263	-57.8811
3550.000000	92.200	-57.0367
3600.000000	92.147	-56.1240
3650.000000	92.102	-55.2073
3700.000000	92.062	-54.2396
3750.000000	92.033	-53.2872
3820.000000	91.994	-51.8780
3870.000000	91.968	-50.8766
3950.000000	91.938	-49.1826
4000.000000	91.918	-48.0410
4060.000000	91.914	-46.4143
4120.000000	91.962	-44.7275
4180.000000	92.061	-43.1491
4250.000000	92.219	-41.5960
4310.000000	92.362	-40.6316
4370.000000	92.500	-39.8278
4440.000000	92.658	-39.0609
4500.000000	92.789	-38.5448
4550.000000	92.904	-38.2300
4620.000000	93.056	-37.9381
4680.000000	93.185	-37.8689
4750.000000	93.335	-38.0270
4820.000000	93.464	-38.2789
4870.000000	93.550	-38.6943
4940.000000	93.641	-39.3691
5000.000000	93.699	-40.1734
5080.000000	93.736	-41.3372
5150.000000	93.710	-42.5385
5220.000000	93.657	-43.7422
5300.000000	93.527	-45.1600
5380.000000	93.329	-46.5072
5450.000000	93.106	-47.5620
5520.000000	92.835	-48.4065
5600.000000	92.455	-48.9788
5700.000000	91.862	-48.7227
5800.000000	91.346	-45.4552
5900.000000	91.481	-43.4561
6000.000000	91.269	-44.5870
6080.000000	90.929	-44.6138
6150.000000	90.617	-44.0042
6220.000000	90.322	-43.0766
6300.000000	89.997	-41.7124
6400.000000	89.643	-39.7573
6500.000000	89.309	-37.5748
6600.000000	89.012	-35.3913
6700.000000	88.736	-32.9765
6800.000000	88.488	-30.4896
6900.000000	88.236	-27.8392
7000.000000	88.023	-25.0398
7100.000000	87.850	-21.8862
7200.000000	87.748	-18.4837
7300.000000	87.708	-15.1426
7400.000000	87.739	-12.0572
7500.000000	87.813	-9.0824
7620.000000	87.992	-5.7358
7750.000000	88.272	-2.7850
7880.000000	88.626	-0.3045
8000.000000	88.994	1.2952
8120.000000	89.426	1.8889
8250.000000	89.886	1.4547
8380.000000	90.299	-0.3060
8500.000000	90.563	-3.1638
8620.000000	90.669	-7.0261
8750.000000	90.525	-11.6633
8850.000000	90.218	-15.0573
9000.000000	89.490	-19.2863
9120.000000	88.767	-21.5211
9250.000000	87.900	-22.5731
9380.000000	87.007	-22.2693
9500.000000	86.221	-21.1438
9620.000000	85.481	-19.0685
9750.000000	84.743	-16.4130
9880.000000	84.054	-13.1949
10000.000000	83.530	-9.7669
10150.000000	82.891	-5.0951
10300.000000	82.380	0.1538
10440.000000	82.017	4.9706
10600.000000	81.678	10.8175
10750.000000	81.426	16.4105
10900.000000	81.332	22.1134
11060.000000	81.304	28.2083
11200.000000	81.357	33.5010
11380.000000	81.553	40.4429
11500.000000	81.788	44.8730
11720.000000	82.359	52.7472
11800.000000	82.665	55.8260
12060.000000	83.970	64.2632
12200.000000	84.902	68.0788
12410.000000	86.724	72.2163
12500.000000	87.697	72.9226
12650.000000	89.631	71.6003
12800.000000	91.930	64.7608
13150.000000	93.824	10.0292
13200.000000	93.057	2.6449
13400.000000	89.482	-12.7042
13600.000000	86.422	-15.2775
13800.000000	84.023	-12.4606
14000.000000	82.143	-8.2472
14300.000000	80.027	0.2209
14500.000000	78.988	6.5851
14750.000000	77.874	14.1388
15000.000000	77.298	22.1374
15250.000000	76.846	29.4526
15500.000000	76.749	36.0336
15750.000000	76.777	41.2901
16000.000000	77.245	44.3572
16250.000000	77.506	46.4219
16500.000000	77.736	44.4821
16750.000000	77.691	41.1888
17000.000000	77.117	37.8032
17250.000000	76.117	36.5962
17500.000000	75.165	38.2801
17750.000000	74.578	41.9696
18000.000000	74.137	44.0377
18250.000000	73.709	44.1214
18500.000000	73.080	45.0797
18750.000000	72.210	45.4263
19000.000000	71.421	45.9314
19250.000000	70.288	45.7801
19500.000000	68.966	46.9136
19750.000000	67.600	51.3925
