* Measurement data measured by REW V5.20.5
* Source: USB Sound Device        , MICROPHONE, R, volume: 0.752
* Format: 256k Log Swept Sine, 1 sweep at -6.0 dBFS with no timing reference
* Dated: 1 Jul, 2023 4:24:51 PM
* REW Settings:
*  C-weighting compensation: Off
*  Target level: 75.0 dB
* Note: 
* Measurement: FIIO FH11
* Smoothing: None
* Frequency Step: 1/48 octave
* Start Frequency: 20.000 Hz
*
* Freq(Hz)	SPL(dB)	Phase(degrees)
20.000000	94.746	-159.7267
20.299999	94.754	-160.2554
20.600000	94.764	-160.7858
20.900000	94.776	-161.3087
21.200001	94.790	-161.8174
21.400000	94.800	-162.1482
21.799999	94.824	-162.7905
22.000000	94.836	-163.1006
22.400000	94.860	-163.6910
22.700001	94.878	-164.0985
23.000000	94.895	-164.4715
23.299999	94.914	-164.8170
23.600000	94.933	-165.1461
24.000000	94.957	-165.5741
24.299999	94.972	-165.8893
24.700001	94.985	-166.2918
25.000000	94.991	-166.5730
25.400000	94.997	-166.9231
25.799999	95.001	-167.2658
26.200001	95.003	-167.6236
26.500000	95.003	-167.9051
26.900000	94.998	-168.2902
27.200001	94.992	-168.5793
27.600000	94.984	-168.9618
28.000000	94.977	-169.3451
28.500000	94.971	-169.8331
29.000000	94.970	-170.3335
29.500000	94.972	-170.8492
30.000000	94.976	-171.3795
30.400000	94.978	-171.8001
30.700001	94.977	-172.1014
31.100000	94.977	-172.4726
31.500000	94.977	-172.8093
32.000000	94.980	-173.1960
32.500000	94.984	-173.5603
33.000000	94.988	-173.9098
33.500000	94.991	-174.2565
34.000000	94.990	-174.6127
34.500000	94.983	-174.9645
35.000000	94.971	-175.2838
35.500000	94.963	-175.5748
36.000000	94.959	-175.8867
36.500000	94.956	-176.2551
37.000000	94.946	-176.6535
37.500000	94.930	-177.0242
38.200001	94.910	-177.4640
38.700001	94.905	-177.7662
39.500000	94.900	-178.3004
40.000000	94.893	-178.6394
40.599998	94.881	-179.0090
41.200001	94.871	-179.3392
41.799999	94.865	-179.6676
42.500000	94.856	179.9249
43.099998	94.842	179.5806
43.700001	94.828	179.2613
44.400002	94.813	178.8969
45.000000	94.800	178.5757
45.500000	94.787	178.3187
46.200001	94.770	177.9999
46.799999	94.762	177.7396
47.500000	94.755	177.3890
48.200001	94.739	177.0099
48.700001	94.723	176.7709
49.400002	94.703	176.4849
50.000000	94.691	176.2228
50.799999	94.669	175.8248
51.500000	94.644	175.4958
52.200001	94.622	175.1955
53.000000	94.601	174.8480
53.799999	94.583	174.4709
54.500000	94.563	174.1216
55.200001	94.537	173.8190
56.000000	94.515	173.5458
57.000000	94.496	173.1434
58.000000	94.460	172.7446
59.000000	94.430	172.4514
60.000000	94.411	172.0795
60.799999	94.387	171.7511
61.500000	94.365	171.4834
62.200001	94.344	171.2267
63.000000	94.322	170.9376
64.000000	94.291	170.5644
65.000000	94.252	170.2618
66.000000	94.227	170.0284
67.000000	94.206	169.6802
68.000000	94.168	169.2973
69.000000	94.121	168.9675
70.000000	94.080	168.7428
71.000000	94.061	168.4583
72.000000	94.025	168.0587
73.000000	93.980	167.8172
74.000000	93.958	167.6078
75.000000	93.930	167.2682
76.199997	93.877	166.9774
77.500000	93.845	166.6917
78.800003	93.786	166.2944
80.000000	93.748	166.1403
81.199997	93.721	165.7625
82.500000	93.668	165.4221
83.800003	93.625	165.1345
85.000000	93.588	164.8498
86.199997	93.544	164.5697
87.500000	93.501	164.3071
88.500000	93.463	164.0890
90.000000	93.412	163.8176
91.199997	93.370	163.5543
92.500000	93.321	163.3106
93.800003	93.281	163.0623
95.000000	93.235	162.8118
96.199997	93.191	162.6288
97.500000	93.147	162.4186
98.800003	93.097	162.1662
100.000000	93.050	162.0541
101.500000	93.008	161.7408
103.000000	92.948	161.5461
104.400002	92.901	161.2917
106.000000	92.839	161.0865
107.500000	92.789	160.8871
109.000000	92.734	160.6612
110.599998	92.681	160.4465
112.000000	92.627	160.2485
113.800003	92.565	160.0948
115.000000	92.528	159.8972
117.199997	92.437	159.6349
118.000000	92.407	159.5828
120.599998	92.324	159.2510
122.000000	92.273	159.0998
124.099998	92.204	158.9207
125.000000	92.165	158.8207
126.500000	92.118	158.7207
128.000000	92.059	158.5505
131.500000	91.951	158.2020
132.000000	91.926	158.1301
134.000000	91.849	158.1613
136.000000	91.789	157.9242
138.000000	91.714	157.7846
140.000000	91.644	157.6507
143.000000	91.550	157.4648
145.000000	91.477	157.4122
147.500000	91.393	157.2696
150.000000	91.301	157.2122
152.500000	91.228	157.0989
155.000000	91.139	157.0049
157.500000	91.052	156.8422
160.000000	90.980	156.5816
162.500000	90.905	156.6423
165.000000	90.822	156.6700
167.500000	90.725	156.7502
170.000000	90.649	156.6095
172.500000	90.582	156.5908
175.000000	90.523	156.4717
177.500000	90.436	156.5959
180.000000	90.344	156.5586
182.500000	90.270	156.5375
185.000000	90.208	156.5566
187.500000	90.121	156.6308
190.000000	90.043	156.6179
192.500000	89.972	156.5794
195.000000	89.903	156.6086
197.500000	89.829	156.6835
200.000000	89.769	156.7047
203.000000	89.672	156.8265
206.000000	89.589	156.9170
209.000000	89.502	157.0000
212.000000	89.430	157.1448
214.000000	89.367	157.1882
218.000000	89.257	157.2906
220.000000	89.207	157.4318
224.000000	89.094	157.4871
227.000000	89.019	157.5967
230.000000	88.927	157.7828
233.000000	88.862	157.9013
236.000000	88.781	157.9828
240.000000	88.614	158.6399
243.000000	88.609	158.4854
247.000000	88.492	158.6210
250.000000	88.432	158.8945
254.000000	88.353	159.0143
258.000000	88.251	159.2729
262.000000	88.159	159.4795
265.000000	88.093	159.6427
269.000000	88.000	159.9846
272.000000	87.929	160.2015
276.000000	87.855	160.4263
280.000000	87.770	160.7560
285.000000	87.658	161.1151
290.000000	87.558	161.5461
295.000000	87.460	161.9047
300.000000	87.369	162.3059
304.000000	87.285	162.5713
307.000000	87.233	162.9014
311.000000	87.151	163.2375
315.000000	87.084	163.5341
320.000000	86.989	163.9782
325.000000	86.904	164.2884
330.000000	86.827	164.7244
335.000000	86.745	165.2488
340.000000	86.656	165.7121
345.000000	86.585	166.1056
350.000000	86.509	166.5032
355.000000	86.431	166.9694
360.000000	86.339	167.3206
365.000000	86.270	167.8007
370.000000	86.194	168.2188
375.000000	86.123	168.6816
382.000000	86.021	169.2984
387.000000	85.937	169.7986
395.000000	85.835	170.4389
400.000000	85.769	170.9247
406.000000	85.686	171.5507
412.000000	85.618	172.0282
418.000000	85.531	172.6553
425.000000	85.431	173.2428
431.000000	85.380	173.9566
437.000000	85.303	174.4779
444.000000	85.224	175.1926
450.000000	85.140	175.7506
455.000000	85.084	176.3000
462.000000	85.020	177.0730
468.000000	84.954	177.5339
475.000000	84.885	178.2811
482.000000	84.808	179.1050
487.000000	84.766	179.6071
494.000000	84.681	-179.6453
500.000000	84.642	-179.0624
508.000000	84.581	-178.2239
515.000000	84.521	-177.4485
522.000000	84.450	-176.7313
530.000000	84.389	-175.9565
538.000000	84.320	-175.0346
545.000000	84.270	-174.2852
552.000000	84.232	-173.5432
560.000000	84.160	-172.7339
570.000000	84.097	-171.6897
580.000000	84.043	-170.5630
590.000000	84.003	-169.4177
600.000000	83.927	-168.3396
608.000000	83.896	-167.3737
615.000000	83.853	-166.5923
622.000000	83.827	-165.8420
630.000000	83.793	-164.8700
640.000000	83.746	-163.7213
650.000000	83.739	-162.6442
660.000000	83.706	-161.6103
670.000000	83.699	-160.6089
680.000000	83.672	-159.2642
690.000000	83.637	-158.2630
700.000000	83.652	-157.0923
710.000000	83.645	-155.8793
720.000000	83.633	-154.8772
730.000000	83.623	-153.8460
740.000000	83.630	-152.8334
750.000000	83.646	-151.6898
762.000000	83.641	-150.4692
775.000000	83.675	-148.8969
788.000000	83.685	-147.6148
800.000000	83.712	-146.2560
812.000000	83.741	-144.9662
825.000000	83.790	-143.6152
838.000000	83.842	-142.2234
850.000000	83.886	-140.9940
862.000000	83.948	-139.7901
875.000000	84.012	-138.5110
885.000000	84.070	-137.4236
900.000000	84.166	-136.0229
912.000000	84.254	-134.7051
925.000000	84.348	-133.6713
938.000000	84.447	-132.3931
950.000000	84.543	-131.3126
962.000000	84.654	-130.3347
975.000000	84.742	-129.3079
988.000000	84.891	-128.3246
1000.000000	84.973	-127.4124
1015.000000	85.135	-126.1976
1030.000000	85.286	-125.2517
1044.000000	85.423	-124.2552
1060.000000	85.603	-123.1369
1075.000000	85.758	-122.3933
1090.000000	85.920	-121.5434
1106.000000	86.094	-120.7561
1120.000000	86.249	-120.0891
1138.000000	86.436	-119.2822
1150.000000	86.565	-118.7581
1172.000000	86.818	-117.8472
1180.000000	86.891	-117.6056
1206.000000	87.168	-116.7434
1220.000000	87.326	-116.4576
1241.000000	87.537	-115.8112
1250.000000	87.646	-115.6181
1265.000000	87.808	-115.2776
1280.000000	87.970	-114.8687
1315.000000	88.346	-114.3307
1320.000000	88.400	-114.2390
1340.000000	88.610	-113.9389
1360.000000	88.822	-113.8112
1380.000000	89.038	-113.6034
1400.000000	89.256	-113.5371
1430.000000	89.549	-113.4286
1450.000000	89.767	-113.5179
1475.000000	90.022	-113.6395
1500.000000	90.279	-113.8889
1525.000000	90.542	-114.2276
1550.000000	90.792	-114.6738
1575.000000	91.048	-115.1311
1600.000000	91.291	-115.8233
1625.000000	91.530	-116.5778
1650.000000	91.753	-117.4157
1675.000000	91.981	-118.3815
1700.000000	92.198	-119.4927
1725.000000	92.390	-120.6449
1750.000000	92.582	-121.9221
1775.000000	92.746	-123.3150
1800.000000	92.908	-124.6913
1825.000000	93.048	-126.3147
1850.000000	93.159	-127.9029
1875.000000	93.258	-129.5835
1900.000000	93.331	-131.3489
1925.000000	93.383	-133.0005
1950.000000	93.415	-134.7623
1975.000000	93.412	-136.5126
2000.000000	93.396	-138.1278
2030.000000	93.348	-140.2199
2060.000000	93.270	-142.0897
2090.000000	93.173	-143.9226
2120.000000	93.037	-145.6386
2140.000000	92.952	-146.7103
2180.000000	92.740	-148.6065
2200.000000	92.619	-149.5266
2240.000000	92.388	-151.0777
2270.000000	92.189	-152.0864
2300.000000	92.008	-152.9460
2330.000000	91.797	-153.6916
2360.000000	91.603	-154.3016
2400.000000	91.337	-154.9382
2430.000000	91.132	-155.3314
2470.000000	90.884	-155.6308
2500.000000	90.710	-155.6761
2540.000000	90.455	-155.7864
2580.000000	90.234	-155.6992
2620.000000	90.041	-155.5129
2650.000000	89.872	-155.2288
2690.000000	89.684	-154.9754
2720.000000	89.555	-154.6345
2760.000000	89.387	-154.0565
2800.000000	89.247	-153.5972
2850.000000	89.079	-152.7312
2900.000000	88.929	-151.8493
2950.000000	88.797	-151.1575
3000.000000	88.681	-150.1640
3040.000000	88.641	-149.4190
3070.000000	88.596	-148.9068
3110.000000	88.569	-148.0963
3150.000000	88.554	-147.3121
3200.000000	88.532	-146.4592
3250.000000	88.537	-145.4676
3300.000000	88.577	-144.6202
3350.000000	88.646	-143.8234
3400.000000	88.718	-143.0909
3450.000000	88.816	-142.3762
3500.000000	88.951	-141.7858
3550.000000	89.085	-141.3937
3600.000000	89.237	-141.0183
3650.000000	89.435	-140.8926
3700.000000	89.647	-140.8296
3750.000000	89.864	-141.1220
3820.000000	90.216	-141.8950
3870.000000	90.486	-142.8321
3950.000000	90.908	-145.0314
4000.000000	91.164	-146.7345
4060.000000	91.424	-149.5479
4120.000000	91.638	-152.8806
4180.000000	91.771	-156.6533
4250.000000	91.784	-161.6303
4310.000000	91.666	-165.8100
4370.000000	91.425	-169.8439
4440.000000	91.058	-174.2441
4500.000000	90.710	-177.3900
4550.000000	90.371	179.9666
4620.000000	89.825	176.2630
4680.000000	89.258	173.3997
4750.000000	88.533	171.0598
4820.000000	87.782	169.3889
4870.000000	87.251	168.6258
4940.000000	86.479	168.2179
5000.000000	85.865	168.5507
5080.000000	85.124	169.1005
5150.000000	84.499	170.0618
5220.000000	83.895	171.5209
5300.000000	83.270	173.1047
5380.000000	82.716	174.9152
5450.000000	82.203	177.0584
5520.000000	81.765	178.9264
5600.000000	81.340	-178.5713
5700.000000	80.836	-174.9623
5800.000000	80.402	-171.5071
5900.000000	79.985	-167.9183
6000.000000	79.721	-164.7420
6080.000000	79.474	-161.7546
6150.000000	79.375	-158.7922
6220.000000	79.230	-156.8459
6300.000000	79.067	-153.3719
6400.000000	79.009	-149.1602
6500.000000	78.910	-145.2791
6600.000000	79.067	-142.1387
6700.000000	79.143	-138.3330
6800.000000	79.241	-134.8244
6900.000000	79.501	-131.1360
7000.000000	79.752	-127.8819
7100.000000	80.018	-124.3576
7200.000000	80.419	-121.7248
7300.000000	80.923	-119.2835
7400.000000	81.422	-116.9879
7500.000000	82.063	-115.1602
7620.000000	82.909	-113.9954
7750.000000	83.919	-113.8482
7880.000000	85.044	-115.7559
8000.000000	86.162	-119.6622
8120.000000	87.052	-125.8431
8250.000000	87.636	-135.1167
8380.000000	87.706	-145.2645
8500.000000	87.257	-153.9247
8620.000000	86.464	-160.2173
8750.000000	85.527	-164.7217
8850.000000	84.839	-166.6816
9000.000000	83.850	-167.8602
9120.000000	83.183	-167.3743
9250.000000	82.613	-165.9562
9380.000000	82.102	-164.0032
9500.000000	81.902	-162.3593
9620.000000	81.653	-159.8300
9750.000000	81.591	-157.9209
9880.000000	81.820	-155.3075
10000.000000	82.057	-154.5692
10150.000000	82.464	-154.3661
10300.000000	82.770	-155.4551
10440.000000	83.000	-156.6938
10600.000000	83.265	-157.9297
10750.000000	83.497	-159.7024
10900.000000	83.842	-162.3039
11060.000000	84.141	-165.4198
11200.000000	84.416	-169.0639
11380.000000	84.628	-174.3064
11500.000000	84.649	-178.5826
11720.000000	84.319	174.2852
11800.000000	84.172	171.7182
12060.000000	83.394	165.0153
12200.000000	82.897	162.3113
12410.000000	82.287	159.6354
12500.000000	82.028	158.8233
12650.000000	81.641	158.1204
12800.000000	81.267	157.2274
13150.000000	80.810	156.0381
13200.000000	80.798	156.4324
13400.000000	80.851	155.5107
13600.000000	81.003	154.8429
13800.000000	81.487	152.6199
14000.000000	82.215	149.1107
14300.000000	83.624	138.6977
14500.000000	84.789	125.0562
14750.000000	84.964	96.2769
15000.000000	82.450	68.1140
15250.000000	78.650	52.2704
15500.000000	75.053	44.4312
15750.000000	71.747	40.2276
16000.000000	67.952	40.0187
16250.000000	65.417	41.8880
16500.000000	61.082	41.0572
16750.000000	56.470	41.5421
17000.000000	46.558	111.8260
17250.000000	58.790	-169.0496
17500.000000	69.718	172.4372
17750.000000	71.052	77.0173
18000.000000	60.709	43.7059
18250.000000	45.995	108.4463
18500.000000	56.494	174.9369
18750.000000	59.349	159.1241
19000.000000	60.846	153.1138
19250.000000	61.999	164.8806
19500.000000	62.190	157.7929
19750.000000	63.367	155.9986
