* Measurement data measured by REW V5.20.5
* Source: USB Sound Device        , MICROPHONE, R, volume: 0.494
* Format: 256k Log Swept Sine, 1 sweep at -6.0 dBFS with no timing reference
* Dated: 4 Jun, 2023 8:00:35 PM
* REW Settings:
*  C-weighting compensation: Off
*  Target level: 75.0 dB
* Note: 
* Measurement: FIIO FD11 L
* Smoothing: None
* Frequency Step: 1/48 octave
* Start Frequency: 20.000 Hz
*
* Freq(Hz)	SPL(dB)	Phase(degrees)
20.000000	93.499	26.9419
20.299999	93.518	26.3979
20.600000	93.537	25.8641
20.900000	93.554	25.3385
21.200001	93.571	24.8201
21.400000	93.582	24.4797
21.799999	93.601	23.8131
22.000000	93.611	23.4874
22.400000	93.629	22.8502
22.700001	93.643	22.3812
23.000000	93.656	21.9165
23.299999	93.668	21.4562
23.600000	93.678	21.0021
24.000000	93.690	20.4106
24.299999	93.698	19.9799
24.700001	93.707	19.4222
25.000000	93.714	19.0142
25.400000	93.722	18.4803
25.799999	93.729	17.9554
26.200001	93.735	17.4382
26.500000	93.739	17.0551
26.900000	93.743	16.5514
27.200001	93.745	16.1802
27.600000	93.747	15.6954
28.000000	93.748	15.2222
28.500000	93.750	14.6414
29.000000	93.751	14.0660
29.500000	93.750	13.4974
30.000000	93.748	12.9429
30.400000	93.746	12.5115
30.700001	93.744	12.1941
31.100000	93.742	11.7774
31.500000	93.739	11.3682
32.000000	93.735	10.8677
32.500000	93.731	10.3777
33.000000	93.726	9.8931
33.500000	93.721	9.4135
34.000000	93.714	8.9443
34.500000	93.706	8.4884
35.000000	93.697	8.0430
35.500000	93.688	7.6050
36.000000	93.678	7.1761
36.500000	93.668	6.7591
37.000000	93.658	6.3518
37.500000	93.648	5.9486
38.200001	93.634	5.3853
38.700001	93.623	4.9868
39.500000	93.603	4.3696
40.000000	93.590	3.9969
40.599998	93.574	3.5555
41.200001	93.558	3.1195
41.799999	93.540	2.6982
42.500000	93.521	2.2245
43.099998	93.505	1.8170
43.700001	93.487	1.4088
44.400002	93.465	0.9493
45.000000	93.446	0.5696
45.500000	93.430	0.2568
46.200001	93.407	-0.1710
46.799999	93.387	-0.5255
47.500000	93.365	-0.9354
48.200001	93.341	-1.3389
48.700001	93.325	-1.6167
49.400002	93.303	-2.0007
50.000000	93.284	-2.3373
50.799999	93.255	-2.7836
51.500000	93.229	-3.1558
52.200001	93.204	-3.5149
53.000000	93.175	-3.9155
53.799999	93.147	-4.3165
54.500000	93.120	-4.6655
55.200001	93.092	-4.9919
56.000000	93.063	-5.3508
57.000000	93.024	-5.8094
58.000000	92.985	-6.2230
59.000000	92.951	-6.6727
60.000000	92.905	-7.1097
60.799999	92.872	-7.3905
61.500000	92.850	-7.6642
62.200001	92.823	-7.9590
63.000000	92.790	-8.2659
64.000000	92.752	-8.6484
65.000000	92.710	-9.0211
66.000000	92.670	-9.3721
67.000000	92.628	-9.7219
68.000000	92.587	-10.0568
69.000000	92.542	-10.3878
70.000000	92.502	-10.6689
71.000000	92.468	-11.0072
72.000000	92.422	-11.3451
73.000000	92.379	-11.6162
74.000000	92.340	-11.9071
75.000000	92.299	-12.1931
76.199997	92.249	-12.5396
77.500000	92.194	-12.8735
78.800003	92.142	-13.2143
80.000000	92.091	-13.5200
81.199997	92.040	-13.8079
82.500000	91.987	-14.0966
83.800003	91.933	-14.3942
85.000000	91.884	-14.6534
86.199997	91.834	-14.9124
87.500000	91.780	-15.1759
88.500000	91.738	-15.3746
90.000000	91.676	-15.6550
91.199997	91.628	-15.8899
92.500000	91.571	-16.1151
93.800003	91.520	-16.3472
95.000000	91.468	-16.5462
96.199997	91.422	-16.7361
97.500000	91.366	-16.9434
98.800003	91.316	-17.1259
100.000000	91.266	-17.3204
101.500000	91.203	-17.5063
103.000000	91.147	-17.7023
104.400002	91.089	-17.8986
106.000000	91.028	-18.0744
107.500000	90.968	-18.2570
109.000000	90.908	-18.4274
110.599998	90.844	-18.5846
112.000000	90.789	-18.7278
113.800003	90.722	-18.8862
115.000000	90.677	-19.0206
117.199997	90.591	-19.1885
118.000000	90.559	-19.2516
120.599998	90.460	-19.4386
122.000000	90.407	-19.5243
124.099998	90.328	-19.6857
125.000000	90.295	-19.7419
126.500000	90.239	-19.8289
128.000000	90.181	-19.8816
131.500000	90.056	-20.0634
132.000000	90.037	-20.0977
134.000000	89.962	-20.1490
136.000000	89.892	-20.2115
138.000000	89.820	-20.3007
140.000000	89.756	-20.3264
143.000000	89.646	-20.4298
145.000000	89.581	-20.4260
147.500000	89.497	-20.4768
150.000000	89.418	-20.5031
152.500000	89.329	-20.4855
155.000000	89.249	-20.4810
157.500000	89.168	-20.4478
160.000000	89.084	-20.5092
162.500000	89.008	-20.4354
165.000000	88.927	-20.3803
167.500000	88.850	-20.3374
170.000000	88.776	-20.2920
172.500000	88.700	-20.2260
175.000000	88.623	-20.1240
177.500000	88.550	-20.0796
180.000000	88.481	-19.9573
182.500000	88.402	-19.8795
185.000000	88.338	-19.7960
187.500000	88.264	-19.6880
190.000000	88.198	-19.5901
192.500000	88.130	-19.4538
195.000000	88.062	-19.3185
197.500000	88.000	-19.2020
200.000000	87.942	-18.9579
203.000000	87.857	-18.8394
206.000000	87.773	-18.7190
209.000000	87.699	-18.5868
212.000000	87.624	-18.3141
214.000000	87.579	-18.1961
218.000000	87.478	-17.9393
220.000000	87.428	-17.9384
224.000000	87.338	-17.5811
227.000000	87.262	-17.3647
230.000000	87.200	-17.1298
233.000000	87.130	-16.8777
236.000000	87.061	-16.6721
240.000000	86.978	-16.3848
243.000000	86.912	-16.1617
247.000000	86.829	-15.8026
250.000000	86.766	-15.5654
254.000000	86.686	-15.2557
258.000000	86.606	-14.8868
262.000000	86.530	-14.5590
265.000000	86.472	-14.3168
269.000000	86.401	-13.9513
272.000000	86.346	-13.6609
276.000000	86.272	-13.3234
280.000000	86.200	-12.9514
285.000000	86.109	-12.4840
290.000000	86.033	-12.0582
295.000000	85.944	-11.5729
300.000000	85.860	-11.0892
304.000000	85.806	-10.7127
307.000000	85.762	-10.4205
311.000000	85.705	-10.0210
315.000000	85.637	-9.6294
320.000000	85.562	-9.1711
325.000000	85.499	-8.6427
330.000000	85.431	-8.1595
335.000000	85.365	-7.6339
340.000000	85.298	-7.1418
345.000000	85.230	-6.6444
350.000000	85.177	-6.1688
355.000000	85.109	-5.6870
360.000000	85.053	-5.1290
365.000000	84.989	-4.6644
370.000000	84.937	-4.1547
375.000000	84.893	-3.6212
382.000000	84.815	-2.9237
387.000000	84.766	-2.4220
395.000000	84.686	-1.6006
400.000000	84.636	-1.1324
406.000000	84.586	-0.4661
412.000000	84.523	0.0944
418.000000	84.467	0.7452
425.000000	84.416	1.4546
431.000000	84.354	2.0448
437.000000	84.305	2.6644
444.000000	84.254	3.4061
450.000000	84.194	3.9924
455.000000	84.162	4.4518
462.000000	84.118	5.1805
468.000000	84.074	5.8567
475.000000	84.029	6.5134
482.000000	83.984	7.2603
487.000000	83.952	7.7827
494.000000	83.901	8.4374
500.000000	83.865	9.0466
508.000000	83.821	9.8920
515.000000	83.782	10.6139
522.000000	83.746	11.2930
530.000000	83.706	12.1042
538.000000	83.665	12.9877
545.000000	83.630	13.6904
552.000000	83.609	14.4249
560.000000	83.569	15.2301
570.000000	83.538	16.2246
580.000000	83.499	17.2588
590.000000	83.460	18.3132
600.000000	83.434	19.3176
608.000000	83.403	20.2358
615.000000	83.389	20.8239
622.000000	83.383	21.6085
630.000000	83.355	22.4376
640.000000	83.332	23.4510
650.000000	83.318	24.4097
660.000000	83.298	25.4886
670.000000	83.284	26.4772
680.000000	83.285	27.5360
690.000000	83.279	28.5588
700.000000	83.274	29.5548
710.000000	83.266	30.5198
720.000000	83.274	31.6096
730.000000	83.289	32.6074
740.000000	83.283	33.6979
750.000000	83.306	34.6555
762.000000	83.320	35.8502
775.000000	83.343	37.1470
788.000000	83.372	38.4626
800.000000	83.413	39.6407
812.000000	83.444	40.7805
825.000000	83.489	42.0285
838.000000	83.535	43.3004
850.000000	83.581	44.4616
862.000000	83.638	45.5132
875.000000	83.698	46.7973
885.000000	83.738	47.7143
900.000000	83.813	49.0840
912.000000	83.893	50.2088
925.000000	83.985	51.3883
938.000000	84.076	52.5803
950.000000	84.177	53.5788
962.000000	84.276	54.5552
975.000000	84.380	55.5236
988.000000	84.492	56.4454
1000.000000	84.622	57.2028
1015.000000	84.732	58.2581
1030.000000	84.872	59.2150
1044.000000	85.009	59.9958
1060.000000	85.138	60.8356
1075.000000	85.285	61.6027
1090.000000	85.410	62.3640
1106.000000	85.555	63.0112
1120.000000	85.675	63.6291
1138.000000	85.827	64.3804
1150.000000	85.928	64.8203
1172.000000	86.108	65.5773
1180.000000	86.174	65.8493
1206.000000	86.380	66.6208
1220.000000	86.488	67.0974
1241.000000	86.643	67.6874
1250.000000	86.706	67.9132
1265.000000	86.815	68.3728
1280.000000	86.922	68.7935
1315.000000	87.166	69.6699
1320.000000	87.205	69.7631
1340.000000	87.339	70.2273
1360.000000	87.480	70.7332
1380.000000	87.617	71.2211
1400.000000	87.757	71.6502
1430.000000	87.960	72.2692
1450.000000	88.095	72.6647
1475.000000	88.267	73.1398
1500.000000	88.445	73.5712
1525.000000	88.628	73.9861
1550.000000	88.799	74.3769
1575.000000	88.979	74.6961
1600.000000	89.157	75.0108
1625.000000	89.351	75.2232
1650.000000	89.531	75.4598
1675.000000	89.719	75.6034
1700.000000	89.907	75.6713
1725.000000	90.096	75.7102
1750.000000	90.287	75.6518
1775.000000	90.473	75.5386
1800.000000	90.663	75.3600
1825.000000	90.849	75.1611
1850.000000	91.028	74.8493
1875.000000	91.218	74.5058
1900.000000	91.390	74.0561
1925.000000	91.563	73.5699
1950.000000	91.735	72.9867
1975.000000	91.894	72.3340
2000.000000	92.038	71.6643
2030.000000	92.232	70.7197
2060.000000	92.395	69.6629
2090.000000	92.552	68.5612
2120.000000	92.694	67.3704
2140.000000	92.780	66.5063
2180.000000	92.931	64.7474
2200.000000	92.992	63.8433
2240.000000	93.099	61.9407
2270.000000	93.159	60.4836
2300.000000	93.201	58.9618
2330.000000	93.220	57.5069
2360.000000	93.221	56.0202
2400.000000	93.197	54.0739
2430.000000	93.157	52.6963
2470.000000	93.083	50.9140
2500.000000	93.014	49.6539
2540.000000	92.897	48.0297
2580.000000	92.759	46.5782
2620.000000	92.614	45.2847
2650.000000	92.486	44.3696
2690.000000	92.320	43.3224
2720.000000	92.182	42.6540
2760.000000	92.002	41.8430
2800.000000	91.812	41.2038
2850.000000	91.589	40.5695
2900.000000	91.356	40.0808
2950.000000	91.133	39.8622
3000.000000	90.918	39.5943
3040.000000	90.743	39.6629
3070.000000	90.626	39.7393
3110.000000	90.472	39.8639
3150.000000	90.322	40.0604
3200.000000	90.144	40.3977
3250.000000	89.981	40.7759
3300.000000	89.823	41.2841
3350.000000	89.686	41.8814
3400.000000	89.572	42.4928
3450.000000	89.458	43.1478
3500.000000	89.352	43.8482
3550.000000	89.270	44.5043
3600.000000	89.202	45.3085
3650.000000	89.145	46.1154
3700.000000	89.104	46.8319
3750.000000	89.063	47.6372
3820.000000	89.048	48.7189
3870.000000	89.047	49.4403
3950.000000	89.074	50.7142
4000.000000	89.104	51.3773
4060.000000	89.162	52.2261
4120.000000	89.247	52.9966
4180.000000	89.330	53.6278
4250.000000	89.477	54.4071
4310.000000	89.604	54.9092
4370.000000	89.760	55.3257
4440.000000	89.966	55.6146
4500.000000	90.155	55.6981
4550.000000	90.320	55.6833
4620.000000	90.568	55.3954
4680.000000	90.794	54.9973
4750.000000	91.069	54.0966
4820.000000	91.344	52.8960
4870.000000	91.535	51.8260
4940.000000	91.797	49.9669
5000.000000	92.001	48.0635
5080.000000	92.224	45.0157
5150.000000	92.364	41.9733
5220.000000	92.450	38.6568
5300.000000	92.444	34.5750
5380.000000	92.333	30.4116
5450.000000	92.146	26.9081
5520.000000	91.887	23.6057
5600.000000	91.507	20.2185
5700.000000	90.951	16.7152
5800.000000	90.347	13.9874
5900.000000	89.697	12.1177
6000.000000	89.062	10.8927
6080.000000	88.566	10.2734
6150.000000	88.164	10.0697
6220.000000	87.740	9.9722
6300.000000	87.300	10.2773
6400.000000	86.770	10.6846
6500.000000	86.244	11.5311
6600.000000	85.766	12.7136
6700.000000	85.304	14.0645
6800.000000	84.907	15.9536
6900.000000	84.570	18.1340
7000.000000	84.293	20.3284
7100.000000	84.087	22.5917
7200.000000	83.959	24.9755
7300.000000	83.860	27.0376
7400.000000	83.812	29.2078
7500.000000	83.824	31.2862
7620.000000	83.884	33.6355
7750.000000	84.047	35.8123
7880.000000	84.299	38.0037
8000.000000	84.614	39.5782
8120.000000	85.016	40.8327
8250.000000	85.554	41.3677
8380.000000	86.206	41.1408
8500.000000	86.901	39.8106
8620.000000	87.658	37.0538
8750.000000	88.456	32.0976
8850.000000	89.021	26.3337
9000.000000	89.525	15.3850
9120.000000	89.441	4.9761
9250.000000	88.820	-5.6805
9380.000000	87.786	-14.2325
9500.000000	86.672	-19.8387
9620.000000	85.514	-23.2980
9750.000000	84.298	-25.6956
9880.000000	83.166	-26.2630
10000.000000	82.215	-25.9468
10150.000000	81.154	-25.0721
10300.000000	80.213	-23.4221
10440.000000	79.481	-21.3235
10600.000000	78.730	-18.4453
10750.000000	78.131	-15.8443
10900.000000	77.604	-12.5322
11060.000000	77.181	-9.6646
11200.000000	76.862	-6.2319
11380.000000	76.550	-2.4462
11500.000000	76.362	0.0883
11720.000000	76.251	4.8837
11800.000000	76.237	6.6923
12060.000000	76.336	11.7617
12200.000000	76.504	15.1796
12410.000000	76.876	18.8558
12500.000000	77.136	20.1940
12650.000000	77.612	22.3043
12800.000000	78.123	25.1666
13150.000000	79.913	27.8898
13200.000000	80.199	27.9364
13400.000000	81.618	27.0409
13600.000000	83.396	22.9384
13800.000000	85.290	12.7084
14000.000000	86.662	-6.3657
14300.000000	85.459	-38.3553
14500.000000	83.382	-50.5889
14750.000000	80.912	-56.8025
15000.000000	79.021	-56.9046
15250.000000	77.632	-55.0241
15500.000000	76.819	-51.5814
15750.000000	76.532	-47.7054
16000.000000	76.850	-45.0604
16250.000000	77.376	-45.6960
16500.000000	78.227	-49.2682
16750.000000	79.016	-56.0183
17000.000000	79.682	-66.0251
17250.000000	79.820	-81.2036
17500.000000	78.908	-97.3043
17750.000000	77.053	-109.3065
18000.000000	74.811	-116.6277
18250.000000	72.706	-114.5686
18500.000000	71.723	-107.8951
18750.000000	71.831	-109.4913
19000.000000	71.105	-112.7590
19250.000000	70.321	-116.6321
19500.000000	69.723	-118.7223
19750.000000	68.508	-123.4469
