* Measurement data measured by REW V5.20.5
* Source: USB Sound Device        , MICROPHONE, R, volume: 0.733
* Format: 256k Log Swept Sine, 1 sweep at -6.0 dBFS with no timing reference
* Dated: 4 Jun, 2023 7:39:15 PM
* REW Settings:
*  C-weighting compensation: Off
*  Target level: 75.0 dB
* Note: 
* Measurement: FIIO FW3 L
* Smoothing: None
* Frequency Step: 1/48 octave
* Start Frequency: 20.000 Hz
*
* Freq(Hz)	SPL(dB)	Phase(degrees)
20.000000	91.999	-159.7328
20.299999	92.009	-160.4956
20.600000	92.021	-161.2427
20.900000	92.036	-161.9703
21.200001	92.056	-162.6819
21.400000	92.072	-163.1533
21.799999	92.106	-164.0943
22.000000	92.123	-164.5620
22.400000	92.151	-165.4746
22.700001	92.168	-166.1154
23.000000	92.182	-166.7012
23.299999	92.197	-167.2343
23.600000	92.212	-167.7297
24.000000	92.234	-168.3621
24.299999	92.249	-168.8334
24.700001	92.262	-169.4599
25.000000	92.266	-169.9186
25.400000	92.265	-170.5030
25.799999	92.258	-171.0580
26.200001	92.248	-171.6007
26.500000	92.240	-172.0110
26.900000	92.228	-172.5702
27.200001	92.217	-172.9996
27.600000	92.201	-173.5832
28.000000	92.183	-174.1730
28.500000	92.160	-174.9048
29.000000	92.140	-175.6175
29.500000	92.125	-176.3137
30.000000	92.115	-177.0033
30.400000	92.109	-177.5464
30.700001	92.104	-177.9417
31.100000	92.098	-178.4443
31.500000	92.093	-178.9168
32.000000	92.087	-179.4673
32.500000	92.082	-179.9746
33.000000	92.079	179.5510
33.500000	92.078	179.0751
34.000000	92.075	178.5605
34.500000	92.062	178.0194
35.000000	92.035	177.5077
35.500000	92.005	177.0638
36.000000	91.979	176.6620
36.500000	91.960	176.2515
37.000000	91.942	175.8118
37.500000	91.923	175.3586
38.200001	91.895	174.7333
38.700001	91.876	174.3006
39.500000	91.846	173.6501
40.000000	91.829	173.2735
40.599998	91.813	172.8377
41.200001	91.799	172.4029
41.799999	91.783	171.9676
42.500000	91.761	171.4808
43.099998	91.741	171.0960
43.700001	91.726	170.7127
44.400002	91.707	170.2310
45.000000	91.685	169.8216
45.500000	91.666	169.5121
46.200001	91.645	169.0884
46.799999	91.626	168.6975
47.500000	91.597	168.2777
48.200001	91.574	167.9295
48.700001	91.565	167.6634
49.400002	91.547	167.2363
50.000000	91.525	166.9050
50.799999	91.504	166.5276
51.500000	91.493	166.1307
52.200001	91.469	165.7239
53.000000	91.444	165.3715
53.799999	91.435	164.9846
54.500000	91.418	164.5859
55.200001	91.395	164.2474
56.000000	91.374	163.8865
57.000000	91.340	163.4150
58.000000	91.309	163.0483
59.000000	91.296	162.6203
60.000000	91.276	162.0910
60.799999	91.252	161.6981
61.500000	91.234	161.3997
62.200001	91.220	161.1025
63.000000	91.202	160.7766
64.000000	91.182	160.3678
65.000000	91.144	159.9943
66.000000	91.125	159.7579
67.000000	91.110	159.2617
68.000000	91.069	158.8808
69.000000	91.056	158.4066
70.000000	90.997	157.9457
71.000000	90.985	157.8375
72.000000	90.991	157.3686
73.000000	90.965	157.0601
74.000000	90.968	156.7310
75.000000	90.942	156.3503
76.199997	90.925	155.9759
77.500000	90.879	155.4753
78.800003	90.851	155.1056
80.000000	90.825	154.7072
81.199997	90.807	154.3004
82.500000	90.786	153.9162
83.800003	90.776	153.4738
85.000000	90.751	153.0867
86.199997	90.726	152.7268
87.500000	90.697	152.3683
88.500000	90.678	152.0858
90.000000	90.651	151.6362
91.199997	90.627	151.2569
92.500000	90.603	150.9021
93.800003	90.590	150.4975
95.000000	90.565	150.1394
96.199997	90.547	149.8235
97.500000	90.526	149.4659
98.800003	90.505	149.0703
100.000000	90.483	148.7580
101.500000	90.455	148.3358
103.000000	90.440	147.9419
104.400002	90.404	147.6256
106.000000	90.398	147.1675
107.500000	90.352	146.7850
109.000000	90.330	146.4361
110.599998	90.314	146.0052
112.000000	90.296	145.5803
113.800003	90.253	145.1153
115.000000	90.244	144.9662
117.199997	90.212	144.3723
118.000000	90.195	144.1932
120.599998	90.164	143.6290
122.000000	90.139	143.1567
124.099998	90.100	142.6533
125.000000	90.076	142.4051
126.500000	90.066	142.2540
128.000000	90.048	141.7374
131.500000	89.989	141.0126
132.000000	89.989	140.8685
134.000000	89.973	140.4293
136.000000	89.924	140.0652
138.000000	89.898	139.5747
140.000000	89.888	139.2795
143.000000	89.861	138.5981
145.000000	89.795	138.1572
147.500000	89.745	137.7170
150.000000	89.728	137.1658
152.500000	89.711	136.4697
155.000000	89.669	136.0877
157.500000	89.613	135.7803
160.000000	89.533	135.2267
162.500000	89.518	134.5478
165.000000	89.513	134.1290
167.500000	89.497	133.6654
170.000000	89.475	133.1844
172.500000	89.389	132.8101
175.000000	89.396	132.2557
177.500000	89.368	131.8289
180.000000	89.325	131.5566
182.500000	89.290	130.9769
185.000000	89.271	130.6066
187.500000	89.237	130.0393
190.000000	89.222	129.7525
192.500000	89.150	129.4661
195.000000	89.106	128.8557
197.500000	89.129	128.3706
200.000000	89.217	128.6040
203.000000	89.141	127.4761
206.000000	89.018	127.0458
209.000000	88.984	126.7396
212.000000	88.942	126.4293
214.000000	88.901	125.9980
218.000000	88.865	125.2818
220.000000	88.862	125.8356
224.000000	88.806	124.7339
227.000000	88.762	123.9919
230.000000	88.734	123.6559
233.000000	88.677	123.2307
236.000000	88.692	122.6212
240.000000	88.603	122.3746
243.000000	88.604	121.7554
247.000000	88.551	121.0439
250.000000	88.539	120.7965
254.000000	88.477	120.2241
258.000000	88.458	119.8834
262.000000	88.407	119.3955
265.000000	88.379	118.8921
269.000000	88.323	118.4024
272.000000	88.336	117.8422
276.000000	88.292	117.4641
280.000000	88.213	117.0737
285.000000	88.193	116.3300
290.000000	88.159	115.6414
295.000000	88.090	115.1112
300.000000	88.114	114.4102
304.000000	88.048	114.0502
307.000000	87.999	113.6775
311.000000	87.961	113.0758
315.000000	87.949	112.6914
320.000000	87.895	112.1054
325.000000	87.856	111.7351
330.000000	87.814	111.1509
335.000000	87.773	110.3123
340.000000	87.730	109.7871
345.000000	87.693	109.3395
350.000000	87.658	108.9037
355.000000	87.628	108.2526
360.000000	87.577	107.7362
365.000000	87.514	107.2384
370.000000	87.514	106.6674
375.000000	87.465	106.2237
382.000000	87.419	105.3874
387.000000	87.386	104.9323
395.000000	87.324	103.9937
400.000000	87.266	103.5591
406.000000	87.245	103.0649
412.000000	87.201	102.4254
418.000000	87.157	101.8153
425.000000	87.117	100.9959
431.000000	87.054	100.5621
437.000000	87.028	99.9648
444.000000	86.951	99.3856
450.000000	86.908	98.8375
455.000000	86.848	98.3946
462.000000	86.819	97.7657
468.000000	86.769	97.3588
475.000000	86.724	96.7419
482.000000	86.690	96.2217
487.000000	86.641	95.8812
494.000000	86.587	95.1718
500.000000	86.580	94.8477
508.000000	86.509	94.0497
515.000000	86.471	93.6385
522.000000	86.447	93.1286
530.000000	86.379	92.5110
538.000000	86.338	92.0009
545.000000	86.298	91.4479
552.000000	86.262	90.9641
560.000000	86.219	90.3418
570.000000	86.163	89.6841
580.000000	86.101	88.9673
590.000000	86.053	88.3847
600.000000	85.991	87.7150
608.000000	85.941	87.1008
615.000000	85.897	86.7979
622.000000	85.860	86.4215
630.000000	85.819	85.8751
640.000000	85.773	85.2856
650.000000	85.727	84.7314
660.000000	85.665	84.1071
670.000000	85.604	83.5609
680.000000	85.569	83.0757
690.000000	85.511	82.6801
700.000000	85.474	82.2410
710.000000	85.435	81.6874
720.000000	85.389	81.3023
730.000000	85.354	80.8773
740.000000	85.312	80.4068
750.000000	85.302	79.9877
762.000000	85.229	79.5604
775.000000	85.195	79.0254
788.000000	85.169	78.6782
800.000000	85.124	78.2065
812.000000	85.096	77.7496
825.000000	85.068	77.3543
838.000000	85.051	77.0781
850.000000	85.033	76.6566
862.000000	85.025	76.3759
875.000000	85.016	76.0076
885.000000	85.015	75.7431
900.000000	85.018	75.2676
912.000000	85.030	74.8836
925.000000	85.035	74.5193
938.000000	85.048	74.1957
950.000000	85.056	73.8839
962.000000	85.099	73.4563
975.000000	85.105	73.1190
988.000000	85.137	72.6558
1000.000000	85.172	72.3021
1015.000000	85.203	71.7094
1030.000000	85.240	71.1374
1044.000000	85.287	70.6135
1060.000000	85.331	69.9568
1075.000000	85.372	69.3539
1090.000000	85.418	68.7571
1106.000000	85.457	67.9493
1120.000000	85.499	67.2612
1138.000000	85.552	66.4855
1150.000000	85.577	65.8908
1172.000000	85.620	64.8486
1180.000000	85.645	64.4352
1206.000000	85.701	63.1103
1220.000000	85.725	62.5013
1241.000000	85.754	61.3821
1250.000000	85.780	60.8936
1265.000000	85.795	60.3039
1280.000000	85.831	59.5135
1315.000000	85.882	57.8433
1320.000000	85.876	57.6469
1340.000000	85.912	56.7059
1360.000000	85.909	55.7482
1380.000000	85.945	54.9354
1400.000000	85.968	53.9932
1430.000000	86.007	52.7325
1450.000000	86.015	51.9454
1475.000000	86.049	51.0450
1500.000000	86.065	50.0940
1525.000000	86.106	49.0593
1550.000000	86.140	48.0382
1575.000000	86.177	47.2396
1600.000000	86.215	46.2891
1625.000000	86.237	45.4271
1650.000000	86.287	44.5587
1675.000000	86.343	43.7313
1700.000000	86.368	42.8263
1725.000000	86.423	42.0334
1750.000000	86.464	41.2475
1775.000000	86.514	40.4250
1800.000000	86.559	39.6350
1825.000000	86.635	38.8708
1850.000000	86.683	38.0661
1875.000000	86.736	37.2970
1900.000000	86.798	36.4420
1925.000000	86.853	35.7104
1950.000000	86.934	34.9482
1975.000000	86.991	34.1909
2000.000000	87.065	33.4662
2030.000000	87.145	32.4435
2060.000000	87.227	31.5061
2090.000000	87.325	30.6374
2120.000000	87.409	29.5710
2140.000000	87.478	28.9602
2180.000000	87.599	27.5989
2200.000000	87.665	26.9555
2240.000000	87.792	25.6079
2270.000000	87.879	24.6594
2300.000000	87.983	23.5901
2330.000000	88.083	22.5579
2360.000000	88.188	21.5193
2400.000000	88.313	20.0924
2430.000000	88.415	18.9877
2470.000000	88.546	17.4264
2500.000000	88.632	16.3618
2540.000000	88.753	14.7163
2580.000000	88.888	13.1469
2620.000000	88.989	11.4885
2650.000000	89.080	10.2730
2690.000000	89.186	8.5372
2720.000000	89.243	7.3153
2760.000000	89.341	5.6108
2800.000000	89.420	3.8703
2850.000000	89.492	1.6232
2900.000000	89.573	-0.5078
2950.000000	89.614	-2.6840
3000.000000	89.665	-4.8732
3040.000000	89.657	-6.4904
3070.000000	89.658	-7.6548
3110.000000	89.664	-9.3882
3150.000000	89.640	-10.8989
3200.000000	89.602	-12.8447
3250.000000	89.562	-14.5485
3300.000000	89.496	-16.2067
3350.000000	89.412	-17.8610
3400.000000	89.370	-19.1837
3450.000000	89.270	-20.5939
3500.000000	89.188	-21.7430
3550.000000	89.109	-22.9699
3600.000000	89.000	-23.9633
3650.000000	88.930	-24.7458
3700.000000	88.817	-25.4807
3750.000000	88.743	-26.2910
3820.000000	88.628	-26.9116
3870.000000	88.581	-27.1496
3950.000000	88.452	-27.6003
4000.000000	88.414	-27.6240
4060.000000	88.366	-27.7639
4120.000000	88.360	-27.6433
4180.000000	88.331	-27.6492
4250.000000	88.338	-27.4257
4310.000000	88.373	-27.2606
4370.000000	88.427	-26.8840
4440.000000	88.498	-26.5803
4500.000000	88.593	-26.2254
4550.000000	88.710	-25.9954
4620.000000	88.878	-25.7258
4680.000000	89.017	-25.6371
4750.000000	89.258	-25.6641
4820.000000	89.482	-25.7500
4870.000000	89.665	-25.6512
4940.000000	90.060	-26.2565
5000.000000	90.360	-27.1282
5080.000000	90.691	-29.3561
5150.000000	90.943	-31.7137
5220.000000	91.066	-34.7594
5300.000000	91.213	-37.9467
5380.000000	91.160	-41.4218
5450.000000	91.122	-44.1967
5520.000000	90.852	-46.4017
5600.000000	90.503	-49.1635
5700.000000	90.068	-51.2642
5800.000000	89.342	-53.2554
5900.000000	88.927	-53.3733
6000.000000	88.274	-53.1189
6080.000000	87.802	-52.7459
6150.000000	87.552	-51.5446
6220.000000	87.190	-50.6185
6300.000000	86.938	-48.1714
6400.000000	86.412	-45.9976
6500.000000	86.080	-43.8473
6600.000000	85.748	-40.7512
6700.000000	85.612	-38.5471
6800.000000	85.424	-34.2991
6900.000000	85.072	-30.9767
7000.000000	85.111	-27.1254
7100.000000	84.995	-23.8608
7200.000000	84.933	-20.0348
7300.000000	84.934	-16.4696
7400.000000	84.945	-14.2317
7500.000000	85.063	-8.8979
7620.000000	85.277	-4.3810
7750.000000	85.663	-0.1660
7880.000000	85.951	3.9121
8000.000000	86.376	6.3986
8120.000000	86.716	9.6127
8250.000000	87.289	11.6700
8380.000000	87.834	13.6477
8500.000000	88.329	13.2037
8620.000000	89.002	11.6797
8750.000000	89.320	8.5206
8850.000000	89.337	4.9261
9000.000000	89.212	-0.2587
9120.000000	88.521	-3.9408
9250.000000	87.684	-4.5273
9380.000000	86.823	-5.6177
9500.000000	86.061	-5.2958
9620.000000	84.831	-1.5141
9750.000000	84.088	1.9191
9880.000000	83.075	6.8439
10000.000000	82.258	11.8892
10150.000000	81.513	18.0519
10300.000000	80.844	25.1888
10440.000000	80.139	31.3979
10600.000000	79.706	42.1039
10750.000000	79.692	50.8910
10900.000000	78.825	59.1381
11060.000000	78.708	69.7137
11200.000000	78.616	78.2180
11380.000000	78.322	89.4348
11500.000000	78.994	96.2971
11720.000000	78.821	110.8890
11800.000000	78.882	113.6268
12060.000000	79.308	130.5247
12200.000000	79.569	138.5950
12410.000000	80.082	150.8288
12500.000000	80.672	153.8878
12650.000000	81.053	164.3546
12800.000000	82.618	166.3010
13150.000000	85.761	167.7271
13200.000000	85.932	163.9252
13400.000000	85.989	157.2278
13600.000000	84.170	148.9174
13800.000000	82.611	146.2293
14000.000000	80.069	150.5744
14300.000000	77.083	166.3819
14500.000000	75.828	177.9534
14750.000000	73.651	-171.6624
15000.000000	72.278	-155.1789
15250.000000	71.146	-131.1922
15500.000000	70.584	-113.7066
15750.000000	68.563	-97.3743
16000.000000	68.802	-76.5623
16250.000000	68.685	-62.4426
16500.000000	68.012	-50.0333
16750.000000	67.099	-34.1299
17000.000000	66.704	-16.5747
17250.000000	66.813	-14.0253
17500.000000	63.836	5.5732
17750.000000	63.781	5.7418
18000.000000	62.191	31.0154
18250.000000	56.335	48.1238
18500.000000	56.978	59.4084
18750.000000	52.415	103.5242
19000.000000	50.911	135.6667
19250.000000	47.015	167.0624
19500.000000	45.672	170.4901
19750.000000	48.463	-143.5780
