* Measurement data measured by REW V5.20.5
* Source: USB Sound Device        , MICROPHONE, R, volume: 0.494
* Format: 256k Log Swept Sine, 1 sweep at -6.0 dBFS with no timing reference
* Dated: 7 Nov, 2023 7:42:44 PM
* REW Settings:
*  C-weighting compensation: Off
*  Target level: 75.0 dB
* Note: 
* Measurement: HIBY XOE Nov 7
* Smoothing: None
* Frequency Step: 1/48 octave
* Start Frequency: 20.000 Hz
*
* Freq(Hz)	SPL(dB)	Phase(degrees)
20.000000	94.842	-136.4525
20.299999	94.890	-137.0122
20.600000	94.935	-137.5610
20.900000	94.978	-138.0972
21.200001	95.021	-138.6224
21.400000	95.048	-138.9689
21.799999	95.102	-139.6570
22.000000	95.127	-139.9994
22.400000	95.176	-140.6792
22.700001	95.210	-141.1809
23.000000	95.243	-141.6729
23.299999	95.275	-142.1566
23.600000	95.306	-142.6346
24.000000	95.346	-143.2674
24.299999	95.375	-143.7393
24.700001	95.411	-144.3620
25.000000	95.436	-144.8211
25.400000	95.468	-145.4205
25.799999	95.500	-146.0070
26.200001	95.530	-146.5842
26.500000	95.552	-147.0122
26.900000	95.580	-147.5771
27.200001	95.601	-147.9962
27.600000	95.626	-148.5484
28.000000	95.649	-149.0913
28.500000	95.676	-149.7535
29.000000	95.702	-150.3969
29.500000	95.726	-151.0271
30.000000	95.748	-151.6496
30.400000	95.765	-152.1414
30.700001	95.776	-152.5053
31.100000	95.791	-152.9838
31.500000	95.805	-153.4565
32.000000	95.821	-154.0417
32.500000	95.835	-154.6187
33.000000	95.848	-155.1832
33.500000	95.860	-155.7381
34.000000	95.872	-156.2894
34.500000	95.882	-156.8361
35.000000	95.890	-157.3703
35.500000	95.897	-157.8876
36.000000	95.904	-158.3925
36.500000	95.911	-158.8907
37.000000	95.917	-159.3826
37.500000	95.922	-159.8664
38.200001	95.929	-160.5330
38.700001	95.932	-161.0037
39.500000	95.935	-161.7428
40.000000	95.936	-162.1935
40.599998	95.936	-162.7243
41.200001	95.935	-163.2474
41.799999	95.933	-163.7632
42.500000	95.930	-164.3524
43.099998	95.926	-164.8449
43.700001	95.921	-165.3266
44.400002	95.916	-165.8748
45.000000	95.912	-166.3383
45.500000	95.909	-166.7286
46.200001	95.901	-167.2762
46.799999	95.892	-167.7233
47.500000	95.883	-168.2194
48.200001	95.877	-168.7318
48.700001	95.869	-169.1075
49.400002	95.853	-169.5995
50.000000	95.841	-169.9794
50.799999	95.833	-170.4931
51.500000	95.824	-170.9747
52.200001	95.809	-171.4444
53.000000	95.793	-171.9451
53.799999	95.778	-172.4388
54.500000	95.763	-172.8758
55.200001	95.747	-173.3003
56.000000	95.728	-173.7588
57.000000	95.708	-174.3354
58.000000	95.684	-174.9215
59.000000	95.659	-175.4713
60.000000	95.635	-176.0122
60.799999	95.615	-176.4242
61.500000	95.600	-176.7835
62.200001	95.584	-177.1577
63.000000	95.561	-177.5682
64.000000	95.534	-178.0466
65.000000	95.506	-178.5279
66.000000	95.479	-178.9918
67.000000	95.452	-179.4581
68.000000	95.423	-179.9111
69.000000	95.396	179.6369
70.000000	95.367	179.1875
71.000000	95.337	178.7635
72.000000	95.308	178.3531
73.000000	95.278	177.9465
74.000000	95.248	177.5563
75.000000	95.219	177.1725
76.199997	95.183	176.7085
77.500000	95.143	176.2101
78.800003	95.100	175.7346
80.000000	95.063	175.3147
81.199997	95.024	174.8946
82.500000	94.982	174.4689
83.800003	94.943	174.0368
85.000000	94.903	173.6533
86.199997	94.867	173.2736
87.500000	94.823	172.8705
88.500000	94.792	172.5771
90.000000	94.743	172.1359
91.199997	94.703	171.7996
92.500000	94.661	171.4429
93.800003	94.618	171.0793
95.000000	94.577	170.7517
96.199997	94.537	170.4479
97.500000	94.494	170.1221
98.800003	94.453	169.8185
100.000000	94.417	169.5309
101.500000	94.365	169.1659
103.000000	94.313	168.8498
104.400002	94.266	168.5388
106.000000	94.213	168.1971
107.500000	94.164	167.8764
109.000000	94.112	167.5629
110.599998	94.061	167.2570
112.000000	94.014	166.9871
113.800003	93.952	166.6608
115.000000	93.915	166.4463
117.199997	93.841	166.0824
118.000000	93.817	165.9329
120.599998	93.730	165.5031
122.000000	93.679	165.2983
124.099998	93.611	164.9955
125.000000	93.583	164.8682
126.500000	93.534	164.6601
128.000000	93.487	164.4508
131.500000	93.372	163.9932
132.000000	93.356	163.9214
134.000000	93.287	163.6693
136.000000	93.222	163.4147
138.000000	93.156	163.2158
140.000000	93.094	163.0015
143.000000	92.998	162.7174
145.000000	92.934	162.5176
147.500000	92.856	162.2927
150.000000	92.772	162.0889
152.500000	92.696	161.8871
155.000000	92.620	161.6965
157.500000	92.545	161.5106
160.000000	92.470	161.3712
162.500000	92.395	161.2251
165.000000	92.317	161.0789
167.500000	92.243	160.9268
170.000000	92.172	160.8385
172.500000	92.095	160.7479
175.000000	92.017	160.6312
177.500000	91.947	160.5387
180.000000	91.875	160.4745
182.500000	91.801	160.3961
185.000000	91.731	160.3192
187.500000	91.656	160.2637
190.000000	91.589	160.2124
192.500000	91.514	160.1613
195.000000	91.449	160.1313
197.500000	91.378	160.1037
200.000000	91.311	160.1050
203.000000	91.230	160.0922
206.000000	91.149	160.0651
209.000000	91.068	160.0896
212.000000	90.990	160.1127
214.000000	90.933	160.0891
218.000000	90.831	160.1573
220.000000	90.780	160.2051
224.000000	90.679	160.2277
227.000000	90.600	160.2834
230.000000	90.529	160.3538
233.000000	90.455	160.4218
236.000000	90.379	160.4951
240.000000	90.284	160.5927
243.000000	90.212	160.6733
247.000000	90.112	160.8198
250.000000	90.045	160.9050
254.000000	89.952	161.0623
258.000000	89.859	161.2174
262.000000	89.768	161.3481
265.000000	89.701	161.4780
269.000000	89.612	161.6605
272.000000	89.545	161.8006
276.000000	89.459	161.9984
280.000000	89.375	162.1989
285.000000	89.267	162.4474
290.000000	89.161	162.7558
295.000000	89.057	163.0125
300.000000	88.965	163.3247
304.000000	88.879	163.5412
307.000000	88.820	163.7306
311.000000	88.741	163.9719
315.000000	88.664	164.2368
320.000000	88.571	164.5650
325.000000	88.474	164.9027
330.000000	88.389	165.2586
335.000000	88.287	165.6064
340.000000	88.201	165.9378
345.000000	88.111	166.3188
350.000000	88.027	166.6661
355.000000	87.933	167.0807
360.000000	87.848	167.4188
365.000000	87.769	167.8271
370.000000	87.687	168.2557
375.000000	87.602	168.6351
382.000000	87.490	169.1906
387.000000	87.411	169.6304
395.000000	87.286	170.2935
400.000000	87.206	170.6870
406.000000	87.120	171.2159
412.000000	87.036	171.7426
418.000000	86.948	172.2666
425.000000	86.850	172.8734
431.000000	86.762	173.4159
437.000000	86.681	173.9840
444.000000	86.580	174.6006
450.000000	86.503	175.1869
455.000000	86.435	175.6198
462.000000	86.347	176.3081
468.000000	86.275	176.8406
475.000000	86.182	177.5529
482.000000	86.102	178.1856
487.000000	86.042	178.7258
494.000000	85.953	179.3610
500.000000	85.882	179.9502
508.000000	85.789	-179.2828
515.000000	85.719	-178.5559
522.000000	85.637	-177.8404
530.000000	85.549	-177.0493
538.000000	85.463	-176.1786
545.000000	85.396	-175.4911
552.000000	85.326	-174.7460
560.000000	85.242	-173.9692
570.000000	85.157	-172.8634
580.000000	85.061	-171.7922
590.000000	84.968	-170.7054
600.000000	84.880	-169.6227
608.000000	84.808	-168.8354
615.000000	84.767	-168.0356
622.000000	84.700	-167.2711
630.000000	84.637	-166.3218
640.000000	84.562	-165.3061
650.000000	84.500	-164.1727
660.000000	84.417	-162.9869
670.000000	84.347	-161.8805
680.000000	84.286	-160.7951
690.000000	84.231	-159.6432
700.000000	84.177	-158.3840
710.000000	84.122	-157.2713
720.000000	84.070	-156.0333
730.000000	84.026	-154.9084
740.000000	83.982	-153.7223
750.000000	83.940	-152.5505
762.000000	83.889	-151.1145
775.000000	83.856	-149.5874
788.000000	83.831	-148.0592
800.000000	83.803	-146.5723
812.000000	83.779	-145.2238
825.000000	83.765	-143.6173
838.000000	83.764	-142.1247
850.000000	83.766	-140.7063
862.000000	83.771	-139.2833
875.000000	83.783	-137.8153
885.000000	83.805	-136.6496
900.000000	83.833	-135.0068
912.000000	83.869	-133.7224
925.000000	83.904	-132.2754
938.000000	83.955	-130.9858
950.000000	84.013	-129.8296
962.000000	84.053	-128.7579
975.000000	84.104	-127.6561
988.000000	84.163	-126.6032
1000.000000	84.209	-125.6236
1015.000000	84.226	-124.4809
1030.000000	84.231	-123.1868
1044.000000	84.251	-121.9374
1060.000000	84.300	-120.4305
1075.000000	84.378	-118.9430
1090.000000	84.466	-117.5684
1106.000000	84.555	-116.1768
1120.000000	84.645	-115.1199
1138.000000	84.764	-113.8697
1150.000000	84.825	-113.1240
1172.000000	84.948	-111.6620
1180.000000	85.000	-111.2484
1206.000000	85.132	-109.7721
1220.000000	85.198	-108.9957
1241.000000	85.295	-107.9655
1250.000000	85.324	-107.5085
1265.000000	85.389	-106.7949
1280.000000	85.440	-105.9730
1315.000000	85.551	-104.3018
1320.000000	85.575	-104.0624
1340.000000	85.633	-103.1345
1360.000000	85.686	-102.1386
1380.000000	85.739	-101.2255
1400.000000	85.791	-100.2522
1430.000000	85.851	-98.8833
1450.000000	85.902	-97.9175
1475.000000	85.952	-96.6448
1500.000000	86.010	-95.5107
1525.000000	86.054	-94.3138
1550.000000	86.107	-93.0012
1575.000000	86.142	-91.7845
1600.000000	86.206	-90.5189
1625.000000	86.270	-89.2250
1650.000000	86.312	-87.9830
1675.000000	86.373	-86.7037
1700.000000	86.428	-85.4699
1725.000000	86.497	-84.2304
1750.000000	86.562	-82.9015
1775.000000	86.631	-81.6454
1800.000000	86.692	-80.4422
1825.000000	86.775	-79.2290
1850.000000	86.847	-77.9512
1875.000000	86.922	-76.6890
1900.000000	87.006	-75.5425
1925.000000	87.090	-74.2909
1950.000000	87.183	-73.0338
1975.000000	87.275	-71.8982
2000.000000	87.363	-70.7154
2030.000000	87.489	-69.4723
2060.000000	87.604	-68.0904
2090.000000	87.733	-66.8297
2120.000000	87.861	-65.5548
2140.000000	87.946	-64.7253
2180.000000	88.117	-63.1072
2200.000000	88.204	-62.3286
2240.000000	88.388	-60.8431
2270.000000	88.521	-59.8340
2300.000000	88.658	-58.7538
2330.000000	88.791	-57.7552
2360.000000	88.926	-56.7956
2400.000000	89.115	-55.4979
2430.000000	89.257	-54.5889
2470.000000	89.447	-53.4723
2500.000000	89.578	-52.5900
2540.000000	89.765	-51.5715
2580.000000	89.948	-50.4663
2620.000000	90.131	-49.5940
2650.000000	90.269	-48.8604
2690.000000	90.457	-47.9725
2720.000000	90.596	-47.3060
2760.000000	90.779	-46.5265
2800.000000	90.975	-45.7797
2850.000000	91.200	-44.9179
2900.000000	91.437	-44.1374
2950.000000	91.672	-43.4123
3000.000000	91.912	-42.7690
3040.000000	92.092	-42.3935
3070.000000	92.229	-42.1686
3110.000000	92.411	-41.8360
3150.000000	92.588	-41.6246
3200.000000	92.802	-41.4614
3250.000000	93.024	-41.3791
3300.000000	93.225	-41.4031
3350.000000	93.421	-41.5427
3400.000000	93.605	-41.7382
3450.000000	93.777	-42.0857
3500.000000	93.937	-42.4734
3550.000000	94.084	-43.0081
3600.000000	94.217	-43.5253
3650.000000	94.332	-44.1707
3700.000000	94.434	-44.8692
3750.000000	94.512	-45.5779
3820.000000	94.604	-46.6415
3870.000000	94.645	-47.4119
3950.000000	94.675	-48.6013
4000.000000	94.673	-49.3582
4060.000000	94.652	-50.1819
4120.000000	94.610	-50.9627
4180.000000	94.550	-51.6857
4250.000000	94.465	-52.3727
4310.000000	94.372	-52.9029
4370.000000	94.274	-53.2721
4440.000000	94.143	-53.6019
4500.000000	94.031	-53.7501
4550.000000	93.940	-53.8351
4620.000000	93.808	-53.8152
4680.000000	93.702	-53.7550
4750.000000	93.584	-53.6339
4820.000000	93.459	-53.5121
4870.000000	93.375	-53.3996
4940.000000	93.251	-53.1707
5000.000000	93.148	-52.9789
5080.000000	92.995	-52.6068
5150.000000	92.871	-52.2541
5220.000000	92.750	-51.8818
5300.000000	92.618	-51.4697
5380.000000	92.465	-51.0046
5450.000000	92.339	-50.5673
5520.000000	92.214	-50.0575
5600.000000	92.077	-49.6432
5700.000000	91.890	-48.9493
5800.000000	91.701	-48.2611
5900.000000	91.512	-47.6188
6000.000000	91.315	-46.9031
6080.000000	91.149	-46.2725
6150.000000	91.010	-45.7592
6220.000000	90.855	-45.2384
6300.000000	90.679	-44.4852
6400.000000	90.452	-43.6749
6500.000000	90.208	-42.7199
6600.000000	89.976	-41.7806
6700.000000	89.720	-40.7038
6800.000000	89.469	-39.5694
6900.000000	89.195	-38.3787
7000.000000	88.919	-36.9882
7100.000000	88.671	-35.4282
7200.000000	88.408	-33.8826
7300.000000	88.167	-32.3755
7400.000000	87.924	-30.6120
7500.000000	87.661	-28.8501
7620.000000	87.371	-26.5760
7750.000000	87.086	-23.8614
7880.000000	86.805	-21.1946
8000.000000	86.570	-18.6387
8120.000000	86.338	-15.8413
8250.000000	86.109	-12.7413
8380.000000	85.911	-9.6352
8500.000000	85.763	-6.6557
8620.000000	85.646	-3.5694
8750.000000	85.532	-0.1430
8850.000000	85.490	2.4290
9000.000000	85.431	6.2597
9120.000000	85.466	9.3808
9250.000000	85.515	12.7250
9380.000000	85.561	15.9599
9500.000000	85.669	19.0797
9620.000000	85.809	22.0323
9750.000000	86.010	25.2336
9880.000000	86.237	28.1825
10000.000000	86.529	30.7593
10150.000000	86.911	34.0116
10300.000000	87.387	36.7125
10440.000000	87.894	38.9299
10600.000000	88.575	40.8617
10750.000000	89.291	41.9024
10900.000000	90.075	42.0842
11060.000000	90.959	40.6655
11200.000000	91.761	37.9910
11380.000000	92.658	31.8511
11500.000000	93.081	26.1409
11720.000000	93.210	13.6811
11800.000000	93.031	9.1036
12060.000000	91.767	-2.4621
12200.000000	90.857	-6.1993
12410.000000	89.456	-8.8202
12500.000000	88.863	-9.2143
12650.000000	87.957	-8.9267
12800.000000	87.105	-7.7178
13150.000000	85.483	-3.1248
13200.000000	85.303	-2.1258
13400.000000	84.552	1.3332
13600.000000	83.962	5.0887
13800.000000	83.468	9.4232
14000.000000	83.095	13.5034
14300.000000	82.751	19.4987
14500.000000	82.630	23.6882
14750.000000	82.703	28.4779
15000.000000	82.977	32.3215
15250.000000	83.461	35.6964
15500.000000	84.136	37.3285
15750.000000	85.069	36.4323
16000.000000	86.165	31.4714
16250.000000	86.899	21.2947
16500.000000	86.734	7.0086
16750.000000	85.429	-5.7790
17000.000000	83.463	-13.2571
17250.000000	81.466	-15.8627
17500.000000	79.624	-15.0045
17750.000000	77.804	-12.7752
18000.000000	76.446	-7.8732
18250.000000	74.999	-2.7628
18500.000000	73.873	2.7253
18750.000000	72.911	10.3460
19000.000000	72.195	17.4930
19250.000000	71.534	24.7429
19500.000000	71.143	31.8648
19750.000000	70.969	37.5119
