* Measurement data measured by REW V5.20.5
* Source: USB Audio Device, MICROPHONE, 0, volume: 0.250
* Format: 256k Log Swept Sine, 1 sweep at -12.0 dBFS with no timing reference
* Dated: 26 Mar, 2022 7:22:31 PM
* REW Settings:
*  C-weighting compensation: Off
*  Target level: 75.0 dB
* Note: 
* Measurement: HIFIMAN RE800 L
* Smoothing: 1/12 octave
* Frequency Step: 1/48 octave
* Start Frequency: 20.000 Hz
*
* Freq(Hz)	SPL(dB)	Phase(degrees)
20.000000	95.024	75.6420
20.299999	95.131	74.5613
20.600000	95.235	73.5337
20.900000	95.335	72.5541
21.200001	95.431	71.6114
21.400000	95.494	70.9964
21.799999	95.613	69.7823
22.000000	95.668	69.1784
22.400000	95.770	67.9753
22.700001	95.839	67.0820
23.000000	95.900	66.2020
23.299999	95.957	65.3380
23.600000	96.011	64.4875
24.000000	96.082	63.3618
24.299999	96.133	62.5129
24.700001	96.201	61.3660
25.000000	96.249	60.4967
25.400000	96.311	59.3368
25.799999	96.371	58.1911
26.200001	96.431	57.0679
26.500000	96.477	56.2400
26.900000	96.539	55.1528
27.200001	96.584	54.3501
27.600000	96.644	53.3027
28.000000	96.700	52.2902
28.500000	96.768	51.0848
29.000000	96.833	49.9442
29.500000	96.895	48.8535
30.000000	96.954	47.7955
30.400000	96.997	46.9663
30.700001	97.027	46.3531
31.100000	97.064	45.5459
31.500000	97.098	44.7484
32.000000	97.137	43.7605
32.500000	97.171	42.7795
33.000000	97.202	41.8077
33.500000	97.231	40.8491
34.000000	97.259	39.9038
34.500000	97.287	38.9689
35.000000	97.314	38.0457
35.500000	97.339	37.1422
36.000000	97.364	36.2668
36.500000	97.389	35.4191
37.000000	97.414	34.5908
37.500000	97.437	33.7766
38.200001	97.466	32.6687
38.700001	97.483	31.9070
39.500000	97.509	30.7263
40.000000	97.523	29.9992
40.599998	97.536	29.1388
41.200001	97.545	28.3011
41.799999	97.554	27.4860
42.500000	97.564	26.5512
43.099998	97.571	25.7615
43.700001	97.576	24.9891
44.400002	97.584	24.1089
45.000000	97.592	23.3597
45.500000	97.598	22.7310
46.200001	97.604	21.8436
46.799999	97.606	21.0880
47.500000	97.604	20.2332
48.200001	97.602	19.4152
48.700001	97.602	18.8447
49.400002	97.602	18.0504
50.000000	97.600	17.3754
50.799999	97.593	16.5059
51.500000	97.585	15.7855
52.200001	97.577	15.0974
53.000000	97.568	14.3359
53.799999	97.558	13.5861
54.500000	97.549	12.9317
55.200001	97.537	12.2783
56.000000	97.521	11.5364
57.000000	97.500	10.6227
58.000000	97.477	9.7286
59.000000	97.452	8.8637
60.000000	97.428	8.0435
60.799999	97.412	7.4093
61.500000	97.399	6.8487
62.200001	97.384	6.2742
63.000000	97.363	5.6137
64.000000	97.329	4.8195
65.000000	97.294	4.0745
66.000000	97.261	3.3598
67.000000	97.230	2.6604
68.000000	97.200	1.9771
69.000000	97.169	1.3129
70.000000	97.138	0.6707
71.000000	97.106	0.0533
72.000000	97.074	-0.5416
73.000000	97.042	-1.1222
74.000000	97.012	-1.6970
75.000000	96.983	-2.2700
76.199997	96.946	-2.9482
77.500000	96.904	-3.6550
78.800003	96.863	-4.3334
80.000000	96.824	-4.9483
81.199997	96.783	-5.5544
82.500000	96.736	-6.1939
83.800003	96.686	-6.8130
85.000000	96.640	-7.3684
86.199997	96.593	-7.9130
87.500000	96.544	-8.4945
88.500000	96.506	-8.9361
90.000000	96.449	-9.5866
91.199997	96.402	-10.0921
92.500000	96.351	-10.6185
93.800003	96.299	-11.1229
95.000000	96.252	-11.5763
96.199997	96.204	-12.0220
97.500000	96.153	-12.4972
98.800003	96.102	-12.9635
100.000000	96.053	-13.3784
101.500000	95.992	-13.8703
103.000000	95.931	-14.3394
104.400002	95.875	-14.7646
106.000000	95.812	-15.2444
107.500000	95.753	-15.6926
109.000000	95.695	-16.1377
110.599998	95.633	-16.6049
112.000000	95.577	-17.0033
113.800003	95.505	-17.5001
115.000000	95.456	-17.8249
117.199997	95.366	-18.4194
118.000000	95.334	-18.6361
120.599998	95.227	-19.3223
122.000000	95.171	-19.6714
124.099998	95.087	-20.1738
125.000000	95.051	-20.3843
126.500000	94.991	-20.7292
128.000000	94.930	-21.0651
131.500000	94.792	-21.8014
132.000000	94.773	-21.9004
134.000000	94.698	-22.2777
136.000000	94.622	-22.6267
138.000000	94.545	-22.9609
140.000000	94.465	-23.2944
143.000000	94.343	-23.7971
145.000000	94.263	-24.1277
147.500000	94.165	-24.5226
150.000000	94.069	-24.8933
152.500000	93.974	-25.2526
155.000000	93.881	-25.6137
157.500000	93.788	-25.9709
160.000000	93.696	-26.3058
162.500000	93.603	-26.6030
165.000000	93.509	-26.8499
167.500000	93.417	-27.0590
170.000000	93.326	-27.2620
172.500000	93.237	-27.4658
175.000000	93.150	-27.6616
177.500000	93.064	-27.8484
180.000000	92.978	-28.0321
182.500000	92.889	-28.2124
185.000000	92.799	-28.3836
187.500000	92.710	-28.5469
190.000000	92.622	-28.7077
192.500000	92.534	-28.8680
195.000000	92.447	-29.0275
197.500000	92.360	-29.1819
200.000000	92.274	-29.3245
203.000000	92.174	-29.4716
206.000000	92.075	-29.5908
209.000000	91.978	-29.6902
212.000000	91.880	-29.7775
214.000000	91.815	-29.8306
218.000000	91.686	-29.9260
220.000000	91.622	-29.9688
224.000000	91.495	-30.0405
227.000000	91.399	-30.0780
230.000000	91.303	-30.1062
233.000000	91.206	-30.1334
236.000000	91.111	-30.1620
240.000000	90.983	-30.1999
243.000000	90.885	-30.2286
247.000000	90.749	-30.2676
250.000000	90.646	-30.2889
254.000000	90.506	-30.2894
258.000000	90.365	-30.2465
262.000000	90.223	-30.1619
265.000000	90.114	-30.0644
269.000000	89.964	-29.8518
272.000000	89.846	-29.6017
276.000000	89.686	-29.1115
280.000000	89.531	-28.4025
285.000000	89.381	-27.1871
290.000000	89.327	-25.7914
295.000000	89.384	-24.6977
300.000000	89.491	-24.3189
304.000000	89.551	-24.5100
307.000000	89.566	-24.8168
311.000000	89.544	-25.2792
315.000000	89.488	-25.6822
320.000000	89.389	-26.0328
325.000000	89.276	-26.2363
330.000000	89.159	-26.3392
335.000000	89.039	-26.3650
340.000000	88.919	-26.3306
345.000000	88.801	-26.2622
350.000000	88.687	-26.1762
355.000000	88.577	-26.0716
360.000000	88.468	-25.9403
365.000000	88.360	-25.7769
370.000000	88.253	-25.5872
375.000000	88.148	-25.3796
382.000000	88.007	-25.0454
387.000000	87.911	-24.7562
395.000000	87.762	-24.2091
400.000000	87.673	-23.8370
406.000000	87.568	-23.3779
412.000000	87.464	-22.9013
418.000000	87.359	-22.3922
425.000000	87.239	-21.7503
431.000000	87.141	-21.1668
437.000000	87.049	-20.5596
444.000000	86.946	-19.8254
450.000000	86.858	-19.1808
455.000000	86.784	-18.6406
462.000000	86.678	-17.8917
468.000000	86.590	-17.2606
475.000000	86.491	-16.5289
482.000000	86.395	-15.7891
487.000000	86.328	-15.2547
494.000000	86.236	-14.5089
500.000000	86.159	-13.8799
508.000000	86.058	-13.0550
515.000000	85.971	-12.3411
522.000000	85.886	-11.6250
530.000000	85.793	-10.7830
538.000000	85.706	-9.9017
545.000000	85.635	-9.1031
552.000000	85.567	-8.2919
560.000000	85.490	-7.3641
570.000000	85.395	-6.2239
580.000000	85.304	-5.1325
590.000000	85.213	-4.1061
600.000000	85.108	-3.1403
608.000000	84.999	-2.3401
615.000000	84.886	-1.5032
622.000000	84.770	-0.4613
630.000000	84.660	0.9129
640.000000	84.571	2.6143
650.000000	84.519	4.0959
660.000000	84.486	5.3639
670.000000	84.464	6.4855
680.000000	84.445	7.5274
690.000000	84.423	8.5375
700.000000	84.396	9.5320
710.000000	84.366	10.5120
720.000000	84.334	11.4772
730.000000	84.300	12.4334
740.000000	84.268	13.4002
750.000000	84.239	14.4039
762.000000	84.212	15.6825
775.000000	84.194	17.1600
788.000000	84.182	18.7053
800.000000	84.174	20.1722
812.000000	84.170	21.6817
825.000000	84.176	23.3701
838.000000	84.193	25.1067
850.000000	84.214	26.7245
862.000000	84.241	28.3211
875.000000	84.274	30.0119
885.000000	84.304	31.2917
900.000000	84.357	33.1914
912.000000	84.408	34.6873
925.000000	84.470	36.2625
938.000000	84.534	37.7715
950.000000	84.596	39.1085
962.000000	84.661	40.4133
975.000000	84.739	41.8172
988.000000	84.823	43.2235
1000.000000	84.906	44.5133
1015.000000	85.012	46.0958
1030.000000	85.116	47.6495
1044.000000	85.215	49.0935
1060.000000	85.332	50.7574
1075.000000	85.446	52.3312
1090.000000	85.561	53.8900
1106.000000	85.680	55.5013
1120.000000	85.781	56.8546
1138.000000	85.908	58.5111
1150.000000	85.992	59.5676
1172.000000	86.139	61.4258
1180.000000	86.191	62.0793
1206.000000	86.355	64.1514
1220.000000	86.441	65.2454
1241.000000	86.569	66.8378
1250.000000	86.623	67.4913
1265.000000	86.710	68.5230
1280.000000	86.792	69.4638
1315.000000	86.968	71.3098
1320.000000	86.992	71.5444
1340.000000	87.085	72.4549
1360.000000	87.177	73.3695
1380.000000	87.265	74.3442
1400.000000	87.350	75.4465
1430.000000	87.482	77.4737
1450.000000	87.575	79.0940
1475.000000	87.694	81.3118
1500.000000	87.813	83.5243
1525.000000	87.924	85.5518
1550.000000	88.025	87.3852
1575.000000	88.125	89.1902
1600.000000	88.232	91.1646
1625.000000	88.348	93.3917
1650.000000	88.469	95.8215
1675.000000	88.588	98.3530
1700.000000	88.708	100.9016
1725.000000	88.830	103.4106
1750.000000	88.955	105.8209
1775.000000	89.079	108.0693
1800.000000	89.201	110.1223
1825.000000	89.321	112.0120
1850.000000	89.441	113.8363
1875.000000	89.565	115.7198
1900.000000	89.698	117.7375
1925.000000	89.835	119.8820
1950.000000	89.976	122.0810
1975.000000	90.117	124.2381
2000.000000	90.257	126.2800
2030.000000	90.421	128.5491
2060.000000	90.586	130.6944
2090.000000	90.757	132.8334
2120.000000	90.934	135.0267
2140.000000	91.053	136.5160
2180.000000	91.296	139.5151
2200.000000	91.419	141.0022
2240.000000	91.666	143.9103
2270.000000	91.856	146.0027
2300.000000	92.051	147.9494
2330.000000	92.246	149.6488
2360.000000	92.437	151.0303
2400.000000	92.692	152.3802
2430.000000	92.883	153.0876
2470.000000	93.138	153.7560
2500.000000	93.333	154.1518
2540.000000	93.595	154.6595
2580.000000	93.858	155.2354
2620.000000	94.124	155.9062
2650.000000	94.323	156.4211
2690.000000	94.582	156.9923
2720.000000	94.767	157.2866
2760.000000	95.008	157.5577
2800.000000	95.246	157.8038
2850.000000	95.537	158.0828
2900.000000	95.808	158.1367
2950.000000	96.053	157.8813
3000.000000	96.276	157.4249
3040.000000	96.434	156.9762
3070.000000	96.539	156.6174
3110.000000	96.662	156.1555
3150.000000	96.769	155.7210
3200.000000	96.871	155.0884
3250.000000	96.931	154.1501
3300.000000	96.946	152.8628
3350.000000	96.922	151.4195
3400.000000	96.865	150.0890
3450.000000	96.778	149.0675
3500.000000	96.663	148.4477
3550.000000	96.524	148.2345
3600.000000	96.367	148.3703
3650.000000	96.197	148.7742
3700.000000	96.021	149.3912
3750.000000	95.847	150.2056
3820.000000	95.623	151.6498
3870.000000	95.473	152.7964
3950.000000	95.223	154.6739
4000.000000	95.057	155.9778
4060.000000	94.846	157.7790
4120.000000	94.620	159.9383
4180.000000	94.395	162.6757
4250.000000	94.145	166.6693
4310.000000	93.941	170.5218
4370.000000	93.746	174.4507
4440.000000	93.536	178.7731
4500.000000	93.370	-178.0059
4550.000000	93.240	-175.7687
4620.000000	93.077	-173.3037
4680.000000	92.955	-171.7166
4750.000000	92.833	-170.3476
4820.000000	92.732	-169.3400
4870.000000	92.673	-168.7771
4940.000000	92.606	-168.1801
5000.000000	92.561	-167.7873
5080.000000	92.520	-167.1783
5150.000000	92.506	-166.3119
5220.000000	92.509	-165.0521
5300.000000	92.527	-163.1756
5380.000000	92.561	-160.9565
5450.000000	92.603	-158.9058
5520.000000	92.659	-156.8994
5600.000000	92.747	-154.6842
5700.000000	92.917	-151.9313
5800.000000	93.156	-149.4173
5900.000000	93.453	-147.5219
6000.000000	93.804	-146.0515
6080.000000	94.127	-144.8482
6150.000000	94.437	-143.7366
6220.000000	94.770	-142.7324
6300.000000	95.168	-142.0107
6400.000000	95.687	-142.0674
6500.000000	96.225	-143.0985
6600.000000	96.778	-144.7598
6700.000000	97.315	-147.0270
6800.000000	97.797	-149.9980
6900.000000	98.194	-153.4445
7000.000000	98.496	-156.9322
7100.000000	98.736	-160.2337
7200.000000	98.943	-163.7649
7300.000000	99.048	-168.1171
7400.000000	98.958	-172.9486
7500.000000	98.680	-177.3068
7620.000000	98.192	178.9559
7750.000000	97.588	176.9188
7880.000000	96.980	176.4615
8000.000000	96.450	176.8583
8120.000000	95.969	177.8386
8250.000000	95.524	179.5556
8380.000000	95.161	-178.3576
8500.000000	94.898	-176.3260
8620.000000	94.714	-174.0834
8750.000000	94.610	-171.4180
8850.000000	94.596	-169.3782
9000.000000	94.679	-166.7022
9120.000000	94.831	-165.1551
9250.000000	95.070	-164.3835
9380.000000	95.356	-164.9244
9500.000000	95.631	-166.7828
9620.000000	95.875	-169.9318
9750.000000	96.051	-174.6444
9880.000000	96.076	179.6432
10000.000000	95.926	173.9866
10150.000000	95.477	167.1857
10300.000000	94.740	161.3665
10440.000000	93.828	157.3055
10600.000000	92.599	154.6356
10750.000000	91.343	154.0223
10900.000000	90.056	154.8495
11060.000000	88.701	156.5636
11200.000000	87.558	158.3567
11380.000000	86.178	161.1527
11500.000000	85.327	163.4521
11720.000000	83.917	168.4560
11800.000000	83.449	170.3797
12060.000000	82.079	176.4435
12200.000000	81.434	179.7325
12410.000000	80.589	-175.0907
12500.000000	80.268	-172.8867
12650.000000	79.786	-169.4534
12800.000000	79.365	-166.4846
13150.000000	78.610	-161.4008
13200.000000	78.527	-160.8023
13400.000000	78.252	-158.4256
13600.000000	78.064	-156.0702
13800.000000	77.951	-154.2263
14000.000000	77.899	-153.5262
14300.000000	77.928	-154.2881
14500.000000	78.037	-154.8035
14750.000000	78.290	-154.9619
15000.000000	78.688	-154.8300
15250.000000	79.278	-154.3919
15500.000000	80.120	-153.8946
15750.000000	81.226	-154.6541
16000.000000	82.497	-158.6148
16250.000000	83.691	-167.3738
16500.000000	84.486	178.5498
16750.000000	84.612	161.0348
17000.000000	83.963	144.1655
17250.000000	82.633	131.2303
17500.000000	80.829	122.5709
17750.000000	78.776	117.1007
18000.000000	76.652	114.3236
18250.000000	74.566	114.3472
18500.000000	72.563	117.0265
18750.000000	70.645	121.2468
19000.000000	68.795	125.4942
19250.000000	67.007	128.8772
19500.000000	65.311	131.3134
19750.000000	63.827	133.0520
