* Measurement data measured by REW V5.20.5
* Source: USB Sound Device        , MICROPHONE, R, volume: 0.494
* Format: 256k Log Swept Sine, 1 sweep at -6.0 dBFS with no timing reference
* Dated: 28 Oct, 2023 8:26:18 AM
* REW Settings:
*  C-weighting compensation: Off
*  Target level: 75.0 dB
* Note: 
* Measurement: IKKO HIGH EAR C Oct 28
* Smoothing: None
* Frequency Step: 1/48 octave
* Start Frequency: 20.000 Hz
*
* Freq(Hz)	SPL(dB)	Phase(degrees)
20.000000	94.386	-157.0927
20.299999	94.391	-157.6089
20.600000	94.394	-158.1167
20.900000	94.396	-158.6130
21.200001	94.398	-159.0975
21.400000	94.399	-159.4165
21.799999	94.402	-160.0489
22.000000	94.402	-160.3630
22.400000	94.402	-160.9827
22.700001	94.401	-161.4334
23.000000	94.400	-161.8684
23.299999	94.399	-162.2916
23.600000	94.400	-162.7096
24.000000	94.401	-163.2669
24.299999	94.401	-163.6845
24.700001	94.398	-164.2307
25.000000	94.395	-164.6247
25.400000	94.390	-165.1272
25.799999	94.387	-165.6134
26.200001	94.384	-166.0943
26.500000	94.381	-166.4522
26.900000	94.376	-166.9215
27.200001	94.372	-167.2653
27.600000	94.366	-167.7143
28.000000	94.359	-168.1585
28.500000	94.350	-168.7090
29.000000	94.338	-169.2457
29.500000	94.326	-169.7645
30.000000	94.314	-170.2740
30.400000	94.304	-170.6785
30.700001	94.296	-170.9785
31.100000	94.285	-171.3713
31.500000	94.275	-171.7574
32.000000	94.262	-172.2360
32.500000	94.248	-172.7073
33.000000	94.233	-173.1585
33.500000	94.220	-173.5877
34.000000	94.209	-174.0128
34.500000	94.198	-174.4472
35.000000	94.185	-174.8812
35.500000	94.168	-175.2957
36.000000	94.152	-175.6868
36.500000	94.137	-176.0653
37.000000	94.123	-176.4415
37.500000	94.108	-176.8169
38.200001	94.085	-177.3354
38.700001	94.068	-177.6967
39.500000	94.041	-178.2618
40.000000	94.024	-178.6116
40.599998	94.002	-179.0249
41.200001	93.980	-179.4247
41.799999	93.960	-179.8168
42.500000	93.935	179.7284
43.099998	93.913	179.3510
43.700001	93.893	178.9838
44.400002	93.871	178.5486
45.000000	93.849	178.1770
45.500000	93.829	177.8855
46.200001	93.805	177.4962
46.799999	93.786	177.1509
47.500000	93.760	176.7401
48.200001	93.730	176.3664
48.700001	93.712	176.1228
49.400002	93.690	175.7729
50.000000	93.670	175.4475
50.799999	93.639	175.0179
51.500000	93.610	174.6740
52.200001	93.582	174.3418
53.000000	93.553	173.9607
53.799999	93.522	173.5788
54.500000	93.495	173.2485
55.200001	93.467	172.9296
56.000000	93.436	172.5698
57.000000	93.395	172.1279
58.000000	93.353	171.7151
59.000000	93.311	171.3269
60.000000	93.273	170.9471
60.799999	93.241	170.6253
61.500000	93.211	170.3561
62.200001	93.181	170.0992
63.000000	93.148	169.8026
64.000000	93.105	169.4484
65.000000	93.064	169.1137
66.000000	93.026	168.7761
67.000000	92.986	168.4285
68.000000	92.944	168.0983
69.000000	92.902	167.7858
70.000000	92.863	167.4774
71.000000	92.823	167.1452
72.000000	92.781	166.8286
73.000000	92.740	166.5208
74.000000	92.697	166.2341
75.000000	92.660	165.9763
76.199997	92.616	165.6227
77.500000	92.561	165.2835
78.800003	92.509	164.9620
80.000000	92.459	164.6812
81.199997	92.412	164.3947
82.500000	92.357	164.0841
83.800003	92.304	163.7994
85.000000	92.254	163.5283
86.199997	92.205	163.2691
87.500000	92.149	163.0071
88.500000	92.110	162.8142
90.000000	92.049	162.5114
91.199997	92.002	162.2907
92.500000	91.950	162.0488
93.800003	91.898	161.8141
95.000000	91.849	161.6183
96.199997	91.804	161.4269
97.500000	91.753	161.2059
98.800003	91.704	161.0067
100.000000	91.657	160.8048
101.500000	91.600	160.5865
103.000000	91.538	160.3795
104.400002	91.489	160.1966
106.000000	91.424	159.9830
107.500000	91.367	159.7970
109.000000	91.311	159.6165
110.599998	91.253	159.4294
112.000000	91.198	159.2575
113.800003	91.130	159.0798
115.000000	91.084	158.9738
117.199997	91.001	158.7376
118.000000	90.970	158.6779
120.599998	90.875	158.4774
122.000000	90.821	158.3464
124.099998	90.745	158.1952
125.000000	90.712	158.1366
126.500000	90.662	158.0221
128.000000	90.604	157.9122
131.500000	90.478	157.7289
132.000000	90.462	157.7071
134.000000	90.391	157.5914
136.000000	90.321	157.4824
138.000000	90.253	157.3885
140.000000	90.185	157.3289
143.000000	90.081	157.1997
145.000000	90.013	157.1672
147.500000	89.933	157.0831
150.000000	89.852	157.0457
152.500000	89.764	157.0147
155.000000	89.683	156.9906
157.500000	89.599	156.9449
160.000000	89.521	156.9433
162.500000	89.440	156.9246
165.000000	89.366	156.9189
167.500000	89.289	156.9572
170.000000	89.213	156.9715
172.500000	89.134	156.9847
175.000000	89.062	157.0328
177.500000	88.987	157.0684
180.000000	88.912	157.0950
182.500000	88.841	157.1651
185.000000	88.772	157.2353
187.500000	88.701	157.3109
190.000000	88.629	157.3978
192.500000	88.567	157.4613
195.000000	88.496	157.5961
197.500000	88.429	157.6796
200.000000	88.358	157.7698
203.000000	88.279	157.8882
206.000000	88.201	158.0211
209.000000	88.127	158.1535
212.000000	88.046	158.3051
214.000000	88.001	158.4332
218.000000	87.896	158.5901
220.000000	87.843	158.7029
224.000000	87.750	158.9402
227.000000	87.680	159.1745
230.000000	87.604	159.3546
233.000000	87.533	159.5027
236.000000	87.472	159.6874
240.000000	87.374	159.9502
243.000000	87.308	160.1611
247.000000	87.222	160.4348
250.000000	87.153	160.6021
254.000000	87.067	160.9407
258.000000	86.987	161.2376
262.000000	86.905	161.5400
265.000000	86.849	161.7269
269.000000	86.764	162.0813
272.000000	86.702	162.2971
276.000000	86.631	162.6047
280.000000	86.554	162.9440
285.000000	86.465	163.3767
290.000000	86.368	163.7906
295.000000	86.288	164.2242
300.000000	86.196	164.7194
304.000000	86.133	165.0004
307.000000	86.080	165.2278
311.000000	86.019	165.6174
315.000000	85.954	165.9707
320.000000	85.872	166.4500
325.000000	85.794	166.8614
330.000000	85.713	167.3865
335.000000	85.641	167.8336
340.000000	85.571	168.2906
345.000000	85.502	168.7359
350.000000	85.431	169.1842
355.000000	85.368	169.6813
360.000000	85.298	170.1725
365.000000	85.237	170.6786
370.000000	85.162	171.1661
375.000000	85.104	171.5890
382.000000	85.016	172.2732
387.000000	84.961	172.8061
395.000000	84.866	173.6102
400.000000	84.802	174.1295
406.000000	84.740	174.6625
412.000000	84.674	175.3401
418.000000	84.612	175.9556
425.000000	84.534	176.6360
431.000000	84.473	177.2396
437.000000	84.429	177.8379
444.000000	84.355	178.6177
450.000000	84.296	179.2405
455.000000	84.254	179.7042
462.000000	84.190	-179.6283
468.000000	84.144	-178.9579
475.000000	84.095	-178.2218
482.000000	84.031	-177.5305
487.000000	83.994	-176.9961
494.000000	83.944	-176.2589
500.000000	83.899	-175.6313
508.000000	83.849	-174.7769
515.000000	83.803	-174.0853
522.000000	83.746	-173.4363
530.000000	83.699	-172.5535
538.000000	83.659	-171.7096
545.000000	83.616	-171.0322
552.000000	83.577	-170.3032
560.000000	83.533	-169.3967
570.000000	83.478	-168.3629
580.000000	83.432	-167.2504
590.000000	83.380	-166.2294
600.000000	83.344	-165.1793
608.000000	83.299	-164.2890
615.000000	83.278	-163.4879
622.000000	83.262	-162.6844
630.000000	83.234	-161.8016
640.000000	83.210	-160.7668
650.000000	83.214	-159.7110
660.000000	83.185	-158.7498
670.000000	83.159	-157.6801
680.000000	83.142	-156.7059
690.000000	83.128	-155.6067
700.000000	83.118	-154.6170
710.000000	83.113	-153.5933
720.000000	83.113	-152.5343
730.000000	83.104	-151.5171
740.000000	83.102	-150.4284
750.000000	83.108	-149.3608
762.000000	83.117	-148.1687
775.000000	83.128	-146.7437
788.000000	83.146	-145.5233
800.000000	83.168	-144.1776
812.000000	83.197	-143.0347
825.000000	83.235	-141.6943
838.000000	83.271	-140.3426
850.000000	83.314	-139.1434
862.000000	83.353	-138.0211
875.000000	83.398	-136.6130
885.000000	83.443	-135.5253
900.000000	83.503	-133.8946
912.000000	83.591	-132.3701
925.000000	83.728	-130.9628
938.000000	83.888	-129.9492
950.000000	84.007	-129.1712
962.000000	84.120	-128.3802
975.000000	84.218	-127.5864
988.000000	84.325	-126.6715
1000.000000	84.418	-125.9502
1015.000000	84.526	-124.9729
1030.000000	84.652	-124.0673
1044.000000	84.766	-123.2455
1060.000000	84.894	-122.3705
1075.000000	85.019	-121.5553
1090.000000	85.147	-120.8523
1106.000000	85.271	-120.0899
1120.000000	85.379	-119.5098
1138.000000	85.515	-118.8314
1150.000000	85.604	-118.3507
1172.000000	85.772	-117.4812
1180.000000	85.822	-117.1905
1206.000000	86.003	-116.2576
1220.000000	86.099	-115.8071
1241.000000	86.235	-115.0891
1250.000000	86.300	-114.7576
1265.000000	86.404	-114.2368
1280.000000	86.506	-113.8128
1315.000000	86.741	-112.8259
1320.000000	86.774	-112.5749
1340.000000	86.903	-112.0574
1360.000000	87.031	-111.5298
1380.000000	87.167	-111.0258
1400.000000	87.292	-110.5237
1430.000000	87.476	-109.8331
1450.000000	87.595	-109.3319
1475.000000	87.761	-108.8441
1500.000000	87.918	-108.2734
1525.000000	88.078	-107.8125
1550.000000	88.239	-107.3339
1575.000000	88.400	-106.8539
1600.000000	88.560	-106.5039
1625.000000	88.722	-106.0831
1650.000000	88.891	-105.7862
1675.000000	89.048	-105.4533
1700.000000	89.221	-105.1329
1725.000000	89.384	-104.9394
1750.000000	89.554	-104.7774
1775.000000	89.719	-104.6677
1800.000000	89.886	-104.4938
1825.000000	90.058	-104.5112
1850.000000	90.225	-104.4497
1875.000000	90.391	-104.5654
1900.000000	90.562	-104.6381
1925.000000	90.729	-104.8278
1950.000000	90.897	-105.0284
1975.000000	91.054	-105.3380
2000.000000	91.209	-105.6893
2030.000000	91.404	-106.1118
2060.000000	91.584	-106.6988
2090.000000	91.757	-107.3586
2120.000000	91.923	-108.0636
2140.000000	92.026	-108.5695
2180.000000	92.225	-109.7206
2200.000000	92.313	-110.3524
2240.000000	92.483	-111.6459
2270.000000	92.592	-112.7477
2300.000000	92.687	-113.8419
2330.000000	92.767	-114.9557
2360.000000	92.834	-116.1103
2400.000000	92.903	-117.6963
2430.000000	92.934	-118.8687
2470.000000	92.958	-120.3814
2500.000000	92.961	-121.5584
2540.000000	92.940	-123.0356
2580.000000	92.901	-124.4426
2620.000000	92.842	-125.7743
2650.000000	92.788	-126.6799
2690.000000	92.700	-127.8126
2720.000000	92.630	-128.6268
2760.000000	92.529	-129.5284
2800.000000	92.414	-130.3501
2850.000000	92.270	-131.1583
2900.000000	92.127	-131.7489
2950.000000	91.988	-132.1575
3000.000000	91.870	-132.3407
3040.000000	91.780	-132.4828
3070.000000	91.726	-132.4978
3110.000000	91.666	-132.5956
3150.000000	91.622	-132.6292
3200.000000	91.572	-132.7863
3250.000000	91.532	-133.0220
3300.000000	91.466	-133.3863
3350.000000	91.375	-133.5534
3400.000000	91.263	-133.5177
3450.000000	91.180	-133.0064
3500.000000	91.180	-132.1977
3550.000000	91.253	-131.6484
3600.000000	91.350	-131.4967
3650.000000	91.453	-131.5702
3700.000000	91.553	-131.9371
3750.000000	91.649	-132.2936
3820.000000	91.779	-133.0726
3870.000000	91.879	-133.6898
3950.000000	92.051	-135.0416
4000.000000	92.131	-135.8369
4060.000000	92.259	-137.5533
4120.000000	92.352	-139.2797
4180.000000	92.421	-141.2970
4250.000000	92.458	-144.0218
4310.000000	92.412	-146.5273
4370.000000	92.308	-149.0989
4440.000000	92.088	-151.9326
4500.000000	91.822	-153.9091
4550.000000	91.558	-155.1122
4620.000000	91.215	-155.9321
4680.000000	91.001	-155.9549
4750.000000	90.899	-155.8165
4820.000000	90.960	-156.1931
4870.000000	91.048	-157.2708
4940.000000	91.148	-159.8547
5000.000000	91.130	-162.7914
5080.000000	90.902	-167.3084
5150.000000	90.535	-171.1024
5220.000000	90.004	-174.2825
5300.000000	89.337	-177.0442
5380.000000	88.593	-178.8618
5450.000000	87.930	-179.7393
5520.000000	87.278	-179.9822
5600.000000	86.550	-179.5497
5700.000000	85.711	-177.6382
5800.000000	85.232	-174.7189
5900.000000	84.875	-174.5785
6000.000000	84.280	-174.2576
6080.000000	83.743	-173.3172
6150.000000	83.276	-171.9546
6220.000000	82.876	-170.1334
6300.000000	82.441	-167.9074
6400.000000	81.989	-164.9738
6500.000000	81.646	-162.0304
6600.000000	81.368	-159.0144
6700.000000	81.132	-156.2557
6800.000000	80.895	-153.7460
6900.000000	80.726	-151.3105
7000.000000	80.556	-148.7239
7100.000000	80.397	-146.2012
7200.000000	80.257	-143.7244
7300.000000	80.143	-141.2836
7400.000000	80.059	-139.0949
7500.000000	79.979	-136.6249
7620.000000	79.900	-133.9070
7750.000000	79.875	-130.4420
7880.000000	79.864	-127.1503
8000.000000	79.921	-123.9294
8120.000000	80.032	-121.1181
8250.000000	80.213	-117.9224
8380.000000	80.421	-114.8046
8500.000000	80.664	-111.8627
8620.000000	81.017	-108.8388
8750.000000	81.484	-106.0902
8850.000000	81.821	-104.1231
9000.000000	82.532	-101.2530
9120.000000	83.169	-99.5738
9250.000000	83.946	-98.0892
9380.000000	84.829	-97.3750
9500.000000	85.734	-97.5810
9620.000000	86.709	-98.7919
9750.000000	87.802	-101.9222
9880.000000	88.847	-106.9150
10000.000000	89.652	-113.1872
10150.000000	90.268	-122.9213
10300.000000	90.387	-132.6995
10440.000000	90.156	-140.2132
10600.000000	89.759	-146.6370
10750.000000	89.468	-151.0013
10900.000000	89.249	-155.0553
11060.000000	89.026	-159.6573
11200.000000	88.761	-163.8502
11380.000000	88.219	-168.4484
11500.000000	87.796	-170.5724
11720.000000	87.122	-172.4228
11800.000000	86.926	-172.5218
12060.000000	86.595	-171.7795
12200.000000	86.613	-171.2071
12410.000000	86.916	-170.6311
12500.000000	87.123	-170.6864
12650.000000	87.587	-171.3508
12800.000000	88.226	-172.8829
13150.000000	90.029	176.8948
13200.000000	90.278	174.4675
13400.000000	91.055	161.9753
13600.000000	91.167	146.4538
13800.000000	90.468	131.5069
14000.000000	89.252	119.8144
14300.000000	87.174	108.4948
14500.000000	85.916	103.9207
14750.000000	84.587	100.0692
15000.000000	83.527	97.2628
15250.000000	82.835	94.2072
15500.000000	82.320	90.2711
15750.000000	82.047	84.0457
16000.000000	81.547	74.9450
16250.000000	80.636	62.5180
16500.000000	78.678	51.8045
16750.000000	76.236	47.7191
17000.000000	74.138	48.7660
17250.000000	72.356	52.2029
17500.000000	71.351	57.1895
17750.000000	70.403	63.1193
18000.000000	70.037	68.7140
18250.000000	70.550	71.5398
18500.000000	70.882	71.6453
18750.000000	71.358	70.6454
19000.000000	71.800	64.6077
19250.000000	71.854	57.2349
19500.000000	71.344	48.1544
19750.000000	70.621	40.0819
