* Measurement data measured by REW V5.20.5
* Source: USB Sound Device        , MICROPHONE, R, volume: 0.592
* Format: 256k Log Swept Sine, 1 sweep at -6.0 dBFS with no timing reference
* Dated: 28 Sep, 2023 9:15:18 PM
* REW Settings:
*  C-weighting compensation: Off
*  Target level: 75.0 dB
* Note: 
* Measurement: JUZEAR CLEAR Sep 28
* Smoothing: None
* Frequency Step: 1/48 octave
* Start Frequency: 20.000 Hz
*
* Freq(Hz)	SPL(dB)	Phase(degrees)
20.000000	98.079	-172.3132
20.299999	98.059	-172.8412
20.600000	98.039	-173.3599
20.900000	98.019	-173.8604
21.200001	98.000	-174.3393
21.400000	97.989	-174.6522
21.799999	97.970	-175.2777
22.000000	97.960	-175.5949
22.400000	97.939	-176.2354
22.700001	97.921	-176.7037
23.000000	97.900	-177.1443
23.299999	97.880	-177.5561
23.600000	97.862	-177.9504
24.000000	97.842	-178.4725
24.299999	97.827	-178.8724
24.700001	97.804	-179.4090
25.000000	97.784	-179.7997
25.400000	97.756	179.7068
25.799999	97.729	179.2352
26.200001	97.704	178.7659
26.500000	97.685	178.4108
26.900000	97.658	177.9392
27.200001	97.637	177.5930
27.600000	97.609	177.1416
28.000000	97.582	176.6940
28.500000	97.548	176.1334
29.000000	97.513	175.5844
29.500000	97.479	175.0544
30.000000	97.447	174.5299
30.400000	97.421	174.1108
30.700001	97.400	173.8030
31.100000	97.373	173.4101
31.500000	97.347	173.0339
32.000000	97.318	172.5656
32.500000	97.288	172.0859
33.000000	97.253	171.6161
33.500000	97.217	171.1786
34.000000	97.183	170.7637
34.500000	97.150	170.3499
35.000000	97.116	169.9370
35.500000	97.081	169.5352
36.000000	97.046	169.1421
36.500000	97.012	168.7505
37.000000	96.978	168.3632
37.500000	96.943	167.9828
38.200001	96.896	167.4481
38.700001	96.860	167.0667
39.500000	96.801	166.4969
40.000000	96.767	166.1620
40.599998	96.726	165.7611
41.200001	96.686	165.3651
41.799999	96.645	164.9807
42.500000	96.598	164.5366
43.099998	96.556	164.1630
43.700001	96.514	163.8022
44.400002	96.465	163.3862
45.000000	96.422	163.0382
45.500000	96.387	162.7618
46.200001	96.340	162.3787
46.799999	96.299	162.0421
47.500000	96.250	161.6638
48.200001	96.201	161.3115
48.700001	96.167	161.0661
49.400002	96.121	160.7239
50.000000	96.083	160.4268
50.799999	96.028	160.0253
51.500000	95.978	159.6954
52.200001	95.928	159.3906
53.000000	95.874	159.0486
53.799999	95.820	158.7063
54.500000	95.773	158.4052
55.200001	95.724	158.1122
56.000000	95.668	157.7959
57.000000	95.599	157.4209
58.000000	95.533	157.0645
59.000000	95.468	156.6916
60.000000	95.399	156.3340
60.799999	95.345	156.0718
61.500000	95.299	155.8531
62.200001	95.255	155.6244
63.000000	95.203	155.3488
64.000000	95.133	155.0448
65.000000	95.069	154.7652
66.000000	95.005	154.4746
67.000000	94.940	154.1976
68.000000	94.876	153.9305
69.000000	94.811	153.6785
70.000000	94.748	153.4406
71.000000	94.686	153.1958
72.000000	94.623	152.9609
73.000000	94.560	152.7307
74.000000	94.497	152.5210
75.000000	94.435	152.3090
76.199997	94.359	152.0721
77.500000	94.278	151.8319
78.800003	94.200	151.5997
80.000000	94.129	151.3928
81.199997	94.058	151.1727
82.500000	93.976	150.9762
83.800003	93.901	150.7992
85.000000	93.830	150.6255
86.199997	93.760	150.4638
87.500000	93.684	150.2958
88.500000	93.628	150.1750
90.000000	93.542	149.9832
91.199997	93.473	149.8688
92.500000	93.404	149.7282
93.800003	93.329	149.5964
95.000000	93.262	149.4944
96.199997	93.196	149.3976
97.500000	93.126	149.2822
98.800003	93.054	149.1832
100.000000	92.990	149.1101
101.500000	92.912	149.0038
103.000000	92.834	148.9183
104.400002	92.759	148.8478
106.000000	92.679	148.7696
107.500000	92.600	148.7136
109.000000	92.524	148.6496
110.599998	92.444	148.6112
112.000000	92.375	148.5543
113.800003	92.286	148.5172
115.000000	92.227	148.4845
117.199997	92.126	148.4485
118.000000	92.085	148.4325
120.599998	91.962	148.4479
122.000000	91.896	148.4309
124.099998	91.802	148.4427
125.000000	91.758	148.4390
126.500000	91.692	148.4624
128.000000	91.623	148.4873
131.500000	91.470	148.5458
132.000000	91.447	148.5497
134.000000	91.361	148.5841
136.000000	91.276	148.6475
138.000000	91.189	148.7369
140.000000	91.109	148.7912
143.000000	90.983	148.9270
145.000000	90.902	149.0059
147.500000	90.802	149.1244
150.000000	90.699	149.2594
152.500000	90.608	149.3878
155.000000	90.511	149.5163
157.500000	90.419	149.6692
160.000000	90.327	149.8542
162.500000	90.232	150.0087
165.000000	90.150	150.1893
167.500000	90.055	150.3853
170.000000	89.968	150.5602
172.500000	89.882	150.7792
175.000000	89.795	150.9622
177.500000	89.714	151.1505
180.000000	89.630	151.3734
182.500000	89.548	151.5873
185.000000	89.466	151.7875
187.500000	89.389	152.0249
190.000000	89.313	152.2520
192.500000	89.233	152.5064
195.000000	89.157	152.7245
197.500000	89.082	152.9872
200.000000	89.004	153.2244
203.000000	88.914	153.5403
206.000000	88.833	153.8442
209.000000	88.746	154.1409
212.000000	88.665	154.4464
214.000000	88.611	154.6666
218.000000	88.503	155.0911
220.000000	88.455	155.3076
224.000000	88.345	155.7571
227.000000	88.271	156.1201
230.000000	88.193	156.4554
233.000000	88.120	156.7974
236.000000	88.041	157.1500
240.000000	87.950	157.6160
243.000000	87.878	157.9794
247.000000	87.786	158.4677
250.000000	87.721	158.8281
254.000000	87.631	159.3214
258.000000	87.540	159.7836
262.000000	87.457	160.3098
265.000000	87.391	160.6636
269.000000	87.306	161.1735
272.000000	87.248	161.5516
276.000000	87.169	162.0430
280.000000	87.095	162.5844
285.000000	86.997	163.1942
290.000000	86.905	163.8986
295.000000	86.817	164.4987
300.000000	86.734	165.1296
304.000000	86.659	165.6459
307.000000	86.608	166.0518
311.000000	86.545	166.5903
315.000000	86.479	167.0768
320.000000	86.399	167.7230
325.000000	86.327	168.4065
330.000000	86.249	169.0113
335.000000	86.180	169.7041
340.000000	86.106	170.3163
345.000000	86.036	171.0212
350.000000	85.968	171.6706
355.000000	85.902	172.2655
360.000000	85.837	172.9159
365.000000	85.775	173.5827
370.000000	85.713	174.1817
375.000000	85.650	174.8682
382.000000	85.570	175.7249
387.000000	85.510	176.4036
395.000000	85.417	177.3885
400.000000	85.360	178.0375
406.000000	85.290	178.7565
412.000000	85.230	179.5767
418.000000	85.161	-179.6779
425.000000	85.095	-178.7591
431.000000	85.020	-178.0191
437.000000	84.971	-177.2393
444.000000	84.899	-176.3488
450.000000	84.843	-175.5098
455.000000	84.798	-174.8573
462.000000	84.726	-173.9671
468.000000	84.675	-173.2317
475.000000	84.622	-172.3306
482.000000	84.559	-171.4280
487.000000	84.518	-170.7614
494.000000	84.461	-169.8582
500.000000	84.410	-169.0586
508.000000	84.359	-168.0089
515.000000	84.309	-167.0554
522.000000	84.257	-166.2328
530.000000	84.198	-165.1860
538.000000	84.138	-164.1286
545.000000	84.096	-163.2419
552.000000	84.063	-162.3020
560.000000	84.018	-161.2623
570.000000	83.962	-159.9714
580.000000	83.906	-158.6228
590.000000	83.849	-157.3983
600.000000	83.804	-156.0636
608.000000	83.767	-155.0115
615.000000	83.733	-154.1268
622.000000	83.703	-153.2363
630.000000	83.677	-152.1846
640.000000	83.640	-150.7964
650.000000	83.602	-149.5162
660.000000	83.572	-148.2307
670.000000	83.545	-146.9441
680.000000	83.519	-145.6582
690.000000	83.500	-144.3873
700.000000	83.468	-143.0398
710.000000	83.450	-141.7879
720.000000	83.436	-140.3862
730.000000	83.420	-139.1433
740.000000	83.414	-137.8705
750.000000	83.406	-136.5282
762.000000	83.391	-135.0262
775.000000	83.394	-133.3575
788.000000	83.405	-131.6866
800.000000	83.407	-130.1180
812.000000	83.427	-128.5018
825.000000	83.438	-126.9649
838.000000	83.459	-125.2931
850.000000	83.482	-123.8029
862.000000	83.513	-122.2424
875.000000	83.540	-120.6352
885.000000	83.586	-119.4330
900.000000	83.622	-117.5449
912.000000	83.670	-116.1200
925.000000	83.721	-114.5580
938.000000	83.781	-113.0343
950.000000	83.831	-111.5604
962.000000	83.887	-110.1947
975.000000	83.958	-108.6124
988.000000	84.004	-107.1056
1000.000000	84.092	-105.6571
1015.000000	84.157	-103.9684
1030.000000	84.242	-102.0611
1044.000000	84.343	-100.2218
1060.000000	84.494	-98.2380
1075.000000	84.670	-96.2698
1090.000000	84.869	-94.6747
1106.000000	85.099	-93.2257
1120.000000	85.287	-92.1370
1138.000000	85.507	-90.9370
1150.000000	85.658	-90.1425
1172.000000	85.897	-88.8309
1180.000000	85.986	-88.4264
1206.000000	86.256	-87.1006
1220.000000	86.393	-86.5375
1241.000000	86.586	-85.6352
1250.000000	86.658	-85.2439
1265.000000	86.790	-84.7193
1280.000000	86.900	-84.1768
1315.000000	87.129	-83.0533
1320.000000	87.157	-82.8586
1340.000000	87.265	-82.1997
1360.000000	87.370	-81.4578
1380.000000	87.462	-80.7388
1400.000000	87.549	-80.0215
1430.000000	87.675	-78.8507
1450.000000	87.755	-78.0360
1475.000000	87.846	-76.9570
1500.000000	87.945	-75.9968
1525.000000	88.034	-74.8733
1550.000000	88.138	-73.7932
1575.000000	88.230	-72.6510
1600.000000	88.327	-71.5512
1625.000000	88.423	-70.4251
1650.000000	88.531	-69.3169
1675.000000	88.632	-68.2378
1700.000000	88.741	-67.1219
1725.000000	88.840	-66.0643
1750.000000	88.969	-64.9908
1775.000000	89.067	-63.9136
1800.000000	89.177	-62.8504
1825.000000	89.299	-61.8440
1850.000000	89.419	-60.8319
1875.000000	89.536	-59.8530
1900.000000	89.659	-58.9610
1925.000000	89.779	-57.9832
1950.000000	89.898	-57.0825
1975.000000	90.035	-56.1623
2000.000000	90.151	-55.2546
2030.000000	90.303	-54.3396
2060.000000	90.452	-53.3828
2090.000000	90.604	-52.4883
2120.000000	90.757	-51.5945
2140.000000	90.855	-51.0035
2180.000000	91.059	-49.9577
2200.000000	91.159	-49.4262
2240.000000	91.356	-48.5054
2270.000000	91.510	-47.8540
2300.000000	91.651	-47.1998
2330.000000	91.802	-46.6357
2360.000000	91.943	-46.0898
2400.000000	92.124	-45.4341
2430.000000	92.259	-44.9679
2470.000000	92.431	-44.4294
2500.000000	92.556	-44.0542
2540.000000	92.712	-43.6078
2580.000000	92.864	-43.1961
2620.000000	93.012	-42.8558
2650.000000	93.113	-42.6113
2690.000000	93.243	-42.3160
2720.000000	93.337	-42.1541
2760.000000	93.448	-41.8595
2800.000000	93.549	-41.6858
2850.000000	93.666	-41.4391
2900.000000	93.771	-41.1431
2950.000000	93.866	-40.8746
3000.000000	93.952	-40.5636
3040.000000	94.003	-40.3751
3070.000000	94.044	-40.1712
3110.000000	94.091	-39.9076
3150.000000	94.136	-39.6144
3200.000000	94.183	-39.1775
3250.000000	94.225	-38.7454
3300.000000	94.273	-38.2306
3350.000000	94.313	-37.7029
3400.000000	94.351	-37.1308
3450.000000	94.395	-36.5148
3500.000000	94.441	-35.8870
3550.000000	94.490	-35.1898
3600.000000	94.543	-34.4852
3650.000000	94.601	-33.7546
3700.000000	94.667	-33.0215
3750.000000	94.738	-32.3090
3820.000000	94.848	-31.3458
3870.000000	94.935	-30.6190
3950.000000	95.096	-29.5649
4000.000000	95.199	-29.0494
4060.000000	95.348	-28.3179
4120.000000	95.498	-27.7185
4180.000000	95.659	-27.2764
4250.000000	95.851	-26.9213
4310.000000	96.028	-26.8075
4370.000000	96.206	-26.8538
4440.000000	96.409	-27.1312
4500.000000	96.570	-27.6718
4550.000000	96.698	-28.2872
4620.000000	96.838	-29.4789
4680.000000	96.914	-30.7609
4750.000000	96.902	-32.4658
4820.000000	96.701	-33.5127
4870.000000	96.585	-32.3612
4940.000000	96.983	-31.5169
5000.000000	97.242	-33.4991
5080.000000	97.268	-37.1582
5150.000000	97.114	-39.8715
5220.000000	96.883	-42.0289
5300.000000	96.550	-43.9653
5380.000000	96.178	-45.3869
5450.000000	95.830	-46.1866
5520.000000	95.465	-46.6092
5600.000000	95.046	-46.6765
5700.000000	94.533	-46.2361
5800.000000	94.044	-45.2456
5900.000000	93.587	-43.7551
6000.000000	93.168	-42.0309
6080.000000	92.872	-40.3347
6150.000000	92.639	-38.8002
6220.000000	92.411	-37.1862
6300.000000	92.205	-35.1323
6400.000000	91.969	-32.6464
6500.000000	91.784	-30.0667
6600.000000	91.650	-27.5724
6700.000000	91.571	-25.0578
6800.000000	91.530	-22.6355
6900.000000	91.527	-20.3726
7000.000000	91.575	-18.2914
7100.000000	91.659	-16.4398
7200.000000	91.782	-14.9565
7300.000000	91.945	-13.8311
7400.000000	92.115	-13.1592
7500.000000	92.291	-13.1594
7620.000000	92.478	-13.7615
7750.000000	92.642	-15.3864
7880.000000	92.675	-17.8833
8000.000000	92.540	-20.7324
8120.000000	92.246	-23.7289
8250.000000	91.736	-26.6563
8380.000000	91.072	-28.8183
8500.000000	90.364	-30.0464
8620.000000	89.595	-30.3236
8750.000000	88.749	-29.6639
8850.000000	88.124	-28.5620
9000.000000	87.195	-26.1248
9120.000000	86.515	-23.4792
9250.000000	85.836	-20.1086
9380.000000	85.238	-16.6001
9500.000000	84.710	-13.0304
9620.000000	84.256	-8.8854
9750.000000	83.813	-4.3242
9880.000000	83.469	0.3855
10000.000000	83.167	4.8230
10150.000000	82.910	10.5285
10300.000000	82.738	16.4955
10440.000000	82.665	21.8753
10600.000000	82.688	28.4310
10750.000000	82.806	34.3659
10900.000000	83.068	40.3598
11060.000000	83.472	46.3868
11200.000000	83.969	51.5808
11380.000000	84.803	57.8666
11500.000000	85.517	61.5944
11720.000000	87.251	66.5390
11800.000000	87.995	67.5486
12060.000000	90.986	64.6350
12200.000000	92.759	56.4948
12410.000000	94.289	31.8419
12500.000000	93.970	19.2625
12650.000000	92.345	3.2510
12800.000000	90.289	-4.8822
13150.000000	86.142	-7.8845
13200.000000	85.623	-7.3539
13400.000000	83.858	-4.0483
13600.000000	82.334	1.0170
13800.000000	81.108	7.1332
14000.000000	80.200	13.7009
14300.000000	79.252	24.2252
14500.000000	78.890	30.6145
14750.000000	78.619	37.7452
15000.000000	78.631	44.0083
15250.000000	78.706	49.5510
15500.000000	79.063	53.5228
15750.000000	79.391	56.7561
16000.000000	79.704	58.1607
16250.000000	80.403	58.3830
16500.000000	80.807	56.3318
16750.000000	80.908	51.7914
17000.000000	80.675	46.4379
17250.000000	80.047	42.2291
17500.000000	79.096	38.3137
17750.000000	78.032	36.4987
18000.000000	76.882	35.1334
18250.000000	75.637	34.5188
18500.000000	74.284	33.7863
18750.000000	72.568	32.9364
19000.000000	70.916	33.5586
19250.000000	68.773	35.9040
19500.000000	66.375	40.3181
19750.000000	64.245	43.4038
