* Measurement data measured by REW V5.20.5
* Source: USB Sound Device        , MICROPHONE, R, volume: 0.501
* Format: 256k Log Swept Sine, 1 sweep at -6.0 dBFS with no timing reference
* Dated: 25 Sep, 2023 10:04:09 PM
* REW Settings:
*  C-weighting compensation: Off
*  Target level: 75.0 dB
* Note: 
* Measurement: kbear kb01 Sep 25
* Smoothing: None
* Frequency Step: 1/48 octave
* Start Frequency: 20.000 Hz
*
* Freq(Hz)	SPL(dB)	Phase(degrees)
20.000000	93.370	14.4243
20.299999	93.363	13.8738
20.600000	93.357	13.3298
20.900000	93.351	12.7908
21.200001	93.345	12.2577
21.400000	93.340	11.9087
21.799999	93.330	11.2316
22.000000	93.326	10.9049
22.400000	93.317	10.2727
22.700001	93.312	9.8108
23.000000	93.307	9.3545
23.299999	93.300	8.9056
23.600000	93.292	8.4696
24.000000	93.280	7.9160
24.299999	93.270	7.5220
24.700001	93.258	7.0150
25.000000	93.249	6.6382
25.400000	93.236	6.1324
25.799999	93.219	5.6274
26.200001	93.199	5.1359
26.500000	93.182	4.7808
26.900000	93.160	4.3230
27.200001	93.143	3.9862
27.600000	93.121	3.5394
28.000000	93.099	3.0930
28.500000	93.072	2.5385
29.000000	93.044	1.9904
29.500000	93.017	1.4485
30.000000	92.990	0.9153
30.400000	92.968	0.4993
30.700001	92.951	0.1962
31.100000	92.929	-0.1933
31.500000	92.907	-0.5662
32.000000	92.882	-1.0152
32.500000	92.859	-1.4586
33.000000	92.835	-1.9038
33.500000	92.808	-2.3422
34.000000	92.778	-2.7604
34.500000	92.748	-3.1594
35.000000	92.717	-3.5511
35.500000	92.685	-3.9399
36.000000	92.652	-4.3169
36.500000	92.618	-4.6776
37.000000	92.586	-5.0312
37.500000	92.554	-5.3870
38.200001	92.509	-5.8827
38.700001	92.477	-6.2263
39.500000	92.427	-6.7614
40.000000	92.397	-7.0905
40.599998	92.359	-7.4785
41.200001	92.321	-7.8546
41.799999	92.282	-8.2097
42.500000	92.237	-8.5950
43.099998	92.200	-8.9188
43.700001	92.163	-9.2463
44.400002	92.118	-9.6172
45.000000	92.079	-9.9199
45.500000	92.048	-10.1705
46.200001	92.002	-10.5193
46.799999	91.963	-10.8060
47.500000	91.919	-11.1333
48.200001	91.875	-11.4720
48.700001	91.841	-11.7131
49.400002	91.791	-12.0197
50.000000	91.750	-12.2495
50.799999	91.702	-12.5532
51.500000	91.660	-12.8403
52.200001	91.614	-13.1163
53.000000	91.564	-13.3988
53.799999	91.516	-13.6864
54.500000	91.472	-13.9403
55.200001	91.427	-14.1698
56.000000	91.380	-14.4314
57.000000	91.314	-14.7781
58.000000	91.246	-15.0284
59.000000	91.194	-15.3067
60.000000	91.129	-15.6523
60.799999	91.074	-15.8456
61.500000	91.034	-16.0034
62.200001	90.994	-16.1877
63.000000	90.945	-16.3890
64.000000	90.886	-16.6155
65.000000	90.825	-16.8385
66.000000	90.764	-17.0406
67.000000	90.705	-17.2335
68.000000	90.645	-17.4279
69.000000	90.587	-17.6094
70.000000	90.528	-17.7928
71.000000	90.470	-17.9434
72.000000	90.417	-18.1085
73.000000	90.360	-18.2762
74.000000	90.304	-18.4120
75.000000	90.249	-18.5555
76.199997	90.181	-18.7026
77.500000	90.109	-18.8627
78.800003	90.037	-18.9911
80.000000	89.974	-19.1118
81.199997	89.909	-19.2302
82.500000	89.839	-19.3341
83.800003	89.772	-19.4313
85.000000	89.710	-19.5319
86.199997	89.647	-19.6011
87.500000	89.583	-19.6960
88.500000	89.530	-19.7458
90.000000	89.459	-19.8115
91.199997	89.401	-19.8787
92.500000	89.334	-19.9369
93.800003	89.270	-19.9561
95.000000	89.214	-19.9851
96.199997	89.157	-20.0181
97.500000	89.097	-20.0383
98.800003	89.034	-20.0762
100.000000	88.980	-20.0455
101.500000	88.914	-20.0873
103.000000	88.846	-20.0693
104.400002	88.781	-20.0553
106.000000	88.715	-20.0164
107.500000	88.651	-20.0139
109.000000	88.590	-20.0063
110.599998	88.515	-19.9528
112.000000	88.461	-19.8961
113.800003	88.388	-19.8300
115.000000	88.338	-19.7750
117.199997	88.250	-19.7111
118.000000	88.219	-19.6617
120.599998	88.121	-19.5615
122.000000	88.062	-19.4666
124.099998	87.993	-19.3718
125.000000	87.958	-19.3203
126.500000	87.900	-19.2617
128.000000	87.846	-19.1132
131.500000	87.729	-18.8766
132.000000	87.713	-18.8484
134.000000	87.643	-18.6958
136.000000	87.573	-18.5406
138.000000	87.505	-18.4274
140.000000	87.442	-18.2651
143.000000	87.351	-17.9788
145.000000	87.286	-17.8311
147.500000	87.203	-17.6057
150.000000	87.123	-17.4387
152.500000	87.067	-17.1763
155.000000	86.996	-16.9489
157.500000	86.923	-16.6761
160.000000	86.857	-16.4230
162.500000	86.790	-16.1888
165.000000	86.727	-15.9471
167.500000	86.663	-15.6564
170.000000	86.604	-15.3651
172.500000	86.537	-15.1091
175.000000	86.473	-14.8484
177.500000	86.420	-14.5662
180.000000	86.355	-14.3173
182.500000	86.304	-14.0251
185.000000	86.249	-13.7830
187.500000	86.197	-13.4720
190.000000	86.144	-13.2484
192.500000	86.090	-12.9198
195.000000	86.042	-12.6301
197.500000	85.995	-12.3417
200.000000	85.938	-12.0255
203.000000	85.886	-11.7071
206.000000	85.833	-11.3323
209.000000	85.784	-10.9960
212.000000	85.731	-10.6222
214.000000	85.690	-10.4011
218.000000	85.626	-9.9386
220.000000	85.590	-9.6737
224.000000	85.529	-9.2337
227.000000	85.484	-8.9109
230.000000	85.431	-8.5029
233.000000	85.386	-8.1389
236.000000	85.350	-7.8240
240.000000	85.289	-7.2885
243.000000	85.248	-6.9659
247.000000	85.199	-6.5409
250.000000	85.160	-6.1238
254.000000	85.108	-5.6808
258.000000	85.065	-5.1984
262.000000	85.019	-4.7233
265.000000	84.983	-4.3643
269.000000	84.939	-3.9315
272.000000	84.900	-3.5147
276.000000	84.857	-3.0404
280.000000	84.821	-2.6019
285.000000	84.769	-2.0007
290.000000	84.721	-1.4506
295.000000	84.674	-0.8555
300.000000	84.629	-0.2717
304.000000	84.596	0.1917
307.000000	84.568	0.4885
311.000000	84.537	0.9547
315.000000	84.509	1.4241
320.000000	84.474	2.0015
325.000000	84.442	2.5825
330.000000	84.405	3.1192
335.000000	84.373	3.7155
340.000000	84.338	4.2648
345.000000	84.309	4.7824
350.000000	84.283	5.3561
355.000000	84.257	5.8849
360.000000	84.227	6.3981
365.000000	84.203	6.9626
370.000000	84.180	7.5338
375.000000	84.161	8.0366
382.000000	84.129	8.7349
387.000000	84.109	9.2371
395.000000	84.078	10.1133
400.000000	84.069	10.6241
406.000000	84.038	11.2164
412.000000	84.016	11.8380
418.000000	83.999	12.4401
425.000000	83.981	13.1495
431.000000	83.967	13.6702
437.000000	83.942	14.2662
444.000000	83.932	14.9664
450.000000	83.914	15.5404
455.000000	83.891	15.9881
462.000000	83.888	16.5850
468.000000	83.862	17.2206
475.000000	83.852	17.8334
482.000000	83.845	18.5204
487.000000	83.833	18.9541
494.000000	83.814	19.5581
500.000000	83.798	20.1682
508.000000	83.798	20.9375
515.000000	83.789	21.4968
522.000000	83.774	22.1603
530.000000	83.760	22.8528
538.000000	83.750	23.6191
545.000000	83.743	24.2255
552.000000	83.743	24.9312
560.000000	83.734	25.5706
570.000000	83.722	26.4810
580.000000	83.721	27.3538
590.000000	83.712	28.2582
600.000000	83.710	29.1393
608.000000	83.715	29.8562
615.000000	83.716	30.5032
622.000000	83.708	31.1016
630.000000	83.712	31.8453
640.000000	83.725	32.7275
650.000000	83.724	33.5371
660.000000	83.734	34.4404
670.000000	83.744	35.3485
680.000000	83.763	36.2387
690.000000	83.773	37.1228
700.000000	83.791	38.0081
710.000000	83.802	38.9002
720.000000	83.826	39.7043
730.000000	83.855	40.5917
740.000000	83.879	41.5089
750.000000	83.892	42.2687
762.000000	83.956	43.3739
775.000000	83.994	44.4230
788.000000	84.047	45.5945
800.000000	84.101	46.5468
812.000000	84.163	47.4487
825.000000	84.229	48.4545
838.000000	84.315	49.2834
850.000000	84.412	50.0190
862.000000	84.473	50.3662
875.000000	84.499	50.5464
885.000000	84.395	50.5174
900.000000	84.148	52.9746
912.000000	84.318	55.3705
925.000000	84.523	56.3835
938.000000	84.641	57.3180
950.000000	84.729	58.1010
962.000000	84.813	58.9359
975.000000	84.924	59.7408
988.000000	85.037	60.5597
1000.000000	85.133	61.2142
1015.000000	85.245	62.1394
1030.000000	85.371	62.8992
1044.000000	85.487	63.5732
1060.000000	85.612	64.3588
1075.000000	85.728	65.0480
1090.000000	85.839	65.6812
1106.000000	85.960	66.3123
1120.000000	86.064	66.8530
1138.000000	86.189	67.5332
1150.000000	86.270	67.8835
1172.000000	86.427	68.6288
1180.000000	86.478	68.9303
1206.000000	86.644	69.7856
1220.000000	86.727	70.1906
1241.000000	86.869	70.8961
1250.000000	86.919	71.2445
1265.000000	87.024	71.7812
1280.000000	87.128	72.2455
1315.000000	87.379	73.2191
1320.000000	87.424	73.3998
1340.000000	87.581	73.8273
1360.000000	87.735	74.0791
1380.000000	87.873	74.3305
1400.000000	88.002	74.4423
1430.000000	88.163	74.6692
1450.000000	88.252	74.8826
1475.000000	88.378	75.1797
1500.000000	88.480	75.4961
1525.000000	88.594	75.8173
1550.000000	88.694	76.2139
1575.000000	88.809	76.6328
1600.000000	88.916	76.9866
1625.000000	89.027	77.3525
1650.000000	89.144	77.7105
1675.000000	89.257	78.0787
1700.000000	89.368	78.4396
1725.000000	89.483	78.7562
1750.000000	89.608	79.0943
1775.000000	89.723	79.3989
1800.000000	89.839	79.6729
1825.000000	89.963	79.9638
1850.000000	90.084	80.1495
1875.000000	90.205	80.3806
1900.000000	90.328	80.5711
1925.000000	90.455	80.7397
1950.000000	90.575	80.8604
1975.000000	90.702	80.9571
2000.000000	90.820	81.0822
2030.000000	90.976	81.1634
2060.000000	91.118	81.1917
2090.000000	91.269	81.1584
2120.000000	91.414	81.1022
2140.000000	91.515	81.0295
2180.000000	91.699	80.8848
2200.000000	91.798	80.7441
2240.000000	91.983	80.4772
2270.000000	92.113	80.2000
2300.000000	92.246	79.8963
2330.000000	92.381	79.5646
2360.000000	92.501	79.1523
2400.000000	92.664	78.6136
2430.000000	92.781	78.1590
2470.000000	92.933	77.4842
2500.000000	93.036	76.9302
2540.000000	93.167	76.1771
2580.000000	93.289	75.3492
2620.000000	93.407	74.4973
2650.000000	93.485	73.8696
2690.000000	93.586	72.9528
2720.000000	93.650	72.2742
2760.000000	93.730	71.3455
2800.000000	93.800	70.3504
2850.000000	93.876	69.1232
2900.000000	93.938	67.9132
2950.000000	93.989	66.7001
3000.000000	94.023	65.4646
3040.000000	94.049	64.5594
3070.000000	94.055	63.8843
3110.000000	94.069	62.9571
3150.000000	94.073	62.0477
3200.000000	94.076	60.9323
3250.000000	94.069	59.8466
3300.000000	94.060	58.8506
3350.000000	94.041	57.8709
3400.000000	94.029	56.9172
3450.000000	94.010	55.9450
3500.000000	93.986	55.0308
3550.000000	93.966	54.1362
3600.000000	93.944	53.2347
3650.000000	93.918	52.3652
3700.000000	93.898	51.5048
3750.000000	93.877	50.6355
3820.000000	93.840	49.3687
3870.000000	93.817	48.4386
3950.000000	93.768	46.9517
4000.000000	93.737	45.9929
4060.000000	93.697	44.8294
4120.000000	93.650	43.6152
4180.000000	93.601	42.3940
4250.000000	93.531	40.9361
4310.000000	93.456	39.5797
4370.000000	93.370	38.2661
4440.000000	93.263	36.6964
4500.000000	93.151	35.3465
4550.000000	93.049	34.2891
4620.000000	92.892	32.7223
4680.000000	92.740	31.4264
4750.000000	92.548	30.0573
4820.000000	92.333	28.7270
4870.000000	92.175	27.8539
4940.000000	91.924	26.6865
5000.000000	91.709	25.8720
5080.000000	91.393	24.7816
5150.000000	91.105	24.0435
5220.000000	90.812	23.4754
5300.000000	90.433	23.0619
5380.000000	90.003	23.3930
5450.000000	89.668	25.1597
5520.000000	89.759	26.9038
5600.000000	89.822	26.0439
5700.000000	89.548	24.4595
5800.000000	89.186	24.2251
5900.000000	88.858	24.5801
6000.000000	88.572	25.2648
6080.000000	88.370	25.8575
6150.000000	88.226	26.3900
6220.000000	88.089	27.0181
6300.000000	87.961	27.8497
6400.000000	87.816	28.8333
6500.000000	87.742	29.8024
6600.000000	87.678	30.7274
6700.000000	87.640	31.4596
6800.000000	87.636	32.2311
6900.000000	87.691	32.8113
7000.000000	87.766	33.2664
7100.000000	87.854	33.4493
7200.000000	87.980	33.3865
7300.000000	88.139	33.0474
7400.000000	88.302	32.2430
7500.000000	88.461	30.9836
7620.000000	88.647	28.8848
7750.000000	88.771	25.7906
7880.000000	88.801	22.0137
8000.000000	88.709	18.1179
8120.000000	88.439	14.0551
8250.000000	87.989	10.0463
8380.000000	87.375	6.8112
8500.000000	86.713	5.0634
8620.000000	86.019	4.4349
8750.000000	85.341	5.0768
8850.000000	84.928	6.3840
9000.000000	84.528	8.9490
9120.000000	84.415	10.5673
9250.000000	84.449	11.6768
9380.000000	84.496	11.5526
9500.000000	84.457	10.7068
9620.000000	84.344	9.6056
9750.000000	84.128	8.5203
9880.000000	83.850	8.0751
10000.000000	83.580	7.9658
10150.000000	83.263	8.4594
10300.000000	83.036	9.5798
10440.000000	82.869	11.0455
10600.000000	82.786	12.7966
10750.000000	82.804	14.8849
10900.000000	82.962	17.0200
11060.000000	83.229	18.8372
11200.000000	83.584	20.3842
11380.000000	84.226	22.0469
11500.000000	84.737	22.6893
11720.000000	85.984	22.7334
11800.000000	86.525	22.1151
12060.000000	88.659	16.6684
12200.000000	89.964	9.8722
12410.000000	91.590	-8.2399
12500.000000	91.881	-18.6851
12650.000000	91.469	-36.6688
12800.000000	90.200	-51.1079
13150.000000	86.524	-67.7411
13200.000000	86.058	-68.7194
13400.000000	84.377	-71.1923
13600.000000	82.978	-72.4098
13800.000000	81.867	-71.9808
14000.000000	80.979	-72.0166
14300.000000	79.976	-71.7206
14500.000000	79.540	-71.9744
14750.000000	79.133	-73.3148
15000.000000	78.801	-76.2223
15250.000000	78.501	-79.4253
15500.000000	78.120	-84.9487
15750.000000	77.500	-90.7437
16000.000000	76.671	-97.5801
16250.000000	75.626	-102.2747
16500.000000	74.569	-106.8373
16750.000000	73.294	-108.3013
17000.000000	72.069	-108.9724
17250.000000	71.106	-108.8634
17500.000000	70.371	-107.5559
17750.000000	69.880	-106.7469
18000.000000	69.515	-105.9739
18250.000000	69.572	-106.8361
18500.000000	69.175	-111.6195
18750.000000	68.689	-118.1622
19000.000000	67.561	-123.9814
19250.000000	66.303	-128.1658
19500.000000	64.577	-131.3983
19750.000000	62.682	-131.0851
