* Measurement data measured by REW V5.20.5
* Source: USB Sound Device        , MICROPHONE, R, volume: 0.706
* Format: 256k Log Swept Sine, 1 sweep at -6.0 dBFS with no timing reference
* Dated: 29 Jun, 2023 11:58:07 AM
* REW Settings:
*  C-weighting compensation: Off
*  Target level: 75.0 dB
* Note: 
* Measurement: KIWIEARS DOLCE
* Smoothing: None
* Frequency Step: 1/48 octave
* Start Frequency: 20.000 Hz
*
* Freq(Hz)	SPL(dB)	Phase(degrees)
20.000000	93.935	-164.6507
20.299999	93.937	-165.0409
20.600000	93.940	-165.4291
20.900000	93.944	-165.8087
21.200001	93.950	-166.1742
21.400000	93.955	-166.4105
21.799999	93.967	-166.8685
22.000000	93.974	-167.0907
22.400000	93.988	-167.5192
22.700001	93.998	-167.8210
23.000000	94.007	-168.1028
23.299999	94.017	-168.3682
23.600000	94.027	-168.6234
24.000000	94.038	-168.9552
24.299999	94.043	-169.1967
24.700001	94.046	-169.4991
25.000000	94.045	-169.7063
25.400000	94.043	-169.9617
25.799999	94.042	-170.2137
26.200001	94.038	-170.4800
26.500000	94.033	-170.6877
26.900000	94.023	-170.9626
27.200001	94.015	-171.1598
27.600000	94.006	-171.4135
28.000000	94.001	-171.6759
28.500000	93.999	-172.0441
29.000000	93.994	-172.4504
29.500000	93.986	-172.8521
30.000000	93.977	-173.2102
30.400000	93.974	-173.4659
30.700001	93.975	-173.6501
31.100000	93.979	-173.9009
31.500000	93.983	-174.1628
32.000000	93.984	-174.4869
32.500000	93.981	-174.7694
33.000000	93.981	-175.0032
33.500000	93.985	-175.2346
34.000000	93.990	-175.5117
34.500000	93.984	-175.8167
35.000000	93.969	-176.0882
35.500000	93.952	-176.2976
36.000000	93.942	-176.4843
36.500000	93.936	-176.6982
37.000000	93.928	-176.9431
37.500000	93.918	-177.1884
38.200001	93.904	-177.5054
38.700001	93.897	-177.7279
39.500000	93.888	-178.0984
40.000000	93.881	-178.3307
40.599998	93.873	-178.6014
41.200001	93.862	-178.8578
41.799999	93.851	-179.0945
42.500000	93.840	-179.3486
43.099998	93.833	-179.5664
43.700001	93.826	-179.8028
44.400002	93.813	179.9158
45.000000	93.801	179.6991
45.500000	93.793	179.5256
46.200001	93.782	179.2576
46.799999	93.768	179.0219
47.500000	93.751	178.7878
48.200001	93.737	178.5603
48.700001	93.725	178.3841
49.400002	93.703	178.1727
50.000000	93.689	178.0446
50.799999	93.684	177.8273
51.500000	93.676	177.5364
52.200001	93.652	177.2659
53.000000	93.626	177.0705
53.799999	93.616	176.8894
54.500000	93.609	176.6761
55.200001	93.597	176.4424
56.000000	93.577	176.1962
57.000000	93.550	175.9675
58.000000	93.536	175.7344
59.000000	93.512	175.4076
60.000000	93.478	175.1808
60.799999	93.464	175.0046
61.500000	93.449	174.8096
62.200001	93.433	174.6342
63.000000	93.419	174.4363
64.000000	93.396	174.1459
65.000000	93.365	173.9484
66.000000	93.345	173.7646
67.000000	93.320	173.5390
68.000000	93.293	173.3505
69.000000	93.270	173.1409
70.000000	93.245	172.9105
71.000000	93.219	172.6938
72.000000	93.195	172.4924
73.000000	93.172	172.2929
74.000000	93.151	172.0903
75.000000	93.125	171.8516
76.199997	93.081	171.6613
77.500000	93.058	171.5037
78.800003	93.022	171.1948
80.000000	92.986	171.0627
81.199997	92.961	170.8243
82.500000	92.920	170.6347
83.800003	92.891	170.4098
85.000000	92.853	170.2431
86.199997	92.827	170.0709
87.500000	92.789	169.8686
88.500000	92.764	169.7332
90.000000	92.722	169.5160
91.199997	92.693	169.3578
92.500000	92.653	169.1471
93.800003	92.619	169.0215
95.000000	92.586	168.8468
96.199997	92.552	168.7278
97.500000	92.517	168.5718
98.800003	92.478	168.4180
100.000000	92.444	168.3247
101.500000	92.412	168.1364
103.000000	92.363	167.9480
104.400002	92.330	167.8226
106.000000	92.283	167.6803
107.500000	92.247	167.4760
109.000000	92.193	167.4023
110.599998	92.152	167.2534
112.000000	92.114	167.1471
113.800003	92.063	167.0057
115.000000	92.033	166.8821
117.199997	91.973	166.7292
118.000000	91.951	166.6636
120.599998	91.879	166.5220
122.000000	91.841	166.4030
124.099998	91.784	166.3483
125.000000	91.758	166.2190
126.500000	91.706	166.1635
128.000000	91.667	166.0697
131.500000	91.575	165.8888
132.000000	91.559	165.8448
134.000000	91.502	165.7977
136.000000	91.443	165.7103
138.000000	91.389	165.6269
140.000000	91.338	165.5920
143.000000	91.253	165.4974
145.000000	91.197	165.4262
147.500000	91.141	165.3349
150.000000	91.046	165.3167
152.500000	90.996	165.2906
155.000000	90.930	165.2067
157.500000	90.858	165.1969
160.000000	90.788	165.3199
162.500000	90.723	165.1648
165.000000	90.659	165.1729
167.500000	90.596	165.1248
170.000000	90.539	165.1504
172.500000	90.468	165.2411
175.000000	90.418	165.1506
177.500000	90.341	165.2540
180.000000	90.272	165.3481
182.500000	90.213	165.3680
185.000000	90.147	165.3705
187.500000	90.087	165.4539
190.000000	90.025	165.5266
192.500000	89.961	165.5918
195.000000	89.905	165.6827
197.500000	89.840	165.7403
200.000000	89.775	165.8465
203.000000	89.712	165.9388
206.000000	89.636	166.0746
209.000000	89.564	166.1459
212.000000	89.494	166.2383
214.000000	89.447	166.4006
218.000000	89.363	166.5960
220.000000	89.308	166.7077
224.000000	89.219	166.8726
227.000000	89.160	166.9977
230.000000	89.099	167.1199
233.000000	89.023	167.3491
236.000000	88.948	167.4541
240.000000	88.868	167.7985
243.000000	88.807	167.9882
247.000000	88.721	168.2120
250.000000	88.682	168.3653
254.000000	88.586	168.6159
258.000000	88.497	168.9525
262.000000	88.415	169.2359
265.000000	88.347	169.4351
269.000000	88.273	169.6500
272.000000	88.224	169.9009
276.000000	88.146	170.2928
280.000000	88.071	170.5530
285.000000	87.977	170.8897
290.000000	87.879	171.3401
295.000000	87.796	171.7663
300.000000	87.707	172.1709
304.000000	87.626	172.5275
307.000000	87.577	172.7567
311.000000	87.514	173.1592
315.000000	87.448	173.4767
320.000000	87.361	173.9756
325.000000	87.278	174.3690
330.000000	87.197	174.8837
335.000000	87.121	175.2820
340.000000	87.048	175.7214
345.000000	86.966	176.2133
350.000000	86.896	176.7812
355.000000	86.822	177.1567
360.000000	86.745	177.6475
365.000000	86.673	178.1287
370.000000	86.602	178.6576
375.000000	86.534	179.1190
382.000000	86.442	179.8483
387.000000	86.376	-179.6856
395.000000	86.275	-178.8986
400.000000	86.208	-178.3572
406.000000	86.125	-177.8102
412.000000	86.067	-177.1694
418.000000	85.982	-176.5288
425.000000	85.905	-175.7359
431.000000	85.841	-175.1269
437.000000	85.758	-174.5515
444.000000	85.678	-173.7525
450.000000	85.628	-173.2599
455.000000	85.576	-172.5477
462.000000	85.492	-171.8185
468.000000	85.423	-171.1842
475.000000	85.365	-170.4209
482.000000	85.288	-169.6508
487.000000	85.234	-169.1149
494.000000	85.170	-168.3449
500.000000	85.114	-167.6878
508.000000	85.047	-166.7926
515.000000	84.969	-165.9828
522.000000	84.913	-165.2634
530.000000	84.838	-164.3303
538.000000	84.769	-163.3922
545.000000	84.717	-162.5546
552.000000	84.653	-161.7811
560.000000	84.590	-160.8661
570.000000	84.497	-159.6649
580.000000	84.425	-158.4909
590.000000	84.357	-157.3431
600.000000	84.295	-155.9867
608.000000	84.235	-155.0340
615.000000	84.202	-154.1862
622.000000	84.147	-153.2815
630.000000	84.105	-152.2589
640.000000	84.063	-151.0021
650.000000	84.006	-149.7969
660.000000	83.963	-148.4467
670.000000	83.912	-147.1725
680.000000	83.880	-145.9079
690.000000	83.861	-144.6836
700.000000	83.824	-143.4114
710.000000	83.799	-142.2081
720.000000	83.785	-140.9120
730.000000	83.752	-139.5436
740.000000	83.742	-138.3208
750.000000	83.720	-136.8978
762.000000	83.724	-135.4091
775.000000	83.719	-133.7662
788.000000	83.729	-132.0297
800.000000	83.740	-130.5088
812.000000	83.763	-128.9680
825.000000	83.778	-127.3754
838.000000	83.818	-125.7131
850.000000	83.857	-124.3635
862.000000	83.906	-122.7951
875.000000	83.960	-121.2620
885.000000	83.995	-120.0246
900.000000	84.089	-118.3549
912.000000	84.159	-117.0030
925.000000	84.221	-115.6641
938.000000	84.302	-114.2327
950.000000	84.387	-112.9514
962.000000	84.471	-111.8955
975.000000	84.563	-110.6367
988.000000	84.670	-109.4697
1000.000000	84.777	-108.3157
1015.000000	84.872	-107.1054
1030.000000	84.989	-105.8402
1044.000000	85.080	-104.7966
1060.000000	85.199	-103.6460
1075.000000	85.309	-102.5440
1090.000000	85.421	-101.5606
1106.000000	85.543	-100.5526
1120.000000	85.644	-99.6642
1138.000000	85.762	-98.6113
1150.000000	85.827	-97.8726
1172.000000	85.986	-96.7652
1180.000000	86.022	-96.2601
1206.000000	86.165	-95.0029
1220.000000	86.257	-94.2597
1241.000000	86.381	-93.2325
1250.000000	86.419	-92.7992
1265.000000	86.492	-92.0537
1280.000000	86.565	-91.3777
1315.000000	86.724	-89.7775
1320.000000	86.746	-89.4607
1340.000000	86.820	-88.6304
1360.000000	86.913	-87.6406
1380.000000	86.992	-86.6988
1400.000000	87.072	-85.7495
1430.000000	87.191	-84.3508
1450.000000	87.266	-83.4502
1475.000000	87.373	-82.2752
1500.000000	87.457	-81.1148
1525.000000	87.555	-79.8983
1550.000000	87.646	-78.7955
1575.000000	87.742	-77.6231
1600.000000	87.848	-76.4658
1625.000000	87.939	-75.3262
1650.000000	88.038	-74.2399
1675.000000	88.143	-73.0757
1700.000000	88.246	-71.9318
1725.000000	88.348	-70.8146
1750.000000	88.452	-69.7210
1775.000000	88.562	-68.6243
1800.000000	88.663	-67.6175
1825.000000	88.792	-66.5620
1850.000000	88.900	-65.4409
1875.000000	89.005	-64.4270
1900.000000	89.125	-63.3852
1925.000000	89.248	-62.4259
1950.000000	89.375	-61.4801
1975.000000	89.504	-60.5420
2000.000000	89.629	-59.5202
2030.000000	89.774	-58.4823
2060.000000	89.933	-57.4584
2090.000000	90.089	-56.4616
2120.000000	90.243	-55.4744
2140.000000	90.350	-54.7960
2180.000000	90.565	-53.6234
2200.000000	90.678	-53.0553
2240.000000	90.899	-51.9028
2270.000000	91.067	-51.0665
2300.000000	91.222	-50.3181
2330.000000	91.392	-49.6106
2360.000000	91.571	-48.9638
2400.000000	91.792	-48.1113
2430.000000	91.957	-47.5275
2470.000000	92.183	-46.8539
2500.000000	92.348	-46.3938
2540.000000	92.570	-45.7773
2580.000000	92.787	-45.3410
2620.000000	93.000	-44.8929
2650.000000	93.157	-44.5803
2690.000000	93.370	-44.3020
2720.000000	93.521	-44.1338
2760.000000	93.724	-43.9430
2800.000000	93.921	-43.8838
2850.000000	94.159	-43.8687
2900.000000	94.374	-43.8706
2950.000000	94.588	-44.0463
3000.000000	94.789	-44.3477
3040.000000	94.938	-44.4962
3070.000000	95.045	-44.7037
3110.000000	95.181	-45.0921
3150.000000	95.307	-45.4385
3200.000000	95.458	-45.9166
3250.000000	95.582	-46.4187
3300.000000	95.699	-47.0214
3350.000000	95.805	-47.6280
3400.000000	95.884	-48.2567
3450.000000	95.961	-48.9163
3500.000000	96.024	-49.5891
3550.000000	96.068	-50.2961
3600.000000	96.096	-50.9591
3650.000000	96.114	-51.6442
3700.000000	96.117	-52.3737
3750.000000	96.103	-52.9451
3820.000000	96.059	-53.6286
3870.000000	96.042	-54.0516
3950.000000	96.016	-54.8081
4000.000000	96.015	-55.5412
4060.000000	95.964	-56.2400
4120.000000	95.887	-57.0848
4180.000000	95.789	-57.8145
4250.000000	95.640	-58.7112
4310.000000	95.510	-59.3612
4370.000000	95.347	-59.9651
4440.000000	95.141	-60.5654
4500.000000	94.956	-60.9701
4550.000000	94.777	-61.1726
4620.000000	94.527	-61.4855
4680.000000	94.294	-61.5816
4750.000000	94.021	-61.5971
4820.000000	93.734	-61.4472
4870.000000	93.528	-61.1541
4940.000000	93.221	-60.7670
5000.000000	92.956	-60.1942
5080.000000	92.617	-59.3088
5150.000000	92.332	-58.3252
5220.000000	92.035	-57.3075
5300.000000	91.720	-55.8927
5380.000000	91.409	-54.3677
5450.000000	91.147	-52.8425
5520.000000	90.917	-51.2843
5600.000000	90.638	-49.4009
5700.000000	90.340	-46.9701
5800.000000	90.053	-44.4758
5900.000000	89.796	-41.8003
6000.000000	89.568	-39.2226
6080.000000	89.408	-37.2846
6150.000000	89.252	-35.5401
6220.000000	89.097	-33.9206
6300.000000	88.893	-32.1007
6400.000000	88.604	-29.5914
6500.000000	88.276	-26.7542
6600.000000	87.989	-23.4012
6700.000000	87.699	-19.4651
6800.000000	87.480	-14.9775
6900.000000	87.381	-10.3514
7000.000000	87.346	-5.7009
7100.000000	87.420	-1.2200
7200.000000	87.549	3.3479
7300.000000	87.725	7.6897
7400.000000	87.950	11.7473
7500.000000	88.287	15.6425
7620.000000	88.687	19.9591
7750.000000	89.270	24.1481
7880.000000	89.917	27.8839
8000.000000	90.596	30.4655
8120.000000	91.403	32.6403
8250.000000	92.319	33.6207
8380.000000	93.314	32.8894
8500.000000	94.220	30.5217
8620.000000	95.039	26.1078
8750.000000	95.624	19.1252
8850.000000	95.773	13.0012
9000.000000	95.422	4.0332
9120.000000	94.783	-1.4606
9250.000000	93.914	-5.1503
9380.000000	92.997	-6.7168
9500.000000	92.199	-6.7245
9620.000000	91.477	-5.6223
9750.000000	90.787	-3.5736
9880.000000	90.224	-0.6562
10000.000000	89.837	2.6747
10150.000000	89.543	6.6925
10300.000000	89.387	10.8097
10440.000000	89.345	14.3856
10600.000000	89.406	18.6384
10750.000000	89.620	22.1270
10900.000000	89.975	25.3526
11060.000000	90.500	28.0041
11200.000000	91.095	29.4469
11380.000000	91.973	29.1494
11500.000000	92.592	27.6142
11720.000000	93.629	20.5798
11800.000000	93.868	16.7259
12060.000000	93.602	2.2430
12200.000000	92.854	-4.4684
12410.000000	91.305	-10.3286
12500.000000	90.610	-11.5318
12650.000000	89.476	-11.7061
12800.000000	88.453	-10.7876
13150.000000	86.534	-4.6315
13200.000000	86.306	-3.4623
13400.000000	85.567	1.4712
13600.000000	85.028	6.5485
13800.000000	84.720	11.8640
14000.000000	84.531	16.6539
14300.000000	84.706	23.2207
14500.000000	85.047	26.7860
14750.000000	85.786	28.4288
15000.000000	86.698	26.7067
15250.000000	87.422	19.6679
15500.000000	87.342	8.4605
15750.000000	86.216	-1.9868
16000.000000	84.670	-8.2439
16250.000000	82.737	-8.6518
16500.000000	81.211	-5.5619
16750.000000	79.968	-1.7856
17000.000000	79.084	3.3557
17250.000000	78.571	8.9424
17500.000000	78.169	13.8875
17750.000000	78.113	17.8898
18000.000000	78.310	19.8462
18250.000000	78.211	19.3924
18500.000000	78.070	15.3591
18750.000000	77.200	11.7223
19000.000000	75.932	10.3560
19250.000000	74.412	10.3737
19500.000000	72.762	15.0350
19750.000000	71.563	20.9089
