* Measurement data measured by REW V5.20.5
* Source: USB Sound Device        , MICROPHONE, L, volume: 0.481
* Format: 256k Log Swept Sine, 1 sweep at -6.0 dBFS with no timing reference
* Dated: 17 Nov, 2022 7:49:55 PM
* REW Settings:
*  C-weighting compensation: Off
*  Target level: 75.0 dB
* Note: 
* Measurement: KZ PR1 PRO L Nov 17
* Smoothing: None
* Frequency Step: 1/48 octave
* Start Frequency: 20.000 Hz
*
* Freq(Hz)	SPL(dB)	Phase(degrees)
20.000000	93.192	-153.0912
20.299999	93.227	-153.7275
20.600000	93.272	-154.3436
20.900000	93.294	-154.9408
21.200001	93.264	-155.5229
21.400000	93.248	-155.9059
21.799999	93.244	-156.6646
22.000000	93.248	-157.0423
22.400000	93.229	-157.7954
22.700001	93.225	-158.3567
23.000000	93.245	-158.9132
23.299999	93.251	-159.4647
23.600000	93.247	-160.0117
24.000000	93.249	-160.7355
24.299999	93.262	-161.2740
24.700001	93.272	-161.9844
25.000000	93.273	-162.5089
25.400000	93.277	-163.1946
25.799999	93.284	-163.8627
26.200001	93.300	-164.5125
26.500000	93.315	-164.9880
26.900000	93.328	-165.6071
27.200001	93.331	-166.0603
27.600000	93.333	-166.6497
28.000000	93.330	-167.2198
28.500000	93.320	-167.9025
29.000000	93.314	-168.5567
29.500000	93.302	-169.1954
30.000000	93.272	-169.8265
30.400000	93.248	-170.3213
30.700001	93.234	-170.6819
31.100000	93.206	-171.1478
31.500000	93.175	-171.6038
32.000000	93.153	-172.1777
32.500000	93.164	-172.7666
33.000000	93.161	-173.3599
33.500000	93.148	-173.9396
34.000000	93.144	-174.5002
34.500000	93.142	-175.0479
35.000000	93.133	-175.5863
35.500000	93.125	-176.1120
36.000000	93.124	-176.6223
36.500000	93.121	-177.1202
37.000000	93.103	-177.6069
37.500000	93.070	-178.0788
38.200001	93.028	-178.7112
38.700001	93.019	-179.1508
39.500000	92.978	-179.8503
40.000000	92.937	179.7198
40.599998	92.904	179.2169
41.200001	92.871	178.7203
41.799999	92.839	178.2233
42.500000	92.802	177.6556
43.099998	92.774	177.1907
43.700001	92.759	176.7378
44.400002	92.751	176.2141
45.000000	92.746	175.7767
45.500000	92.742	175.4243
46.200001	92.743	174.9360
46.799999	92.741	174.5142
47.500000	92.706	174.0363
48.200001	92.660	173.5860
48.700001	92.631	173.2677
49.400002	92.574	172.8115
50.000000	92.513	172.4321
50.799999	92.451	171.9689
51.500000	92.404	171.5597
52.200001	92.370	171.1313
53.000000	92.340	170.6901
53.799999	92.314	170.2780
54.500000	92.297	169.8748
55.200001	92.280	169.4951
56.000000	92.257	169.1361
57.000000	92.239	168.5995
58.000000	92.184	168.0356
59.000000	92.108	167.6161
60.000000	92.036	167.1511
60.799999	91.975	166.7778
61.500000	91.933	166.4920
62.200001	91.897	166.2025
63.000000	91.859	165.8427
64.000000	91.816	165.4120
65.000000	91.784	165.0247
66.000000	91.768	164.6401
67.000000	91.743	164.2485
68.000000	91.702	163.8689
69.000000	91.645	163.5089
70.000000	91.575	163.1427
71.000000	91.497	162.8199
72.000000	91.421	162.5175
73.000000	91.362	162.1894
74.000000	91.328	161.8717
75.000000	91.307	161.5677
76.199997	91.285	161.2229
77.500000	91.244	160.8566
78.800003	91.163	160.5161
80.000000	91.077	160.1866
81.199997	90.993	159.8896
82.500000	90.909	159.5657
83.800003	90.857	159.2588
85.000000	90.833	158.9612
86.199997	90.805	158.7102
87.500000	90.762	158.4182
88.500000	90.712	158.2039
90.000000	90.608	157.9048
91.199997	90.530	157.7049
92.500000	90.458	157.4514
93.800003	90.412	157.2268
95.000000	90.378	156.9967
96.199997	90.357	156.8082
97.500000	90.322	156.5937
98.800003	90.250	156.4103
100.000000	90.177	156.2151
101.500000	90.082	156.0181
103.000000	90.003	155.8266
104.400002	89.962	155.6445
106.000000	89.922	155.4754
107.500000	89.880	155.2714
109.000000	89.810	155.1187
110.599998	89.714	154.9468
112.000000	89.631	154.8127
113.800003	89.553	154.6272
115.000000	89.532	154.5338
117.199997	89.490	154.3810
118.000000	89.464	154.2935
120.599998	89.322	154.0910
122.000000	89.241	154.0109
124.099998	89.167	153.8713
125.000000	89.150	153.8056
126.500000	89.118	153.7161
128.000000	89.077	153.6509
131.500000	88.900	153.4883
132.000000	88.872	153.4725
134.000000	88.803	153.4248
136.000000	88.768	153.3465
138.000000	88.728	153.3088
140.000000	88.630	153.2521
143.000000	88.485	153.2038
145.000000	88.444	153.2009
147.500000	88.400	153.1279
150.000000	88.312	153.1110
152.500000	88.190	153.1100
155.000000	88.116	153.0684
157.500000	88.080	153.1327
160.000000	87.983	153.1661
162.500000	87.897	153.1901
165.000000	87.842	153.2132
167.500000	87.812	153.2495
170.000000	87.745	153.3019
172.500000	87.643	153.3313
175.000000	87.577	153.4160
177.500000	87.545	153.4685
180.000000	87.482	153.5783
182.500000	87.395	153.6324
185.000000	87.335	153.7662
187.500000	87.292	153.8235
190.000000	87.200	153.9356
192.500000	87.091	154.0912
195.000000	87.027	154.1845
197.500000	86.984	154.2579
200.000000	86.925	154.3504
203.000000	86.834	154.5558
206.000000	86.780	154.7241
209.000000	86.730	154.8568
212.000000	86.651	155.0109
214.000000	86.612	155.0869
218.000000	86.564	155.2979
220.000000	86.514	155.5318
224.000000	86.413	155.7220
227.000000	86.391	155.8591
230.000000	86.328	156.0120
233.000000	86.247	156.2272
236.000000	86.205	156.4687
240.000000	86.141	156.7399
243.000000	86.070	156.9202
247.000000	86.046	157.1840
250.000000	85.997	157.4341
254.000000	85.910	157.6505
258.000000	85.846	157.9619
262.000000	85.760	158.2537
265.000000	85.729	158.4686
269.000000	85.683	158.7807
272.000000	85.627	158.9174
276.000000	85.578	159.2289
280.000000	85.519	159.5800
285.000000	85.439	159.9448
290.000000	85.387	160.3226
295.000000	85.314	160.6724
300.000000	85.255	161.0803
304.000000	85.197	161.3918
307.000000	85.181	161.6562
311.000000	85.110	161.9769
315.000000	85.073	162.2813
320.000000	85.025	162.6798
325.000000	84.985	163.0161
330.000000	84.930	163.4451
335.000000	84.887	163.8080
340.000000	84.834	164.2069
345.000000	84.796	164.6017
350.000000	84.747	165.0121
355.000000	84.698	165.4291
360.000000	84.646	165.8675
365.000000	84.603	166.2450
370.000000	84.572	166.5846
375.000000	84.528	167.0192
382.000000	84.474	167.5569
387.000000	84.429	167.9945
395.000000	84.392	168.5692
400.000000	84.349	168.9957
406.000000	84.326	169.5251
412.000000	84.283	170.0012
418.000000	84.223	170.4591
425.000000	84.211	171.0240
431.000000	84.185	171.4422
437.000000	84.145	172.0063
444.000000	84.099	172.5083
450.000000	84.048	172.9931
455.000000	84.050	173.3762
462.000000	84.030	173.9463
468.000000	83.997	174.5021
475.000000	83.968	174.9930
482.000000	83.951	175.4737
487.000000	83.929	175.9245
494.000000	83.892	176.4857
500.000000	83.876	177.0101
508.000000	83.863	177.5824
515.000000	83.845	178.1153
522.000000	83.817	178.6844
530.000000	83.794	179.2809
538.000000	83.804	179.9464
545.000000	83.799	-179.5165
552.000000	83.761	-178.9801
560.000000	83.739	-178.3278
570.000000	83.724	-177.5800
580.000000	83.742	-176.8011
590.000000	83.715	-176.0563
600.000000	83.675	-175.2426
608.000000	83.667	-174.6040
615.000000	83.662	-174.0471
622.000000	83.660	-173.5359
630.000000	83.660	-172.9069
640.000000	83.684	-172.1524
650.000000	83.675	-171.3186
660.000000	83.684	-170.5835
670.000000	83.699	-169.7791
680.000000	83.714	-169.0115
690.000000	83.718	-168.3094
700.000000	83.710	-167.4951
710.000000	83.729	-166.6958
720.000000	83.749	-165.9405
730.000000	83.764	-165.2042
740.000000	83.801	-164.4190
750.000000	83.813	-163.6677
762.000000	83.853	-162.7765
775.000000	83.889	-161.6843
788.000000	83.937	-160.7322
800.000000	83.985	-159.8787
812.000000	84.027	-158.9239
825.000000	84.077	-158.0323
838.000000	84.136	-157.1174
850.000000	84.184	-156.2508
862.000000	84.239	-155.4838
875.000000	84.301	-154.5177
885.000000	84.374	-153.8707
900.000000	84.460	-152.9503
912.000000	84.534	-152.1083
925.000000	84.607	-151.4149
938.000000	84.695	-150.6694
950.000000	84.778	-149.9799
962.000000	84.853	-149.3807
975.000000	84.956	-148.8003
988.000000	85.041	-148.2550
1000.000000	85.118	-147.8031
1015.000000	85.238	-147.2016
1030.000000	85.348	-146.8092
1044.000000	85.429	-146.3442
1060.000000	85.515	-145.9677
1075.000000	85.584	-145.4975
1090.000000	85.646	-145.0544
1106.000000	85.746	-144.5548
1120.000000	85.827	-144.0010
1138.000000	85.940	-143.3332
1150.000000	86.017	-142.8539
1172.000000	86.165	-142.1318
1180.000000	86.221	-141.9343
1206.000000	86.367	-141.2234
1220.000000	86.420	-140.8179
1241.000000	86.462	-140.3465
1250.000000	86.473	-140.1753
1265.000000	86.482	-139.8733
1280.000000	86.555	-139.5675
1315.000000	87.049	-139.0070
1320.000000	87.154	-138.9208
1340.000000	87.548	-138.6142
1360.000000	87.918	-138.3190
1380.000000	88.200	-138.0638
1400.000000	88.410	-137.8155
1430.000000	88.648	-137.5312
1450.000000	88.778	-137.3201
1475.000000	88.953	-137.1118
1500.000000	89.138	-136.9797
1525.000000	89.327	-136.9517
1550.000000	89.500	-136.8527
1575.000000	89.703	-136.9095
1600.000000	89.892	-137.0703
1625.000000	90.085	-137.2271
1650.000000	90.261	-137.4786
1675.000000	90.428	-137.7257
1700.000000	90.596	-138.0026
1725.000000	90.778	-138.2377
1750.000000	90.966	-138.5510
1775.000000	91.167	-138.9501
1800.000000	91.352	-139.5721
1825.000000	91.527	-140.2621
1850.000000	91.680	-141.0926
1875.000000	91.819	-141.9622
1900.000000	91.942	-143.0261
1925.000000	92.033	-144.2547
1950.000000	92.070	-145.5637
1975.000000	91.943	-146.6455
2000.000000	91.794	-145.9101
2030.000000	91.859	-144.3731
2060.000000	92.035	-143.5476
2090.000000	92.228	-143.5921
2120.000000	92.437	-144.0466
2140.000000	92.578	-144.4280
2180.000000	92.846	-145.4093
2200.000000	92.975	-146.0290
2240.000000	93.214	-147.3805
2270.000000	93.371	-148.5435
2300.000000	93.521	-149.6896
2330.000000	93.657	-150.9395
2360.000000	93.790	-152.2840
2400.000000	93.946	-154.2186
2430.000000	94.042	-155.7313
2470.000000	94.140	-157.8218
2500.000000	94.187	-159.4070
2540.000000	94.222	-161.5588
2580.000000	94.218	-163.6366
2620.000000	94.188	-165.6346
2650.000000	94.143	-167.0545
2690.000000	94.073	-168.8818
2720.000000	94.010	-170.1138
2760.000000	93.899	-171.7545
2800.000000	93.775	-173.1707
2850.000000	93.602	-174.6048
2900.000000	93.440	-175.5442
2950.000000	93.351	-176.1713
3000.000000	93.331	-177.3165
3040.000000	93.289	-178.4829
3070.000000	93.230	-179.4165
3110.000000	93.147	179.4094
3150.000000	93.041	178.1976
3200.000000	92.891	176.6876
3250.000000	92.702	175.1707
3300.000000	92.450	173.7092
3350.000000	92.126	172.6087
3400.000000	91.757	171.8534
3450.000000	91.248	171.9675
3500.000000	90.861	174.5798
3550.000000	90.838	177.2748
3600.000000	90.902	178.8150
3650.000000	90.986	179.6256
3700.000000	91.085	179.9996
3750.000000	91.172	179.9824
3820.000000	91.282	179.5704
3870.000000	91.325	178.9800
3950.000000	91.324	177.7796
4000.000000	91.294	177.0539
4060.000000	91.180	176.0028
4120.000000	91.014	175.0789
4180.000000	90.670	174.5474
4250.000000	90.235	175.9095
4310.000000	89.980	178.0817
4370.000000	89.939	-179.6337
4440.000000	90.027	-177.7531
4500.000000	90.128	-176.5512
4550.000000	90.267	-175.2082
4620.000000	90.597	-173.9279
4680.000000	90.922	-173.5776
4750.000000	91.310	-174.0410
4820.000000	91.651	-175.3715
4870.000000	91.836	-176.8301
4940.000000	91.946	-179.0233
5000.000000	91.920	179.4932
5080.000000	91.958	178.7164
5150.000000	92.112	177.5093
5220.000000	92.249	175.7200
5300.000000	92.357	172.8786
5380.000000	92.271	169.2966
5450.000000	91.988	166.2579
5520.000000	91.599	164.1430
5600.000000	91.193	162.9134
5700.000000	90.716	161.3351
5800.000000	90.112	159.9434
5900.000000	89.433	159.6379
6000.000000	88.753	160.3682
6080.000000	88.324	161.5094
6150.000000	87.948	162.4380
6220.000000	87.560	163.7338
6300.000000	87.137	166.0408
6400.000000	86.769	169.3662
6500.000000	86.486	172.7023
6600.000000	86.273	176.1324
6700.000000	86.129	179.2211
6800.000000	85.935	-177.7300
6900.000000	85.740	-174.0880
7000.000000	85.676	-169.7887
7100.000000	85.717	-165.4880
7200.000000	85.915	-161.2177
7300.000000	86.189	-157.6999
7400.000000	86.483	-154.1418
7500.000000	86.850	-150.6732
7620.000000	87.416	-146.7392
7750.000000	88.115	-143.5874
7880.000000	88.777	-141.1188
8000.000000	89.532	-139.9895
8120.000000	90.423	-141.3785
8250.000000	91.173	-145.3842
8380.000000	91.689	-150.4047
8500.000000	91.900	-155.9791
8620.000000	91.788	-161.1686
8750.000000	91.466	-164.3965
8850.000000	91.290	-165.8405
9000.000000	91.165	-167.9594
9120.000000	91.021	-169.5428
9250.000000	90.894	-171.3099
9380.000000	90.725	-172.9458
9500.000000	90.494	-174.1585
9620.000000	90.200	-174.8181
9750.000000	89.926	-174.8325
9880.000000	89.728	-174.0557
10000.000000	89.607	-173.0919
10150.000000	89.648	-171.7646
10300.000000	89.826	-171.3328
10440.000000	90.046	-172.1696
10600.000000	90.190	-173.9843
10750.000000	90.165	-176.1863
10900.000000	90.029	-178.3846
11060.000000	89.755	179.7089
11200.000000	89.439	178.4843
11380.000000	89.031	177.8595
11500.000000	88.711	177.5758
11720.000000	88.100	178.2366
11800.000000	87.872	178.9827
12060.000000	87.259	-177.3609
12200.000000	86.999	-174.7453
12410.000000	86.776	-170.4823
12500.000000	86.708	-168.4900
12650.000000	86.719	-165.0533
12800.000000	86.792	-161.9159
13150.000000	87.615	-154.9255
13200.000000	87.764	-154.1062
13400.000000	88.499	-150.9696
13600.000000	89.328	-148.5140
13800.000000	90.241	-146.8158
14000.000000	91.254	-146.3103
14300.000000	93.043	-149.8437
14500.000000	94.233	-157.4662
14750.000000	94.875	-173.3904
15000.000000	94.062	171.4920
15250.000000	92.560	163.1134
15500.000000	91.115	160.4792
15750.000000	90.042	161.4714
16000.000000	89.409	164.0029
16250.000000	89.072	167.1928
16500.000000	88.959	170.5938
16750.000000	89.157	173.4998
17000.000000	89.575	176.0540
17250.000000	90.177	177.0446
17500.000000	90.885	176.4420
17750.000000	91.493	173.8516
18000.000000	91.880	168.9058
18250.000000	91.857	162.8809
18500.000000	91.340	158.2082
18750.000000	90.443	156.1929
19000.000000	89.340	156.9834
19250.000000	88.305	160.1091
19500.000000	87.401	164.5590
19750.000000	86.310	168.6216
