* Measurement data measured by REW V5.20.5
* Source: USB Sound Device        , MICROPHONE, R, volume: 0.668
* Format: 256k Log Swept Sine, 1 sweep at -6.0 dBFS with no timing reference
* Dated: 21 Aug, 2023 8:55:45 AM
* REW Settings:
*  C-weighting compensation: Off
*  Target level: 75.0 dB
* Note: 
* Measurement: MOONDROP CHU 2 Aug 21
* Smoothing: None
* Frequency Step: 1/48 octave
* Start Frequency: 20.000 Hz
*
* Freq(Hz)	SPL(dB)	Phase(degrees)
20.000000	94.560	-173.0511
20.299999	94.557	-173.4160
20.600000	94.551	-173.7710
20.900000	94.543	-174.1154
21.200001	94.535	-174.4505
21.400000	94.528	-174.6719
21.799999	94.516	-175.1169
22.000000	94.509	-175.3434
22.400000	94.493	-175.8061
22.700001	94.479	-176.1576
23.000000	94.464	-176.5073
23.299999	94.449	-176.8521
23.600000	94.434	-177.1915
24.000000	94.415	-177.6377
24.299999	94.402	-177.9695
24.700001	94.387	-178.4104
25.000000	94.377	-178.7408
25.400000	94.365	-179.1819
25.799999	94.353	-179.6203
26.200001	94.339	179.9550
26.500000	94.328	179.6544
26.900000	94.315	179.2833
27.200001	94.306	179.0229
27.600000	94.297	178.6850
28.000000	94.290	178.3394
28.500000	94.276	177.8925
29.000000	94.254	177.4614
29.500000	94.227	177.0791
30.000000	94.200	176.7429
30.400000	94.182	176.4842
30.700001	94.170	176.2844
31.100000	94.155	176.0014
31.500000	94.138	175.6975
32.000000	94.115	175.2967
32.500000	94.087	174.8929
33.000000	94.056	174.5096
33.500000	94.026	174.1531
34.000000	94.000	173.8122
34.500000	93.976	173.4716
35.000000	93.954	173.1269
35.500000	93.932	172.7823
36.000000	93.909	172.4451
36.500000	93.884	172.1238
37.000000	93.859	171.8235
37.500000	93.836	171.5382
38.200001	93.803	171.1414
38.700001	93.779	170.8580
39.500000	93.739	170.4205
40.000000	93.714	170.1477
40.599998	93.683	169.8128
41.200001	93.648	169.4918
41.799999	93.614	169.2010
42.500000	93.579	168.8698
43.099998	93.548	168.5684
43.700001	93.515	168.2737
44.400002	93.476	167.9626
45.000000	93.446	167.6971
45.500000	93.421	167.4571
46.200001	93.379	167.1219
46.799999	93.342	166.8774
47.500000	93.306	166.6080
48.200001	93.274	166.2776
48.700001	93.245	166.0203
49.400002	93.197	165.7097
50.000000	93.158	165.5022
50.799999	93.114	165.2525
51.500000	93.082	165.0278
52.200001	93.053	164.7657
53.000000	93.009	164.4388
53.799999	92.958	164.2040
54.500000	92.926	164.0325
55.200001	92.896	163.7852
56.000000	92.849	163.4948
57.000000	92.793	163.2111
58.000000	92.735	162.8738
59.000000	92.670	162.6675
60.000000	92.630	162.4446
60.799999	92.593	162.1697
61.500000	92.552	161.9348
62.200001	92.504	161.7241
63.000000	92.449	161.5762
64.000000	92.406	161.4030
65.000000	92.351	161.0564
66.000000	92.287	160.8798
67.000000	92.242	160.5946
68.000000	92.166	160.4001
69.000000	92.130	160.3202
70.000000	92.079	159.9715
71.000000	92.012	159.8585
72.000000	91.970	159.6581
73.000000	91.905	159.4493
74.000000	91.853	159.3367
75.000000	91.804	159.1639
76.199997	91.739	158.9137
77.500000	91.666	158.8127
78.800003	91.606	158.5136
80.000000	91.535	158.4724
81.199997	91.491	158.2037
82.500000	91.406	158.1169
83.800003	91.356	157.9255
85.000000	91.279	157.8199
86.199997	91.235	157.7509
87.500000	91.158	157.5225
88.500000	91.108	157.5345
90.000000	91.038	157.3259
91.199997	90.980	157.3021
92.500000	90.914	157.1659
93.800003	90.860	157.1570
95.000000	90.797	156.9492
96.199997	90.732	156.9919
97.500000	90.680	156.7778
98.800003	90.605	156.8121
100.000000	90.571	156.6071
101.500000	90.466	156.6856
103.000000	90.439	156.6114
104.400002	90.349	156.5379
106.000000	90.287	156.5926
107.500000	90.209	156.5530
109.000000	90.155	156.5005
110.599998	90.072	156.5095
112.000000	90.022	156.4310
113.800003	89.930	156.4523
115.000000	89.878	156.4854
117.199997	89.790	156.3800
118.000000	89.743	156.4095
120.599998	89.650	156.4980
122.000000	89.597	156.4637
124.099998	89.498	156.5378
125.000000	89.461	156.6218
126.500000	89.413	156.7128
128.000000	89.364	156.6950
131.500000	89.213	156.8189
132.000000	89.199	156.8628
134.000000	89.122	156.8373
136.000000	89.054	156.9851
138.000000	88.973	156.9714
140.000000	88.900	157.0840
143.000000	88.806	157.3430
145.000000	88.736	157.3204
147.500000	88.649	157.4835
150.000000	88.559	157.5366
152.500000	88.475	157.8915
155.000000	88.404	158.0048
157.500000	88.322	158.1876
160.000000	88.242	158.2957
162.500000	88.159	158.5028
165.000000	88.090	158.6503
167.500000	88.017	158.9024
170.000000	87.941	159.1312
172.500000	87.867	159.3239
175.000000	87.787	159.4852
177.500000	87.727	159.7186
180.000000	87.660	159.9916
182.500000	87.582	160.2581
185.000000	87.512	160.4189
187.500000	87.454	160.6368
190.000000	87.387	160.9501
192.500000	87.321	161.1755
195.000000	87.261	161.4452
197.500000	87.198	161.6048
200.000000	87.146	161.9285
203.000000	87.066	162.1688
206.000000	86.998	162.4069
209.000000	86.939	162.6796
212.000000	86.870	163.0563
214.000000	86.833	163.2612
218.000000	86.735	163.7135
220.000000	86.690	163.8605
224.000000	86.615	164.3288
227.000000	86.557	164.6538
230.000000	86.511	165.0500
233.000000	86.444	165.2811
236.000000	86.391	165.6103
240.000000	86.321	165.9934
243.000000	86.261	166.4442
247.000000	86.188	166.8162
250.000000	86.130	167.1906
254.000000	86.077	167.6362
258.000000	86.006	168.0542
262.000000	85.948	168.4486
265.000000	85.897	168.8698
269.000000	85.836	169.3015
272.000000	85.797	169.5967
276.000000	85.751	170.0451
280.000000	85.684	170.5134
285.000000	85.630	171.0891
290.000000	85.560	171.6836
295.000000	85.488	172.1767
300.000000	85.423	172.8362
304.000000	85.376	173.0797
307.000000	85.341	173.5286
311.000000	85.294	173.9597
315.000000	85.246	174.3943
320.000000	85.198	174.9796
325.000000	85.128	175.5214
330.000000	85.081	176.0381
335.000000	85.039	176.5170
340.000000	84.988	177.0976
345.000000	84.951	177.6830
350.000000	84.897	178.1158
355.000000	84.863	178.6749
360.000000	84.798	179.2094
365.000000	84.763	179.7073
370.000000	84.723	-179.7102
375.000000	84.682	-179.2513
382.000000	84.632	-178.4883
387.000000	84.600	-177.9504
395.000000	84.545	-177.1749
400.000000	84.508	-176.6701
406.000000	84.470	-176.0355
412.000000	84.432	-175.3837
418.000000	84.385	-174.7903
425.000000	84.347	-174.1178
431.000000	84.308	-173.5663
437.000000	84.274	-172.8456
444.000000	84.229	-172.1799
450.000000	84.192	-171.6943
455.000000	84.170	-171.1278
462.000000	84.133	-170.3918
468.000000	84.101	-169.7383
475.000000	84.064	-169.1115
482.000000	84.031	-168.3212
487.000000	84.003	-167.8881
494.000000	83.979	-167.1208
500.000000	83.942	-166.5528
508.000000	83.920	-165.8009
515.000000	83.902	-165.1100
522.000000	83.856	-164.4813
530.000000	83.823	-163.6585
538.000000	83.804	-162.8428
545.000000	83.783	-162.1771
552.000000	83.761	-161.5234
560.000000	83.746	-160.7160
570.000000	83.712	-159.7681
580.000000	83.700	-158.7731
590.000000	83.658	-157.7791
600.000000	83.646	-156.8408
608.000000	83.643	-156.0600
615.000000	83.627	-155.3811
622.000000	83.626	-154.7385
630.000000	83.613	-153.9977
640.000000	83.608	-153.0224
650.000000	83.602	-152.1533
660.000000	83.589	-151.1791
670.000000	83.586	-150.1963
680.000000	83.585	-149.2941
690.000000	83.595	-148.3536
700.000000	83.588	-147.3918
710.000000	83.597	-146.3867
720.000000	83.594	-145.5219
730.000000	83.616	-144.5043
740.000000	83.627	-143.5940
750.000000	83.644	-142.7796
762.000000	83.663	-141.5663
775.000000	83.686	-140.4257
788.000000	83.713	-139.1745
800.000000	83.751	-138.1243
812.000000	83.774	-136.9887
825.000000	83.820	-135.7859
838.000000	83.870	-134.6001
850.000000	83.940	-133.6036
862.000000	83.982	-132.5764
875.000000	84.042	-131.4322
885.000000	84.105	-130.6280
900.000000	84.187	-129.3285
912.000000	84.267	-128.4272
925.000000	84.338	-127.4538
938.000000	84.429	-126.3835
950.000000	84.522	-125.4932
962.000000	84.599	-124.6680
975.000000	84.692	-123.7461
988.000000	84.791	-122.8904
1000.000000	84.896	-121.8409
1015.000000	85.013	-121.2862
1030.000000	85.125	-120.4196
1044.000000	85.239	-119.6485
1060.000000	85.361	-118.9317
1075.000000	85.484	-118.2541
1090.000000	85.605	-117.5445
1106.000000	85.733	-116.9600
1120.000000	85.836	-116.3512
1138.000000	85.963	-115.7257
1150.000000	86.059	-115.2990
1172.000000	86.214	-114.6262
1180.000000	86.269	-114.4164
1206.000000	86.431	-113.6832
1220.000000	86.525	-113.2537
1241.000000	86.654	-112.7852
1250.000000	86.704	-112.5584
1265.000000	86.786	-112.1726
1280.000000	86.873	-111.8545
1315.000000	87.064	-111.0200
1320.000000	87.087	-110.8561
1340.000000	87.194	-110.4757
1360.000000	87.288	-109.9648
1380.000000	87.390	-109.5212
1400.000000	87.489	-109.1413
1430.000000	87.634	-108.4540
1450.000000	87.724	-107.9802
1475.000000	87.842	-107.4364
1500.000000	87.958	-106.9121
1525.000000	88.082	-106.3770
1550.000000	88.194	-105.8639
1575.000000	88.306	-105.4322
1600.000000	88.434	-104.9247
1625.000000	88.555	-104.4692
1650.000000	88.673	-104.0281
1675.000000	88.800	-103.5458
1700.000000	88.924	-103.1284
1725.000000	89.052	-102.7245
1750.000000	89.191	-102.3832
1775.000000	89.316	-102.0411
1800.000000	89.443	-101.6983
1825.000000	89.576	-101.4410
1850.000000	89.706	-101.1387
1875.000000	89.839	-100.8881
1900.000000	89.969	-100.5920
1925.000000	90.102	-100.3755
1950.000000	90.232	-100.1949
1975.000000	90.368	-99.9840
2000.000000	90.471	-99.9345
2030.000000	90.662	-99.7000
2060.000000	90.830	-99.6884
2090.000000	90.989	-99.5195
2120.000000	91.150	-99.5407
2140.000000	91.256	-99.5090
2180.000000	91.462	-99.6203
2200.000000	91.568	-99.6660
2240.000000	91.784	-99.8713
2270.000000	91.939	-100.0699
2300.000000	92.092	-100.3029
2330.000000	92.248	-100.6188
2360.000000	92.405	-100.9855
2400.000000	92.597	-101.5190
2430.000000	92.735	-101.9547
2470.000000	92.910	-102.5712
2500.000000	93.053	-103.2011
2540.000000	93.225	-104.0050
2580.000000	93.388	-104.8456
2620.000000	93.546	-105.8766
2650.000000	93.659	-106.6116
2690.000000	93.792	-107.6320
2720.000000	93.886	-108.4955
2760.000000	94.023	-109.6759
2800.000000	94.127	-110.8923
2850.000000	94.240	-112.4335
2900.000000	94.313	-113.9818
2950.000000	94.383	-115.5713
3000.000000	94.409	-117.2226
3040.000000	94.453	-118.4933
3070.000000	94.463	-119.4133
3110.000000	94.462	-120.6367
3150.000000	94.457	-121.8502
3200.000000	94.436	-123.3626
3250.000000	94.404	-124.7941
3300.000000	94.354	-126.1626
3350.000000	94.292	-127.4852
3400.000000	94.229	-128.7702
3450.000000	94.150	-129.9061
3500.000000	94.071	-131.0384
3550.000000	93.981	-132.0819
3600.000000	93.895	-133.1378
3650.000000	93.801	-134.0750
3700.000000	93.704	-134.9928
3750.000000	93.616	-135.8528
3820.000000	93.474	-136.9667
3870.000000	93.381	-137.7647
3950.000000	93.214	-138.8929
4000.000000	93.082	-139.5757
4060.000000	92.991	-140.4026
4120.000000	92.873	-141.1456
4180.000000	92.759	-141.9233
4250.000000	92.619	-142.7480
4310.000000	92.493	-143.4371
4370.000000	92.368	-144.1643
4440.000000	92.222	-144.9364
4500.000000	92.095	-145.5905
4550.000000	91.985	-146.1750
4620.000000	91.827	-146.8122
4680.000000	91.692	-147.4348
4750.000000	91.528	-148.0027
4820.000000	91.362	-148.6779
4870.000000	91.243	-149.0948
4940.000000	91.058	-149.6803
5000.000000	90.901	-150.2346
5080.000000	90.693	-150.5608
5150.000000	90.495	-151.0114
5220.000000	90.313	-151.2348
5300.000000	90.091	-151.5300
5380.000000	89.870	-151.6682
5450.000000	89.668	-151.7646
5520.000000	89.477	-151.7264
5600.000000	89.257	-151.6628
5700.000000	89.006	-151.3801
5800.000000	88.754	-151.0403
5900.000000	88.533	-150.4990
6000.000000	88.298	-149.7949
6080.000000	88.171	-149.2036
6150.000000	88.031	-148.7210
6220.000000	87.912	-148.0604
6300.000000	87.794	-147.3755
6400.000000	87.668	-146.3574
6500.000000	87.572	-145.5395
6600.000000	87.511	-144.2577
6700.000000	87.459	-143.1463
6800.000000	87.456	-142.0967
6900.000000	87.476	-141.1205
7000.000000	87.544	-140.0187
7100.000000	87.634	-139.0525
7200.000000	87.783	-138.2182
7300.000000	87.969	-137.5896
7400.000000	88.189	-137.1516
7500.000000	88.468	-137.0014
7620.000000	88.847	-137.1635
7750.000000	89.304	-137.9740
7880.000000	89.844	-139.7964
8000.000000	90.378	-142.4024
8120.000000	90.879	-146.1781
8250.000000	91.372	-151.6735
8380.000000	91.676	-158.7843
8500.000000	91.731	-166.2824
8620.000000	91.484	-174.0712
8750.000000	90.920	178.0756
8850.000000	90.299	172.8858
9000.000000	89.245	166.8486
9120.000000	88.312	163.5516
9250.000000	87.362	161.1191
9380.000000	86.425	159.8931
9500.000000	85.620	159.4295
9620.000000	84.868	159.6140
9750.000000	84.161	160.1833
9880.000000	83.513	161.1846
10000.000000	82.960	162.2254
10150.000000	82.434	164.0061
10300.000000	81.957	165.7114
10440.000000	81.577	167.8412
10600.000000	81.293	169.9592
10750.000000	81.074	171.7053
10900.000000	80.977	173.5649
11060.000000	80.963	174.8465
11200.000000	81.102	175.7098
11380.000000	81.375	174.7733
11500.000000	81.603	171.1093
11720.000000	79.297	157.0848
11800.000000	77.160	165.1458
12060.000000	79.004	-166.8116
12200.000000	80.128	-165.0934
12410.000000	81.442	-165.6647
12500.000000	81.947	-166.4693
12650.000000	82.751	-168.0583
12800.000000	83.525	-171.2483
13150.000000	85.108	177.0325
13200.000000	85.286	174.5693
13400.000000	85.687	164.9854
13600.000000	85.611	154.5196
13800.000000	85.210	145.4387
14000.000000	84.538	137.6653
14300.000000	83.435	129.6518
14500.000000	82.843	126.1085
14750.000000	82.276	122.5323
15000.000000	81.978	118.4564
15250.000000	81.766	113.8467
15500.000000	81.703	108.0481
15750.000000	81.671	100.4164
16000.000000	81.524	90.7552
16250.000000	81.055	79.5060
16500.000000	80.111	68.0057
16750.000000	78.825	58.1675
17000.000000	77.339	50.9381
17250.000000	75.815	44.7996
17500.000000	74.379	40.1441
17750.000000	72.865	37.5388
18000.000000	71.278	36.9087
18250.000000	70.171	35.0513
18500.000000	69.144	33.7144
18750.000000	67.873	32.7375
19000.000000	67.243	30.9211
19250.000000	65.988	28.2036
19500.000000	64.986	29.3552
19750.000000	62.881	23.5199
