* Measurement data measured by REW V5.20.5
* Source: USB Sound Device        , MICROPHONE, R, volume: 0.585
* Format: 256k Log Swept Sine, 1 sweep at -6.0 dBFS with no timing reference
* Dated: 24 Jul, 2023 8:20:50 PM
* REW Settings:
*  C-weighting compensation: Off
*  Target level: 75.0 dB
* Note: 
* Measurement: MOONDROP VARIATIONS Jul 24
* Smoothing: None
* Frequency Step: 1/48 octave
* Start Frequency: 20.000 Hz
*
* Freq(Hz)	SPL(dB)	Phase(degrees)
20.000000	91.789	22.1552
20.299999	91.808	21.4950
20.600000	91.824	20.8368
20.900000	91.836	20.1896
21.200001	91.845	19.5638
21.400000	91.851	19.1622
21.799999	91.862	18.3934
22.000000	91.868	18.0220
22.400000	91.883	17.2895
22.700001	91.895	16.7382
23.000000	91.905	16.1811
23.299999	91.913	15.6248
23.600000	91.918	15.0786
24.000000	91.920	14.3785
24.299999	91.921	13.8778
24.700001	91.921	13.2360
25.000000	91.922	12.7658
25.400000	91.923	12.1465
25.799999	91.922	11.5345
26.200001	91.920	10.9321
26.500000	91.918	10.4865
26.900000	91.915	9.8992
27.200001	91.911	9.4632
27.600000	91.906	8.8879
28.000000	91.900	8.3190
28.500000	91.893	7.6111
29.000000	91.883	6.9020
29.500000	91.869	6.2041
30.000000	91.852	5.5394
30.400000	91.840	5.0342
30.700001	91.832	4.6638
31.100000	91.823	4.1692
31.500000	91.813	3.6687
32.000000	91.799	3.0425
32.500000	91.782	2.4310
33.000000	91.762	1.8401
33.500000	91.741	1.2681
34.000000	91.718	0.7188
34.500000	91.696	0.1946
35.000000	91.675	-0.3174
35.500000	91.656	-0.8381
36.000000	91.634	-1.3701
36.500000	91.609	-1.8939
37.000000	91.581	-2.3904
37.500000	91.554	-2.8651
38.200001	91.520	-3.5300
38.700001	91.493	-4.0096
39.500000	91.446	-4.7407
40.000000	91.418	-5.1724
40.599998	91.387	-5.6938
41.200001	91.354	-6.2274
41.799999	91.316	-6.7431
42.500000	91.273	-7.3024
43.099998	91.238	-7.7726
43.700001	91.203	-8.2495
44.400002	91.160	-8.7977
45.000000	91.123	-9.2549
45.500000	91.091	-9.6296
46.200001	91.045	-10.1335
46.799999	91.007	-10.5409
47.500000	90.965	-11.0146
48.200001	90.924	-11.5034
48.700001	90.893	-11.8516
49.400002	90.847	-12.3322
50.000000	90.806	-12.7442
50.799999	90.744	-13.2616
51.500000	90.690	-13.6422
52.200001	90.645	-13.9959
53.000000	90.598	-14.4613
53.799999	90.541	-14.9562
54.500000	90.485	-15.3287
55.200001	90.436	-15.6602
56.000000	90.384	-16.0645
57.000000	90.313	-16.5967
58.000000	90.239	-17.0932
59.000000	90.163	-17.5815
60.000000	90.084	-17.9982
60.799999	90.031	-18.3036
61.500000	89.987	-18.6187
62.200001	89.935	-18.9393
63.000000	89.874	-19.2441
64.000000	89.808	-19.6158
65.000000	89.737	-20.0481
66.000000	89.656	-20.4322
67.000000	89.579	-20.7422
68.000000	89.508	-21.0807
69.000000	89.431	-21.4229
70.000000	89.356	-21.7157
71.000000	89.285	-22.0192
72.000000	89.211	-22.3255
73.000000	89.137	-22.6030
74.000000	89.064	-22.8772
75.000000	88.988	-23.1295
76.199997	88.902	-23.4052
77.500000	88.807	-23.7220
78.800003	88.706	-23.9795
80.000000	88.622	-24.1964
81.199997	88.533	-24.4434
82.500000	88.436	-24.6661
83.800003	88.338	-24.9061
85.000000	88.250	-25.0626
86.199997	88.166	-25.2587
87.500000	88.071	-25.4064
88.500000	88.004	-25.5363
90.000000	87.895	-25.6854
91.199997	87.815	-25.8282
92.500000	87.715	-25.9457
93.800003	87.625	-26.0606
95.000000	87.533	-26.1005
96.199997	87.464	-26.1514
97.500000	87.369	-26.2661
98.800003	87.284	-26.2665
100.000000	87.204	-26.3215
101.500000	87.100	-26.3479
103.000000	87.001	-26.3381
104.400002	86.905	-26.3619
106.000000	86.801	-26.3286
107.500000	86.706	-26.2824
109.000000	86.611	-26.2859
110.599998	86.505	-26.1943
112.000000	86.420	-26.1128
113.800003	86.306	-26.0504
115.000000	86.228	-25.9315
117.199997	86.099	-25.7629
118.000000	86.053	-25.7040
120.599998	85.892	-25.4381
122.000000	85.820	-25.3239
124.099998	85.697	-25.1204
125.000000	85.640	-25.0036
126.500000	85.564	-24.7798
128.000000	85.472	-24.6398
131.500000	85.288	-24.0938
132.000000	85.268	-24.0137
134.000000	85.162	-23.6676
136.000000	85.059	-23.4404
138.000000	84.963	-23.0814
140.000000	84.860	-22.7251
143.000000	84.729	-22.1694
145.000000	84.644	-21.8757
147.500000	84.525	-21.2928
150.000000	84.410	-20.7477
152.500000	84.313	-20.3260
155.000000	84.220	-19.7823
157.500000	84.121	-19.2186
160.000000	84.031	-18.6815
162.500000	83.939	-18.1003
165.000000	83.866	-17.5800
167.500000	83.782	-16.9386
170.000000	83.697	-16.3802
172.500000	83.638	-15.7670
175.000000	83.569	-15.2031
177.500000	83.504	-14.6271
180.000000	83.444	-13.9901
182.500000	83.387	-13.3685
185.000000	83.332	-12.7770
187.500000	83.281	-12.1329
190.000000	83.229	-11.4937
192.500000	83.183	-10.9515
195.000000	83.139	-10.2914
197.500000	83.104	-9.7383
200.000000	83.069	-9.1066
203.000000	83.029	-8.4866
206.000000	82.997	-7.7397
209.000000	82.965	-7.0796
212.000000	82.944	-6.3951
214.000000	82.933	-5.9714
218.000000	82.912	-5.1432
220.000000	82.892	-4.7800
224.000000	82.880	-3.9062
227.000000	82.870	-3.3280
230.000000	82.856	-2.7579
233.000000	82.846	-2.2521
236.000000	82.833	-1.7497
240.000000	82.821	-1.0162
243.000000	82.806	-0.5345
247.000000	82.795	0.1516
250.000000	82.776	0.6562
254.000000	82.779	1.2491
258.000000	82.771	1.9172
262.000000	82.762	2.5284
265.000000	82.766	2.9674
269.000000	82.755	3.5889
272.000000	82.757	3.9988
276.000000	82.759	4.6008
280.000000	82.756	5.1633
285.000000	82.769	5.9171
290.000000	82.753	6.5773
295.000000	82.762	7.2636
300.000000	82.778	7.8655
304.000000	82.780	8.4100
307.000000	82.783	8.7936
311.000000	82.799	9.3256
315.000000	82.798	9.7401
320.000000	82.808	10.2802
325.000000	82.825	10.9302
330.000000	82.828	11.4719
335.000000	82.856	12.0016
340.000000	82.854	12.4847
345.000000	82.874	13.0029
350.000000	82.882	13.5215
355.000000	82.895	14.0450
360.000000	82.911	14.5192
365.000000	82.931	14.9735
370.000000	82.936	15.4199
375.000000	82.954	15.8652
382.000000	82.984	16.4955
387.000000	82.983	16.9603
395.000000	83.006	17.5595
400.000000	83.009	17.9834
406.000000	83.030	18.5134
412.000000	83.043	18.9274
418.000000	83.057	19.4368
425.000000	83.073	19.9318
431.000000	83.086	20.4195
437.000000	83.096	20.8948
444.000000	83.114	21.4150
450.000000	83.122	21.7932
455.000000	83.129	22.1381
462.000000	83.148	22.6459
468.000000	83.161	23.0789
475.000000	83.175	23.6089
482.000000	83.175	24.0613
487.000000	83.193	24.3590
494.000000	83.202	24.8667
500.000000	83.212	25.2836
508.000000	83.215	25.8337
515.000000	83.240	26.2526
522.000000	83.240	26.7567
530.000000	83.248	27.1603
538.000000	83.270	27.7914
545.000000	83.276	28.2686
552.000000	83.275	28.6458
560.000000	83.300	29.2136
570.000000	83.312	29.8188
580.000000	83.321	30.4712
590.000000	83.337	31.1348
600.000000	83.345	31.7371
608.000000	83.361	32.3260
615.000000	83.366	32.7440
622.000000	83.369	33.2452
630.000000	83.393	33.7117
640.000000	83.400	34.2964
650.000000	83.409	34.9554
660.000000	83.425	35.6859
670.000000	83.438	36.3379
680.000000	83.464	37.0345
690.000000	83.485	37.6472
700.000000	83.496	38.3033
710.000000	83.513	38.9920
720.000000	83.535	39.6651
730.000000	83.567	40.2745
740.000000	83.584	41.0136
750.000000	83.608	41.6783
762.000000	83.637	42.4786
775.000000	83.675	43.3809
788.000000	83.723	44.2575
800.000000	83.757	45.0605
812.000000	83.812	45.9248
825.000000	83.870	46.7802
838.000000	83.915	47.6407
850.000000	83.969	48.4483
862.000000	84.024	49.2020
875.000000	84.101	50.1000
885.000000	84.145	50.7034
900.000000	84.237	51.6307
912.000000	84.308	52.3819
925.000000	84.391	53.1153
938.000000	84.475	53.8416
950.000000	84.567	54.4710
962.000000	84.652	55.0661
975.000000	84.741	55.6745
988.000000	84.845	56.3289
1000.000000	84.922	56.9002
1015.000000	85.035	57.4707
1030.000000	85.159	57.9893
1044.000000	85.264	58.5209
1060.000000	85.388	58.9919
1075.000000	85.496	59.4329
1090.000000	85.600	59.8522
1106.000000	85.714	60.2138
1120.000000	85.817	60.5019
1138.000000	85.935	60.8625
1150.000000	86.014	61.0695
1172.000000	86.150	61.3632
1180.000000	86.198	61.5280
1206.000000	86.338	61.8846
1220.000000	86.407	62.0515
1241.000000	86.513	62.2107
1250.000000	86.557	62.3534
1265.000000	86.619	62.5424
1280.000000	86.695	62.6949
1315.000000	86.847	63.0604
1320.000000	86.871	63.0787
1340.000000	86.953	63.2422
1360.000000	87.018	63.4924
1380.000000	87.085	63.6936
1400.000000	87.158	63.8994
1430.000000	87.251	64.2340
1450.000000	87.312	64.4435
1475.000000	87.391	64.7554
1500.000000	87.470	65.0882
1525.000000	87.545	65.4297
1550.000000	87.615	65.7689
1575.000000	87.684	66.0547
1600.000000	87.758	66.4282
1625.000000	87.831	66.7544
1650.000000	87.919	67.0882
1675.000000	88.007	67.4766
1700.000000	88.082	67.7575
1725.000000	88.162	68.1111
1750.000000	88.245	68.4559
1775.000000	88.325	68.8360
1800.000000	88.407	69.1299
1825.000000	88.491	69.4120
1850.000000	88.585	69.7516
1875.000000	88.675	70.0103
1900.000000	88.769	70.3115
1925.000000	88.864	70.5527
1950.000000	88.956	70.8138
1975.000000	89.051	71.0844
2000.000000	89.154	71.3018
2030.000000	89.278	71.5161
2060.000000	89.399	71.7026
2090.000000	89.518	71.8644
2120.000000	89.654	72.0244
2140.000000	89.734	72.1171
2180.000000	89.905	72.1994
2200.000000	89.990	72.2355
2240.000000	90.164	72.2899
2270.000000	90.302	72.2346
2300.000000	90.436	72.1315
2330.000000	90.565	72.0128
2360.000000	90.697	71.8389
2400.000000	90.875	71.5520
2430.000000	91.001	71.3367
2470.000000	91.179	70.8751
2500.000000	91.305	70.5039
2540.000000	91.473	69.9454
2580.000000	91.640	69.3568
2620.000000	91.784	68.6022
2650.000000	91.895	68.0056
2690.000000	92.033	67.1732
2720.000000	92.135	66.5330
2760.000000	92.255	65.5521
2800.000000	92.368	64.5587
2850.000000	92.498	63.2034
2900.000000	92.601	61.7988
2950.000000	92.697	60.3881
3000.000000	92.780	58.8962
3040.000000	92.814	57.6616
3070.000000	92.844	56.7585
3110.000000	92.867	55.5506
3150.000000	92.881	54.3361
3200.000000	92.895	52.7892
3250.000000	92.884	51.2175
3300.000000	92.858	49.6861
3350.000000	92.818	48.1472
3400.000000	92.755	46.6558
3450.000000	92.679	45.1591
3500.000000	92.582	43.6982
3550.000000	92.470	42.3706
3600.000000	92.334	41.1732
3650.000000	92.194	40.1331
3700.000000	92.049	39.1793
3750.000000	91.910	38.4034
3820.000000	91.707	37.4666
3870.000000	91.574	36.9270
3950.000000	91.368	36.2097
4000.000000	91.244	35.8585
4060.000000	91.122	35.5107
4120.000000	91.001	35.2364
4180.000000	90.879	34.9620
4250.000000	90.764	34.7502
4310.000000	90.672	34.6049
4370.000000	90.587	34.4984
4440.000000	90.500	34.2941
4500.000000	90.442	34.1039
4550.000000	90.398	34.0197
4620.000000	90.341	33.7483
4680.000000	90.300	33.5493
4750.000000	90.254	33.2263
4820.000000	90.222	32.7816
4870.000000	90.190	32.4808
4940.000000	90.144	32.0150
5000.000000	90.089	31.5265
5080.000000	90.035	30.8828
5150.000000	89.983	30.2320
5220.000000	89.907	29.5671
5300.000000	89.800	28.8784
5380.000000	89.702	28.1491
5450.000000	89.588	27.5483
5520.000000	89.481	27.0193
5600.000000	89.336	26.4241
5700.000000	89.137	25.8538
5800.000000	88.935	25.4855
5900.000000	88.724	25.3289
6000.000000	88.527	25.3210
6080.000000	88.366	25.4969
6150.000000	88.237	25.8632
6220.000000	88.126	26.2089
6300.000000	88.016	26.6924
6400.000000	87.909	27.3444
6500.000000	87.828	28.3313
6600.000000	87.798	29.1592
6700.000000	87.820	30.1276
6800.000000	87.876	31.1049
6900.000000	87.985	31.8362
7000.000000	88.144	32.4500
7100.000000	88.350	32.8016
7200.000000	88.619	32.8778
7300.000000	88.923	32.4281
7400.000000	89.266	31.4325
7500.000000	89.623	29.5797
7620.000000	89.994	26.6016
7750.000000	90.440	22.0199
7880.000000	90.622	15.4312
8000.000000	90.498	8.6729
8120.000000	90.105	2.2468
8250.000000	89.371	-3.7695
8380.000000	88.440	-7.9846
8500.000000	87.471	-9.9257
8620.000000	86.513	-9.7281
8750.000000	85.863	-6.3158
8850.000000	85.934	-5.9506
9000.000000	85.377	-9.1389
9120.000000	84.693	-9.3778
9250.000000	84.017	-8.3434
9380.000000	83.447	-6.8406
9500.000000	83.026	-4.7695
9620.000000	82.686	-2.5685
9750.000000	82.430	0.0500
9880.000000	82.242	2.6035
10000.000000	82.127	5.0013
10150.000000	82.128	7.7653
10300.000000	82.220	10.3103
10440.000000	82.384	12.2286
10600.000000	82.700	14.2302
10750.000000	83.098	14.9159
10900.000000	83.514	14.9125
11060.000000	83.985	14.0736
11200.000000	84.421	11.8243
11380.000000	84.828	7.5005
11500.000000	84.911	3.8849
11720.000000	84.749	-2.7706
11800.000000	84.554	-4.7153
12060.000000	83.717	-9.3341
12200.000000	83.270	-10.2308
12410.000000	82.732	-10.9264
12500.000000	82.528	-10.8553
12650.000000	82.267	-11.0557
12800.000000	81.976	-11.2167
13150.000000	81.462	-11.1501
13200.000000	81.438	-11.1377
13400.000000	81.196	-11.5070
13600.000000	81.019	-10.7141
13800.000000	80.876	-10.2996
14000.000000	80.788	-9.6326
14300.000000	81.101	-9.2999
14500.000000	81.473	-10.9434
14750.000000	81.669	-14.8679
15000.000000	81.753	-19.9526
15250.000000	81.649	-25.9221
15500.000000	81.154	-31.6046
15750.000000	80.456	-36.9640
16000.000000	79.624	-40.5117
16250.000000	78.783	-41.5165
16500.000000	78.080	-41.2922
16750.000000	77.584	-40.8278
17000.000000	77.284	-39.7484
17250.000000	77.197	-38.0728
17500.000000	77.244	-38.6574
17750.000000	77.520	-39.7386
18000.000000	77.699	-43.1511
18250.000000	77.724	-49.2338
18500.000000	77.154	-58.0798
18750.000000	75.792	-65.2860
19000.000000	73.974	-68.8180
19250.000000	72.027	-66.1626
19500.000000	70.415	-59.9369
19750.000000	69.248	-52.8519
