* Measurement data measured by REW V5.20.5
* Source: USB Sound Device        , MICROPHONE, R, volume: 0.668
* Format: 256k Log Swept Sine, 1 sweep at -6.0 dBFS with no timing reference
* Dated: 21 Aug, 2023 9:06:38 AM
* REW Settings:
*  C-weighting compensation: Off
*  Target level: 75.0 dB
* Note: 
* Measurement: MOONDROP SPACE TRAVEL Aug 21
* Smoothing: None
* Frequency Step: 1/48 octave
* Start Frequency: 20.000 Hz
*
* Freq(Hz)	SPL(dB)	Phase(degrees)
20.000000	92.658	148.4164
20.299999	92.558	148.6123
20.600000	92.472	148.8712
20.900000	92.404	149.1476
21.200001	92.352	149.3827
21.400000	92.320	149.4952
21.799999	92.256	149.6299
22.000000	92.218	149.6752
22.400000	92.126	149.8033
22.700001	92.049	149.9929
23.000000	91.975	150.2831
23.299999	91.913	150.6343
23.600000	91.862	150.9915
24.000000	91.807	151.4026
24.299999	91.767	151.6464
24.700001	91.706	151.9262
25.000000	91.656	152.1412
25.400000	91.591	152.4476
25.799999	91.534	152.7267
26.200001	91.480	152.9219
26.500000	91.434	153.0203
26.900000	91.362	153.1467
27.200001	91.305	153.2857
27.600000	91.233	153.5506
28.000000	91.180	153.8512
28.500000	91.138	154.1400
29.000000	91.100	154.2752
29.500000	91.050	154.3549
30.000000	90.990	154.5162
30.400000	90.946	154.7341
30.700001	90.920	154.9345
31.100000	90.895	155.2140
31.500000	90.879	155.4730
32.000000	90.865	155.7391
32.500000	90.848	155.9543
33.000000	90.826	156.1621
33.500000	90.801	156.3860
34.000000	90.778	156.6105
34.500000	90.756	156.8078
35.000000	90.734	156.9644
35.500000	90.709	157.0769
36.000000	90.676	157.1625
36.500000	90.634	157.2794
37.000000	90.593	157.4924
37.500000	90.571	157.7728
38.200001	90.577	158.0127
38.700001	90.580	157.9686
39.500000	90.533	157.8561
40.000000	90.493	157.9640
40.599998	90.467	158.2000
41.200001	90.460	158.3409
41.799999	90.445	158.3792
42.500000	90.411	158.4814
43.099998	90.391	158.6457
43.700001	90.383	158.7504
44.400002	90.368	158.7443
45.000000	90.340	158.7331
45.500000	90.314	158.7709
46.200001	90.285	158.8438
46.799999	90.261	158.8848
47.500000	90.235	158.9489
48.200001	90.220	158.9907
48.700001	90.209	158.9487
49.400002	90.174	158.8679
50.000000	90.135	158.9417
50.799999	90.117	159.1680
51.500000	90.123	159.1889
52.200001	90.106	159.1140
53.000000	90.079	159.1685
53.799999	90.065	159.1913
54.500000	90.034	159.1818
55.200001	90.006	159.3260
56.000000	90.006	159.3904
57.000000	89.964	159.1459
58.000000	89.897	159.2385
59.000000	89.876	159.2404
60.000000	89.839	159.1081
60.799999	89.813	159.0280
61.500000	89.787	158.9346
62.200001	89.758	158.9069
63.000000	89.737	158.9261
64.000000	89.715	158.8837
65.000000	89.683	158.8889
66.000000	89.667	158.8845
67.000000	89.634	158.6887
68.000000	89.571	158.6665
69.000000	89.537	158.7312
70.000000	89.495	158.6802
71.000000	89.460	158.7864
72.000000	89.438	158.7149
73.000000	89.384	158.7181
74.000000	89.357	158.8394
75.000000	89.329	158.7619
76.199997	89.278	158.7226
77.500000	89.226	158.6137
78.800003	89.167	158.5817
80.000000	89.129	158.5362
81.199997	89.081	158.4229
82.500000	89.019	158.4997
83.800003	88.986	158.5009
85.000000	88.926	158.4930
86.199997	88.887	158.5669
87.500000	88.838	158.4951
88.500000	88.792	158.4655
90.000000	88.731	158.5033
91.199997	88.691	158.4778
92.500000	88.642	158.4192
93.800003	88.589	158.4551
95.000000	88.558	158.3542
96.199997	88.484	158.2388
97.500000	88.411	158.4469
98.800003	88.400	158.6277
100.000000	88.375	158.3292
101.500000	88.261	158.4444
103.000000	88.245	158.5385
104.400002	88.148	158.6385
106.000000	88.119	158.7808
107.500000	88.065	158.8251
109.000000	88.000	158.7421
110.599998	87.945	158.8464
112.000000	87.878	158.9357
113.800003	87.816	159.1658
115.000000	87.778	159.2123
117.199997	87.695	159.2394
118.000000	87.663	159.2657
120.599998	87.606	159.4144
122.000000	87.509	159.6324
124.099998	87.479	159.9449
125.000000	87.423	159.8357
126.500000	87.313	160.1946
128.000000	87.336	160.1678
131.500000	87.218	160.3958
132.000000	87.208	160.4325
134.000000	87.130	160.6340
136.000000	87.062	160.8215
138.000000	86.995	160.9408
140.000000	86.955	161.4105
143.000000	86.798	161.3304
145.000000	86.740	161.8241
147.500000	86.612	162.1259
150.000000	86.587	162.3419
152.500000	86.508	162.6484
155.000000	86.492	162.8593
157.500000	86.425	163.3259
160.000000	86.345	163.6122
162.500000	86.273	164.1840
165.000000	86.204	164.5165
167.500000	86.143	164.6205
170.000000	86.073	165.4505
172.500000	85.987	165.1764
175.000000	85.972	165.6505
177.500000	85.928	166.1409
180.000000	85.891	166.7368
182.500000	85.830	166.8800
185.000000	85.763	167.2586
187.500000	85.719	167.6266
190.000000	85.673	168.0020
192.500000	85.592	168.4725
195.000000	85.539	168.6674
197.500000	85.537	168.9951
200.000000	85.529	169.3488
203.000000	85.482	170.0725
206.000000	85.438	170.5331
209.000000	85.381	170.7168
212.000000	85.353	171.0800
214.000000	85.326	171.4920
218.000000	85.328	172.1176
220.000000	85.334	172.5674
224.000000	85.228	172.6396
227.000000	85.196	173.4362
230.000000	85.135	173.5657
233.000000	85.108	174.1834
236.000000	85.096	174.5166
240.000000	85.059	175.3406
243.000000	85.040	175.5965
247.000000	85.038	176.1087
250.000000	84.982	176.4853
254.000000	84.990	176.9603
258.000000	84.966	177.4501
262.000000	84.974	177.9217
265.000000	84.925	178.5115
269.000000	84.920	178.7038
272.000000	84.924	179.0325
276.000000	84.869	179.8136
280.000000	84.871	-179.9472
285.000000	84.828	-179.2446
290.000000	84.815	-178.7158
295.000000	84.780	-178.0541
300.000000	84.866	-177.8172
304.000000	84.845	-177.4237
307.000000	84.795	-176.7654
311.000000	84.739	-176.5588
315.000000	84.800	-176.1235
320.000000	84.767	-175.3073
325.000000	84.777	-175.0272
330.000000	84.719	-174.3475
335.000000	84.726	-174.0199
340.000000	84.733	-173.6283
345.000000	84.727	-173.1473
350.000000	84.724	-172.6152
355.000000	84.748	-172.1038
360.000000	84.739	-171.7585
365.000000	84.730	-171.2896
370.000000	84.729	-170.8557
375.000000	84.731	-170.4859
382.000000	84.769	-169.8220
387.000000	84.739	-169.4353
395.000000	84.755	-169.1044
400.000000	84.721	-168.5350
406.000000	84.732	-168.2096
412.000000	84.705	-167.8622
418.000000	84.695	-167.1002
425.000000	84.674	-166.8258
431.000000	84.707	-166.4135
437.000000	84.677	-166.0256
444.000000	84.657	-165.3453
450.000000	84.615	-165.0375
455.000000	84.607	-164.7471
462.000000	84.607	-164.2005
468.000000	84.606	-163.7311
475.000000	84.599	-163.2479
482.000000	84.592	-162.7916
487.000000	84.556	-162.3893
494.000000	84.537	-161.8156
500.000000	84.535	-161.2089
508.000000	84.529	-160.7762
515.000000	84.503	-160.1756
522.000000	84.519	-159.6759
530.000000	84.497	-159.1990
538.000000	84.484	-158.6044
545.000000	84.481	-158.2098
552.000000	84.475	-157.7247
560.000000	84.465	-157.1140
570.000000	84.459	-156.4827
580.000000	84.449	-155.7525
590.000000	84.452	-155.2282
600.000000	84.482	-154.4898
608.000000	84.465	-153.9538
615.000000	84.443	-153.4828
622.000000	84.458	-152.9619
630.000000	84.442	-152.6507
640.000000	84.458	-151.8286
650.000000	84.470	-151.2034
660.000000	84.440	-150.4138
670.000000	84.458	-150.1085
680.000000	84.477	-149.1801
690.000000	84.456	-148.6117
700.000000	84.482	-148.0685
710.000000	84.468	-147.3464
720.000000	84.489	-146.7604
730.000000	84.489	-146.0767
740.000000	84.471	-145.4582
750.000000	84.507	-144.9014
762.000000	84.518	-144.1239
775.000000	84.539	-143.1237
788.000000	84.537	-142.4395
800.000000	84.568	-141.5145
812.000000	84.587	-140.7504
825.000000	84.602	-139.9434
838.000000	84.636	-139.0470
850.000000	84.669	-138.2377
862.000000	84.687	-137.5703
875.000000	84.739	-136.6926
885.000000	84.772	-135.9323
900.000000	84.837	-135.0301
912.000000	84.873	-134.3714
925.000000	84.932	-133.6055
938.000000	85.015	-132.8170
950.000000	85.042	-132.1707
962.000000	85.126	-131.3888
975.000000	85.185	-130.6371
988.000000	85.264	-130.0149
1000.000000	85.273	-129.2374
1015.000000	85.398	-128.5846
1030.000000	85.499	-127.9351
1044.000000	85.599	-127.3568
1060.000000	85.678	-126.6599
1075.000000	85.780	-126.0460
1090.000000	85.859	-125.4314
1106.000000	85.942	-125.0428
1120.000000	86.055	-124.6046
1138.000000	86.154	-124.0125
1150.000000	86.198	-123.6704
1172.000000	86.351	-123.1200
1180.000000	86.390	-122.9205
1206.000000	86.507	-122.2722
1220.000000	86.591	-121.9883
1241.000000	86.690	-121.5228
1250.000000	86.715	-121.2351
1265.000000	86.795	-121.1010
1280.000000	86.865	-120.8326
1315.000000	86.995	-120.0839
1320.000000	87.028	-120.0826
1340.000000	87.104	-119.6714
1360.000000	87.184	-119.2305
1380.000000	87.246	-118.9498
1400.000000	87.326	-118.5418
1430.000000	87.403	-117.9529
1450.000000	87.500	-117.5598
1475.000000	87.581	-117.0393
1500.000000	87.660	-116.5311
1525.000000	87.742	-115.9153
1550.000000	87.811	-115.3678
1575.000000	87.907	-114.7701
1600.000000	88.008	-114.2450
1625.000000	88.093	-113.7032
1650.000000	88.185	-113.0865
1675.000000	88.285	-112.5709
1700.000000	88.397	-111.9166
1725.000000	88.506	-111.2736
1750.000000	88.613	-110.8098
1775.000000	88.742	-110.1374
1800.000000	88.865	-109.6146
1825.000000	88.989	-109.0391
1850.000000	89.128	-108.4044
1875.000000	89.280	-107.9331
1900.000000	89.451	-107.4243
1925.000000	89.601	-106.9305
1950.000000	89.766	-106.4135
1975.000000	89.941	-106.0513
2000.000000	90.147	-105.9182
2030.000000	90.340	-105.3479
2060.000000	90.575	-105.1027
2090.000000	90.822	-104.8932
2120.000000	91.074	-104.8281
2140.000000	91.248	-104.8212
2180.000000	91.599	-105.0844
2200.000000	91.775	-105.2358
2240.000000	92.119	-105.8226
2270.000000	92.371	-106.3244
2300.000000	92.629	-107.0035
2330.000000	92.876	-107.8011
2360.000000	93.123	-108.7631
2400.000000	93.406	-110.2917
2430.000000	93.605	-111.4113
2470.000000	93.862	-113.1262
2500.000000	94.030	-114.4868
2540.000000	94.230	-116.3593
2580.000000	94.391	-118.3831
2620.000000	94.539	-120.3019
2650.000000	94.622	-121.8272
2690.000000	94.694	-123.8376
2720.000000	94.767	-125.2588
2760.000000	94.814	-127.0576
2800.000000	94.853	-128.9789
2850.000000	94.867	-131.1761
2900.000000	94.899	-133.3808
2950.000000	94.888	-135.5331
3000.000000	94.877	-137.4218
3040.000000	94.824	-139.1336
3070.000000	94.806	-140.2691
3110.000000	94.761	-141.8424
3150.000000	94.695	-143.4031
3200.000000	94.620	-145.1606
3250.000000	94.531	-146.8556
3300.000000	94.437	-148.4390
3350.000000	94.339	-149.9774
3400.000000	94.221	-151.4130
3450.000000	94.107	-152.9177
3500.000000	93.995	-154.2021
3550.000000	93.884	-155.5532
3600.000000	93.762	-156.7795
3650.000000	93.638	-157.9315
3700.000000	93.540	-159.0750
3750.000000	93.417	-160.2652
3820.000000	93.261	-161.6924
3870.000000	93.155	-162.7168
3950.000000	92.983	-164.4216
4000.000000	92.860	-165.3816
4060.000000	92.763	-166.7209
4120.000000	92.625	-167.9226
4180.000000	92.485	-169.1687
4250.000000	92.330	-170.7636
4310.000000	92.203	-171.9789
4370.000000	92.058	-173.1981
4440.000000	91.897	-174.8112
4500.000000	91.728	-176.2076
4550.000000	91.596	-177.3220
4620.000000	91.382	-178.9114
4680.000000	91.215	179.7364
4750.000000	90.948	178.0324
4820.000000	90.662	176.4061
4870.000000	90.465	175.3506
4940.000000	90.129	173.9368
5000.000000	89.814	172.6258
5080.000000	89.387	171.5964
5150.000000	88.982	170.9452
5220.000000	88.583	170.5103
5300.000000	88.146	170.6106
5380.000000	87.775	171.0731
5450.000000	87.453	171.6887
5520.000000	87.215	172.1674
5600.000000	86.960	173.7273
5700.000000	86.679	175.2660
5800.000000	86.478	176.9239
5900.000000	86.335	177.8670
6000.000000	86.139	178.7774
6080.000000	86.014	179.8790
6150.000000	85.893	-179.7225
6220.000000	85.736	-179.2513
6300.000000	85.594	-178.7292
6400.000000	85.414	-178.1474
6500.000000	85.132	-177.5504
6600.000000	84.891	-176.6689
6700.000000	84.634	-176.0223
6800.000000	84.362	-175.0809
6900.000000	84.091	-174.2548
7000.000000	83.790	-172.9381
7100.000000	83.508	-171.8495
7200.000000	83.191	-170.0957
7300.000000	82.854	-168.2726
7400.000000	82.506	-166.1057
7500.000000	82.157	-163.3276
7620.000000	81.811	-159.7002
7750.000000	81.502	-153.8551
7880.000000	81.385	-147.0654
8000.000000	81.562	-139.6193
8120.000000	82.068	-132.3327
8250.000000	83.212	-125.3453
8380.000000	84.747	-122.3797
8500.000000	86.373	-123.1037
8620.000000	87.764	-128.4662
8750.000000	88.700	-137.4675
8850.000000	88.953	-145.4391
9000.000000	88.592	-155.1747
9120.000000	88.033	-160.6646
9250.000000	87.377	-164.3465
9380.000000	86.684	-166.6569
9500.000000	86.184	-167.4612
9620.000000	85.720	-167.9196
9750.000000	85.289	-167.2937
9880.000000	84.985	-167.0948
10000.000000	84.752	-166.7299
10150.000000	84.509	-167.5710
10300.000000	84.356	-168.3095
10440.000000	84.264	-169.7418
10600.000000	84.086	-171.8246
10750.000000	83.951	-173.7120
10900.000000	83.669	-175.9503
11060.000000	83.397	-177.8704
11200.000000	83.065	-179.5748
11380.000000	82.555	178.8463
11500.000000	82.235	177.8052
11720.000000	81.668	177.2527
11800.000000	81.468	177.2080
12060.000000	80.865	178.4204
12200.000000	80.574	178.9460
12410.000000	80.159	-178.9258
12500.000000	80.058	-176.9969
12650.000000	79.956	-174.7094
12800.000000	79.956	-170.0631
13150.000000	81.584	-160.1734
13200.000000	82.070	-159.7519
13400.000000	84.013	-159.8472
13600.000000	86.347	-167.4661
13800.000000	88.112	176.8246
14000.000000	88.698	155.3988
14300.000000	87.206	127.7497
14500.000000	85.539	115.4021
14750.000000	83.208	104.4313
15000.000000	81.075	98.5221
15250.000000	79.057	95.4244
15500.000000	77.234	95.7704
15750.000000	75.787	98.5370
16000.000000	74.598	102.3921
16250.000000	74.062	107.0694
16500.000000	73.605	110.5020
16750.000000	73.913	115.2682
17000.000000	74.395	117.1993
17250.000000	75.494	116.2367
17500.000000	76.205	107.2281
17750.000000	41.614	-138.2863
18000.000000	32.226	13.1475
18250.000000	42.912	-72.1484
18500.000000	39.678	-93.9414
18750.000000	35.069	-3.8867
19000.000000	40.007	166.7031
19250.000000	37.815	-137.1094
19500.000000	39.827	29.4375
19750.000000	25.633	-37.5781
