* Measurement data measured by REW V5.20.5
* Source: USB Sound Device        , MICROPHONE, R, volume: 0.494
* Format: 256k Log Swept Sine, 1 sweep at -6.0 dBFS with no timing reference
* Dated: 16 Nov, 2023 4:30:12 PM
* REW Settings:
*  C-weighting compensation: Off
*  Target level: 75.0 dB
* Note: 
* Measurement: ORIVETI 0D100 Nov 16
* Smoothing: None
* Frequency Step: 1/48 octave
* Start Frequency: 20.000 Hz
*
* Freq(Hz)	SPL(dB)	Phase(degrees)
20.000000	88.585	-118.8719
20.299999	88.677	-119.3528
20.600000	88.766	-119.8272
20.900000	88.852	-120.2938
21.200001	88.936	-120.7529
21.400000	88.991	-121.0558
21.799999	89.098	-121.6559
22.000000	89.150	-121.9538
22.400000	89.252	-122.5447
22.700001	89.326	-122.9829
23.000000	89.398	-123.4164
23.299999	89.468	-123.8464
23.600000	89.538	-124.2745
24.000000	89.628	-124.8446
24.299999	89.694	-125.2716
24.700001	89.779	-125.8380
25.000000	89.841	-126.2582
25.400000	89.922	-126.8108
25.799999	90.002	-127.3551
26.200001	90.079	-127.8942
26.500000	90.137	-128.2966
26.900000	90.211	-128.8312
27.200001	90.265	-129.2297
27.600000	90.335	-129.7551
28.000000	90.403	-130.2707
28.500000	90.485	-130.8991
29.000000	90.564	-131.5135
29.500000	90.641	-132.1210
30.000000	90.716	-132.7269
30.400000	90.773	-133.2090
30.700001	90.814	-133.5673
31.100000	90.867	-134.0383
31.500000	90.919	-134.5018
32.000000	90.981	-135.0732
32.500000	91.042	-135.6398
33.000000	91.100	-136.2028
33.500000	91.157	-136.7594
34.000000	91.211	-137.3073
34.500000	91.264	-137.8476
35.000000	91.316	-138.3834
35.500000	91.365	-138.9154
36.000000	91.413	-139.4394
36.500000	91.458	-139.9505
37.000000	91.502	-140.4491
37.500000	91.546	-140.9409
38.200001	91.605	-141.6267
38.700001	91.645	-142.1134
39.500000	91.705	-142.8792
40.000000	91.741	-143.3498
40.599998	91.781	-143.9061
41.200001	91.819	-144.4503
41.799999	91.857	-144.9841
42.500000	91.899	-145.6037
43.099998	91.934	-146.1355
43.700001	91.965	-146.6592
44.400002	91.999	-147.2482
45.000000	92.028	-147.7376
45.500000	92.053	-148.1438
46.200001	92.084	-148.7145
46.799999	92.109	-149.1942
47.500000	92.136	-149.7309
48.200001	92.165	-150.2629
48.700001	92.186	-150.6570
49.400002	92.208	-151.2200
50.000000	92.221	-151.6761
50.799999	92.240	-152.2187
51.500000	92.263	-152.6837
52.200001	92.287	-153.1876
53.000000	92.306	-153.7758
53.799999	92.321	-154.3275
54.500000	92.334	-154.7916
55.200001	92.347	-155.2466
56.000000	92.361	-155.7552
57.000000	92.380	-156.3913
58.000000	92.397	-157.0218
59.000000	92.410	-157.6732
60.000000	92.411	-158.2745
60.799999	92.417	-158.6879
61.500000	92.427	-159.0755
62.200001	92.432	-159.4900
63.000000	92.433	-159.9336
64.000000	92.437	-160.4607
65.000000	92.439	-160.9927
66.000000	92.441	-161.5201
67.000000	92.439	-162.0461
68.000000	92.437	-162.5359
69.000000	92.438	-163.0401
70.000000	92.431	-163.5339
71.000000	92.427	-163.9827
72.000000	92.424	-164.4465
73.000000	92.417	-164.8968
74.000000	92.410	-165.3307
75.000000	92.401	-165.7637
76.199997	92.392	-166.2626
77.500000	92.378	-166.8225
78.800003	92.362	-167.3472
80.000000	92.348	-167.8148
81.199997	92.335	-168.2790
82.500000	92.316	-168.7601
83.800003	92.302	-169.2344
85.000000	92.281	-169.6748
86.199997	92.264	-170.0680
87.500000	92.244	-170.5168
88.500000	92.227	-170.8506
90.000000	92.202	-171.3289
91.199997	92.183	-171.7177
92.500000	92.158	-172.1146
93.800003	92.133	-172.5009
95.000000	92.111	-172.8286
96.199997	92.089	-173.1820
97.500000	92.062	-173.5439
98.800003	92.038	-173.8956
100.000000	92.014	-174.2428
101.500000	91.977	-174.5958
103.000000	91.952	-174.9552
104.400002	91.922	-175.3032
106.000000	91.887	-175.6682
107.500000	91.858	-176.0437
109.000000	91.822	-176.3752
110.599998	91.787	-176.7242
112.000000	91.758	-176.9998
113.800003	91.718	-177.3724
115.000000	91.689	-177.5995
117.199997	91.636	-178.0235
118.000000	91.617	-178.1705
120.599998	91.557	-178.6288
122.000000	91.523	-178.8726
124.099998	91.474	-179.1887
125.000000	91.452	-179.3439
126.500000	91.414	-179.5678
128.000000	91.377	-179.8014
131.500000	91.296	179.6915
132.000000	91.282	179.6096
134.000000	91.232	179.3726
136.000000	91.182	179.1260
138.000000	91.131	178.9007
140.000000	91.087	178.6448
143.000000	91.008	178.3175
145.000000	90.962	178.1265
147.500000	90.898	177.8746
150.000000	90.837	177.6318
152.500000	90.776	177.4264
155.000000	90.713	177.2498
157.500000	90.650	177.0643
160.000000	90.589	176.9089
162.500000	90.531	176.7270
165.000000	90.470	176.6068
167.500000	90.410	176.4642
170.000000	90.345	176.3395
172.500000	90.285	176.2374
175.000000	90.223	176.1322
177.500000	90.164	176.0451
180.000000	90.104	175.9615
182.500000	90.048	175.8837
185.000000	89.987	175.7977
187.500000	89.927	175.7679
190.000000	89.871	175.7070
192.500000	89.809	175.6877
195.000000	89.753	175.6453
197.500000	89.690	175.6577
200.000000	89.639	175.6366
203.000000	89.569	175.6580
206.000000	89.501	175.6542
209.000000	89.434	175.6561
212.000000	89.366	175.6838
214.000000	89.323	175.7106
218.000000	89.234	175.7657
220.000000	89.192	175.8209
224.000000	89.104	175.9082
227.000000	89.040	175.9630
230.000000	88.978	176.0262
233.000000	88.913	176.1682
236.000000	88.849	176.2384
240.000000	88.772	176.3827
243.000000	88.704	176.4887
247.000000	88.627	176.6470
250.000000	88.562	176.7616
254.000000	88.485	176.9413
258.000000	88.409	177.1490
262.000000	88.328	177.3324
265.000000	88.272	177.4847
269.000000	88.198	177.7061
272.000000	88.140	177.9111
276.000000	88.065	178.0970
280.000000	87.995	178.3462
285.000000	87.902	178.6618
290.000000	87.816	179.0307
295.000000	87.728	179.3203
300.000000	87.644	179.6987
304.000000	87.577	179.9723
307.000000	87.522	-179.8223
311.000000	87.456	-179.5019
315.000000	87.389	-179.2460
320.000000	87.314	-178.8564
325.000000	87.234	-178.4302
330.000000	87.157	-178.0156
335.000000	87.077	-177.5923
340.000000	86.999	-177.2039
345.000000	86.930	-176.7680
350.000000	86.859	-176.3569
355.000000	86.780	-175.9172
360.000000	86.714	-175.4540
365.000000	86.644	-174.9688
370.000000	86.573	-174.5266
375.000000	86.504	-174.0516
382.000000	86.411	-173.4012
387.000000	86.350	-172.9483
395.000000	86.241	-172.1267
400.000000	86.186	-171.6850
406.000000	86.114	-171.0749
412.000000	86.028	-170.4613
418.000000	85.961	-169.8571
425.000000	85.883	-169.1711
431.000000	85.819	-168.5999
437.000000	85.759	-167.8763
444.000000	85.671	-167.1647
450.000000	85.609	-166.5258
455.000000	85.567	-166.0278
462.000000	85.478	-165.2412
468.000000	85.430	-164.6318
475.000000	85.367	-163.8558
482.000000	85.292	-163.1202
487.000000	85.253	-162.5264
494.000000	85.185	-161.7658
500.000000	85.133	-161.1487
508.000000	85.062	-160.2378
515.000000	85.004	-159.4587
522.000000	84.943	-158.6116
530.000000	84.877	-157.7751
538.000000	84.825	-156.8216
545.000000	84.760	-155.9931
552.000000	84.714	-155.2127
560.000000	84.660	-154.2780
570.000000	84.587	-153.1253
580.000000	84.523	-151.8738
590.000000	84.447	-150.7748
600.000000	84.401	-149.5795
608.000000	84.356	-148.6525
615.000000	84.310	-147.7362
622.000000	84.270	-146.9462
630.000000	84.234	-145.8896
640.000000	84.182	-144.7690
650.000000	84.125	-143.5097
660.000000	84.092	-142.2766
670.000000	84.052	-141.0784
680.000000	84.011	-139.8317
690.000000	83.973	-138.5511
700.000000	83.942	-137.2998
710.000000	83.898	-136.0648
720.000000	83.876	-134.8684
730.000000	83.850	-133.5906
740.000000	83.845	-132.2373
750.000000	83.821	-131.0502
762.000000	83.809	-129.5224
775.000000	83.783	-127.8527
788.000000	83.793	-126.2297
800.000000	83.778	-124.6803
812.000000	83.791	-123.0901
825.000000	83.805	-121.4828
838.000000	83.819	-119.8171
850.000000	83.841	-118.3974
862.000000	83.865	-116.7741
875.000000	83.901	-115.1880
885.000000	83.939	-113.9801
900.000000	83.992	-112.1131
912.000000	84.030	-110.7122
925.000000	84.088	-109.1765
938.000000	84.150	-107.6658
950.000000	84.206	-106.2984
962.000000	84.263	-104.9327
975.000000	84.340	-103.5555
988.000000	84.402	-102.1191
1000.000000	84.443	-100.7372
1015.000000	84.597	-98.6400
1030.000000	84.699	-97.5740
1044.000000	84.817	-96.1267
1060.000000	84.939	-94.5993
1075.000000	85.050	-93.3568
1090.000000	85.160	-92.0365
1106.000000	85.276	-90.7190
1120.000000	85.387	-89.5418
1138.000000	85.519	-88.0877
1150.000000	85.610	-87.1554
1172.000000	85.777	-85.5137
1180.000000	85.837	-84.8528
1206.000000	86.021	-83.0089
1220.000000	86.137	-81.9838
1241.000000	86.294	-80.6214
1250.000000	86.354	-79.9802
1265.000000	86.461	-78.9899
1280.000000	86.578	-78.0513
1315.000000	86.831	-75.9222
1320.000000	86.860	-75.6182
1340.000000	87.016	-74.4919
1360.000000	87.155	-73.4198
1380.000000	87.291	-72.3548
1400.000000	87.428	-71.2772
1430.000000	87.626	-69.7961
1450.000000	87.757	-68.8415
1475.000000	87.910	-67.6547
1500.000000	88.075	-66.4263
1525.000000	88.222	-65.3025
1550.000000	88.363	-64.1916
1575.000000	88.503	-63.0602
1600.000000	88.644	-61.9011
1625.000000	88.781	-60.7753
1650.000000	88.930	-59.6316
1675.000000	89.060	-58.5193
1700.000000	89.209	-57.4306
1725.000000	89.341	-56.2939
1750.000000	89.488	-55.2281
1775.000000	89.634	-54.0906
1800.000000	89.781	-52.9973
1825.000000	89.936	-51.9559
1850.000000	90.086	-50.9033
1875.000000	90.240	-49.8419
1900.000000	90.401	-48.8886
1925.000000	90.558	-47.8604
1950.000000	90.726	-46.8909
1975.000000	90.889	-45.9133
2000.000000	91.072	-45.0758
2030.000000	91.270	-44.0088
2060.000000	91.484	-43.0136
2090.000000	91.701	-42.0861
2120.000000	91.920	-41.1999
2140.000000	92.067	-40.6065
2180.000000	92.364	-39.6065
2200.000000	92.523	-39.1093
2240.000000	92.826	-38.3117
2270.000000	93.056	-37.7393
2300.000000	93.292	-37.2841
2330.000000	93.521	-36.8789
2360.000000	93.757	-36.6191
2400.000000	94.063	-36.4247
2430.000000	94.289	-36.3609
2470.000000	94.590	-36.4448
2500.000000	94.805	-36.6584
2540.000000	95.080	-37.0262
2580.000000	95.341	-37.6225
2620.000000	95.582	-38.3869
2650.000000	95.751	-39.0537
2690.000000	95.953	-40.0976
2720.000000	96.084	-40.9900
2760.000000	96.239	-42.2365
2800.000000	96.357	-43.6257
2850.000000	96.464	-45.4118
2900.000000	96.516	-47.2025
2950.000000	96.521	-49.0019
3000.000000	96.484	-50.6252
3040.000000	96.423	-51.9170
3070.000000	96.363	-52.7839
3110.000000	96.267	-53.7829
3150.000000	96.156	-54.6669
3200.000000	95.996	-55.5637
3250.000000	95.821	-56.2380
3300.000000	95.640	-56.7183
3350.000000	95.459	-56.9451
3400.000000	95.279	-56.9972
3450.000000	95.102	-56.8781
3500.000000	94.926	-56.5994
3550.000000	94.762	-56.1926
3600.000000	94.604	-55.6014
3650.000000	94.472	-54.9595
3700.000000	94.342	-54.2177
3750.000000	94.225	-53.3900
3820.000000	94.083	-52.1142
3870.000000	93.997	-51.1526
3950.000000	93.898	-49.5612
4000.000000	93.852	-48.5315
4060.000000	93.811	-47.3102
4120.000000	93.803	-46.1006
4180.000000	93.806	-44.9392
4250.000000	93.829	-43.6142
4310.000000	93.876	-42.6015
4370.000000	93.930	-41.6399
4440.000000	94.022	-40.7458
4500.000000	94.118	-40.0442
4550.000000	94.201	-39.6052
4620.000000	94.325	-39.2301
4680.000000	94.437	-39.0956
4750.000000	94.569	-39.1874
4820.000000	94.692	-39.6033
4870.000000	94.769	-40.0744
4940.000000	94.866	-41.0019
5000.000000	94.918	-42.0519
5080.000000	94.938	-43.6895
5150.000000	94.901	-45.3010
5220.000000	94.813	-47.0651
5300.000000	94.626	-49.1238
5380.000000	94.370	-51.0862
5450.000000	94.081	-52.6099
5520.000000	93.749	-53.8533
5600.000000	93.321	-55.0276
5700.000000	92.733	-55.8913
5800.000000	92.111	-56.1287
5900.000000	91.468	-55.8075
6000.000000	90.831	-55.0166
6080.000000	90.305	-53.9746
6150.000000	89.860	-52.8407
6220.000000	89.405	-51.4920
6300.000000	88.915	-49.6769
6400.000000	88.289	-46.9857
6500.000000	87.719	-43.8213
6600.000000	87.208	-40.2825
6700.000000	86.751	-36.3063
6800.000000	86.357	-32.4025
6900.000000	86.011	-28.2229
7000.000000	85.724	-23.9847
7100.000000	85.506	-19.6545
7200.000000	85.326	-15.3932
7300.000000	85.195	-11.2932
7400.000000	85.115	-7.2707
7500.000000	85.061	-3.1480
7620.000000	85.035	1.6678
7750.000000	85.072	6.8137
7880.000000	85.201	11.8416
8000.000000	85.400	16.2584
8120.000000	85.637	20.7147
8250.000000	85.998	25.1402
8380.000000	86.448	29.2403
8500.000000	86.931	32.6723
8620.000000	87.519	35.4124
8750.000000	88.231	37.7038
8850.000000	88.869	38.7132
9000.000000	89.907	38.5665
9120.000000	90.763	36.5832
9250.000000	91.618	32.2107
9380.000000	92.229	25.3062
9500.000000	92.401	17.4105
9620.000000	92.114	9.3685
9750.000000	91.374	2.2067
9880.000000	90.383	-2.4493
10000.000000	89.384	-4.6943
10150.000000	88.186	-5.3107
10300.000000	87.095	-3.8360
10440.000000	86.194	-1.3406
10600.000000	85.370	2.3953
10750.000000	84.692	6.1914
10900.000000	84.132	10.6526
11060.000000	83.672	15.4371
11200.000000	83.393	19.9743
11380.000000	83.121	25.9543
11500.000000	83.109	29.7282
11720.000000	83.162	36.7936
11800.000000	83.259	39.3221
12060.000000	83.839	47.6721
12200.000000	84.384	50.6105
12410.000000	85.288	54.3099
12500.000000	85.810	55.3601
12650.000000	86.815	56.1739
12800.000000	88.001	54.4074
13150.000000	90.540	34.6890
13200.000000	90.641	29.9443
13400.000000	89.872	10.1356
13600.000000	87.755	-2.5491
13800.000000	85.456	-7.4061
14000.000000	83.377	-7.4012
14300.000000	80.877	-3.1922
14500.000000	79.584	1.6018
14750.000000	78.279	7.5979
15000.000000	77.322	14.7978
15250.000000	76.699	21.7627
15500.000000	76.322	28.5615
15750.000000	76.260	34.4475
16000.000000	76.555	39.5723
16250.000000	77.017	42.9791
16500.000000	77.847	43.6384
16750.000000	78.873	38.7009
17000.000000	79.143	26.2429
17250.000000	77.351	16.0490
17500.000000	76.809	17.3515
17750.000000	75.852	9.2463
18000.000000	74.070	5.7485
18250.000000	72.426	5.5792
18500.000000	71.213	7.9277
18750.000000	69.980	7.3360
19000.000000	68.849	8.9016
19250.000000	68.025	9.6066
19500.000000	66.100	8.2842
19750.000000	65.040	9.3072
