* Measurement data measured by REW V5.20.5
* Source: USB Sound Device        , MICROPHONE, R, volume: 0.494
* Format: 256k Log Swept Sine, 1 sweep at -6.0 dBFS with no timing reference
* Dated: 16 Nov, 2023 4:29:41 PM
* REW Settings:
*  C-weighting compensation: Off
*  Target level: 75.0 dB
* Note: 
* Measurement: ORIVETI 0D100 Nov 16
* Smoothing: None
* Frequency Step: 1/48 octave
* Start Frequency: 20.000 Hz
*
* Freq(Hz)	SPL(dB)	Phase(degrees)
20.000000	88.888	-121.0987
20.299999	88.975	-121.5877
20.600000	89.060	-122.0756
20.900000	89.143	-122.5642
21.200001	89.224	-123.0535
21.400000	89.276	-123.3786
21.799999	89.376	-124.0210
22.000000	89.424	-124.3354
22.400000	89.517	-124.9452
22.700001	89.586	-125.3872
23.000000	89.655	-125.8219
23.299999	89.724	-126.2576
23.600000	89.793	-126.6998
24.000000	89.881	-127.3024
24.299999	89.945	-127.7589
24.700001	90.024	-128.3613
25.000000	90.081	-128.8005
25.400000	90.154	-129.3660
25.799999	90.227	-129.9152
26.200001	90.299	-130.4594
26.500000	90.353	-130.8687
26.900000	90.422	-131.4159
27.200001	90.472	-131.8241
27.600000	90.536	-132.3604
28.000000	90.598	-132.8844
28.500000	90.675	-133.5263
29.000000	90.750	-134.1657
29.500000	90.822	-134.8105
30.000000	90.889	-135.4529
30.400000	90.938	-135.9534
30.700001	90.974	-136.3170
31.100000	91.022	-136.7878
31.500000	91.069	-137.2500
32.000000	91.128	-137.8274
32.500000	91.184	-138.4067
33.000000	91.237	-138.9787
33.500000	91.288	-139.5389
34.000000	91.338	-140.0930
34.500000	91.385	-140.6458
35.000000	91.430	-141.1918
35.500000	91.472	-141.7227
36.000000	91.514	-142.2405
36.500000	91.555	-142.7551
37.000000	91.594	-143.2702
37.500000	91.630	-143.7779
38.200001	91.679	-144.4648
38.700001	91.713	-144.9465
39.500000	91.765	-145.7162
40.000000	91.795	-146.1863
40.599998	91.830	-146.7349
41.200001	91.865	-147.2849
41.799999	91.897	-147.8414
42.500000	91.929	-148.4662
43.099998	91.957	-148.9712
43.700001	91.986	-149.4816
44.400002	92.017	-150.0968
45.000000	92.038	-150.6043
45.500000	92.055	-151.0026
46.200001	92.082	-151.5597
46.799999	92.104	-152.0539
47.500000	92.123	-152.6050
48.200001	92.144	-153.1164
48.700001	92.162	-153.4904
49.400002	92.183	-154.0460
50.000000	92.195	-154.5110
50.799999	92.208	-155.0697
51.500000	92.223	-155.5384
52.200001	92.238	-156.0209
53.000000	92.251	-156.5687
53.799999	92.263	-157.0978
54.500000	92.273	-157.5603
55.200001	92.281	-158.0274
56.000000	92.286	-158.5486
57.000000	92.290	-159.1561
58.000000	92.300	-159.7390
59.000000	92.311	-160.3624
60.000000	92.312	-160.9908
60.799999	92.310	-161.4264
61.500000	92.313	-161.7971
62.200001	92.317	-162.1922
63.000000	92.316	-162.6379
64.000000	92.314	-163.1717
65.000000	92.308	-163.6898
66.000000	92.305	-164.1755
67.000000	92.302	-164.6984
68.000000	92.291	-165.1830
69.000000	92.286	-165.6367
70.000000	92.279	-166.1122
71.000000	92.272	-166.5712
72.000000	92.262	-167.0382
73.000000	92.249	-167.4704
74.000000	92.239	-167.8978
75.000000	92.225	-168.3312
76.199997	92.209	-168.8069
77.500000	92.193	-169.3337
78.800003	92.174	-169.8458
80.000000	92.156	-170.2956
81.199997	92.138	-170.7457
82.500000	92.116	-171.2031
83.800003	92.095	-171.6749
85.000000	92.071	-172.0887
86.199997	92.050	-172.4821
87.500000	92.026	-172.9167
88.500000	92.005	-173.2273
90.000000	91.980	-173.6940
91.199997	91.952	-174.0643
92.500000	91.925	-174.4206
93.800003	91.900	-174.7956
95.000000	91.873	-175.1464
96.199997	91.846	-175.4608
97.500000	91.817	-175.8157
98.800003	91.788	-176.1470
100.000000	91.760	-176.4584
101.500000	91.727	-176.8351
103.000000	91.688	-177.1557
104.400002	91.666	-177.5089
106.000000	91.615	-177.8590
107.500000	91.584	-178.1688
109.000000	91.546	-178.4653
110.599998	91.508	-178.7977
112.000000	91.474	-179.0837
113.800003	91.425	-179.4233
115.000000	91.399	-179.6298
117.199997	91.343	179.9625
118.000000	91.323	179.8228
120.599998	91.257	179.4096
122.000000	91.221	179.1807
124.099998	91.167	178.8819
125.000000	91.144	178.7432
126.500000	91.105	178.5287
128.000000	91.065	178.3253
131.500000	90.975	177.8597
132.000000	90.963	177.7945
134.000000	90.911	177.5529
136.000000	90.861	177.3250
138.000000	90.807	177.1200
140.000000	90.755	176.9149
143.000000	90.678	176.6329
145.000000	90.623	176.4453
147.500000	90.562	176.2099
150.000000	90.498	176.0154
152.500000	90.433	175.8458
155.000000	90.367	175.6757
157.500000	90.303	175.5295
160.000000	90.238	175.3770
162.500000	90.175	175.2411
165.000000	90.109	175.1441
167.500000	90.046	175.0211
170.000000	89.985	174.9353
172.500000	89.921	174.8397
175.000000	89.858	174.7691
177.500000	89.799	174.7082
180.000000	89.734	174.6339
182.500000	89.673	174.6116
185.000000	89.613	174.5536
187.500000	89.551	174.5179
190.000000	89.489	174.4816
192.500000	89.432	174.4792
195.000000	89.374	174.4932
197.500000	89.316	174.4913
200.000000	89.258	174.5064
203.000000	89.188	174.5369
206.000000	89.113	174.5645
209.000000	89.047	174.5963
212.000000	88.983	174.6556
214.000000	88.937	174.6927
218.000000	88.850	174.7917
220.000000	88.800	174.8348
224.000000	88.716	174.9668
227.000000	88.650	175.0344
230.000000	88.586	175.1821
233.000000	88.520	175.2606
236.000000	88.464	175.3530
240.000000	88.376	175.5280
243.000000	88.314	175.6849
247.000000	88.235	175.8439
250.000000	88.171	176.0296
254.000000	88.092	176.2131
258.000000	88.017	176.4383
262.000000	87.936	176.6642
265.000000	87.873	176.8581
269.000000	87.804	177.0843
272.000000	87.746	177.2557
276.000000	87.671	177.5194
280.000000	87.600	177.8044
285.000000	87.510	178.1491
290.000000	87.420	178.5079
295.000000	87.331	178.8568
300.000000	87.246	179.2177
304.000000	87.181	179.5411
307.000000	87.131	179.7457
311.000000	87.065	-179.8586
315.000000	87.000	-179.5557
320.000000	86.914	-179.1479
325.000000	86.838	-178.7209
330.000000	86.759	-178.3056
335.000000	86.688	-177.8523
340.000000	86.614	-177.4567
345.000000	86.538	-176.9783
350.000000	86.467	-176.5263
355.000000	86.396	-176.0659
360.000000	86.323	-175.5678
365.000000	86.257	-175.1150
370.000000	86.194	-174.6101
375.000000	86.120	-174.1410
382.000000	86.037	-173.4149
387.000000	85.963	-172.9437
395.000000	85.869	-172.1404
400.000000	85.814	-171.6532
406.000000	85.726	-171.0677
412.000000	85.672	-170.4459
418.000000	85.598	-169.7987
425.000000	85.516	-169.0558
431.000000	85.459	-168.4147
437.000000	85.390	-167.7836
444.000000	85.312	-167.0382
450.000000	85.255	-166.3413
455.000000	85.204	-165.8358
462.000000	85.136	-165.0395
468.000000	85.088	-164.4242
475.000000	85.014	-163.6181
482.000000	84.943	-162.8361
487.000000	84.903	-162.3494
494.000000	84.840	-161.4855
500.000000	84.799	-160.8796
508.000000	84.717	-159.9016
515.000000	84.664	-159.1245
522.000000	84.606	-158.2915
530.000000	84.553	-157.3695
538.000000	84.488	-156.4659
545.000000	84.436	-155.6261
552.000000	84.389	-154.7882
560.000000	84.335	-153.8803
570.000000	84.275	-152.6882
580.000000	84.208	-151.5016
590.000000	84.142	-150.2824
600.000000	84.091	-149.1011
608.000000	84.047	-148.1462
615.000000	84.009	-147.2756
622.000000	83.972	-146.4208
630.000000	83.927	-145.4468
640.000000	83.893	-144.2850
650.000000	83.849	-143.0410
660.000000	83.811	-141.7697
670.000000	83.767	-140.5536
680.000000	83.729	-139.3451
690.000000	83.707	-138.0714
700.000000	83.683	-136.7790
710.000000	83.655	-135.5683
720.000000	83.632	-134.3590
730.000000	83.612	-133.0074
740.000000	83.598	-131.8323
750.000000	83.587	-130.4915
762.000000	83.570	-128.9502
775.000000	83.569	-127.3470
788.000000	83.561	-125.6387
800.000000	83.584	-124.2311
812.000000	83.592	-122.6668
825.000000	83.604	-120.9807
838.000000	83.622	-119.4029
850.000000	83.649	-117.8631
862.000000	83.686	-116.3984
875.000000	83.737	-114.8439
885.000000	83.780	-113.6061
900.000000	83.851	-111.8207
912.000000	83.926	-110.4027
925.000000	84.008	-108.9813
938.000000	84.098	-107.5699
950.000000	84.208	-106.3206
962.000000	84.335	-105.3261
975.000000	84.500	-104.4341
988.000000	84.774	-104.3369
1000.000000	84.798	-109.9756
1015.000000	83.261	-102.8204
1030.000000	83.835	-97.4532
1044.000000	84.165	-95.6616
1060.000000	84.423	-94.0471
1075.000000	84.608	-92.6511
1090.000000	84.743	-91.2296
1106.000000	84.903	-89.8585
1120.000000	85.021	-88.7688
1138.000000	85.169	-87.3370
1150.000000	85.266	-86.4326
1172.000000	85.451	-84.7467
1180.000000	85.511	-84.1562
1206.000000	85.724	-82.3159
1220.000000	85.821	-81.2999
1241.000000	85.992	-79.8765
1250.000000	86.056	-79.2097
1265.000000	86.173	-78.2735
1280.000000	86.284	-77.2462
1315.000000	86.559	-75.0245
1320.000000	86.595	-74.7444
1340.000000	86.744	-73.5362
1360.000000	86.892	-72.3533
1380.000000	87.043	-71.2084
1400.000000	87.197	-70.1227
1430.000000	87.421	-68.5689
1450.000000	87.571	-67.6005
1475.000000	87.744	-66.3383
1500.000000	87.921	-65.2103
1525.000000	88.087	-64.0277
1550.000000	88.251	-62.9473
1575.000000	88.412	-61.8512
1600.000000	88.565	-60.7586
1625.000000	88.730	-59.6420
1650.000000	88.888	-58.6232
1675.000000	89.032	-57.4990
1700.000000	89.191	-56.4670
1725.000000	89.344	-55.4302
1750.000000	89.512	-54.4096
1775.000000	89.661	-53.3911
1800.000000	89.825	-52.3713
1825.000000	89.985	-51.3992
1850.000000	90.150	-50.4331
1875.000000	90.313	-49.4174
1900.000000	90.490	-48.5160
1925.000000	90.662	-47.5555
1950.000000	90.840	-46.7239
1975.000000	91.024	-45.8784
2000.000000	91.207	-45.0017
2030.000000	91.418	-44.0765
2060.000000	91.651	-43.2475
2090.000000	91.872	-42.4123
2120.000000	92.112	-41.6816
2140.000000	92.272	-41.2548
2180.000000	92.586	-40.3884
2200.000000	92.743	-40.0191
2240.000000	93.068	-39.4111
2270.000000	93.309	-39.0781
2300.000000	93.550	-38.8263
2330.000000	93.789	-38.7002
2360.000000	94.029	-38.6582
2400.000000	94.346	-38.7701
2430.000000	94.571	-38.9389
2470.000000	94.863	-39.4191
2500.000000	95.073	-39.8535
2540.000000	95.337	-40.6945
2580.000000	95.578	-41.6643
2620.000000	95.790	-42.8018
2650.000000	95.929	-43.7954
2690.000000	96.091	-45.1823
2720.000000	96.191	-46.3203
2760.000000	96.286	-47.8855
2800.000000	96.351	-49.4807
2850.000000	96.382	-51.4774
2900.000000	96.359	-53.4207
2950.000000	96.290	-55.2047
3000.000000	96.177	-56.7730
3040.000000	96.074	-57.9443
3070.000000	95.980	-58.7139
3110.000000	95.837	-59.5506
3150.000000	95.687	-60.2175
3200.000000	95.499	-60.8733
3250.000000	95.296	-61.3031
3300.000000	95.094	-61.4778
3350.000000	94.894	-61.4387
3400.000000	94.703	-61.2825
3450.000000	94.516	-60.9435
3500.000000	94.342	-60.4309
3550.000000	94.179	-59.8093
3600.000000	94.031	-59.0997
3650.000000	93.902	-58.2646
3700.000000	93.773	-57.4147
3750.000000	93.664	-56.4842
3820.000000	93.537	-55.1114
3870.000000	93.468	-54.1017
3950.000000	93.392	-52.4429
4000.000000	93.355	-51.3838
4060.000000	93.335	-50.2329
4120.000000	93.333	-49.1094
4180.000000	93.343	-47.9824
4250.000000	93.394	-46.8046
4310.000000	93.448	-45.9144
4370.000000	93.516	-45.1485
4440.000000	93.609	-44.4218
4500.000000	93.703	-43.9830
4550.000000	93.784	-43.7252
4620.000000	93.894	-43.6192
4680.000000	93.993	-43.7183
4750.000000	94.097	-44.1855
4820.000000	94.178	-44.8692
4870.000000	94.225	-45.6138
4940.000000	94.255	-46.7604
5000.000000	94.257	-47.9490
5080.000000	94.180	-49.7848
5150.000000	94.065	-51.4197
5220.000000	93.881	-53.0905
5300.000000	93.606	-54.9218
5380.000000	93.261	-56.4828
5450.000000	92.914	-57.6305
5520.000000	92.529	-58.4194
5600.000000	92.052	-59.0493
5700.000000	91.429	-59.3013
5800.000000	90.782	-58.9961
5900.000000	90.131	-58.1013
6000.000000	89.482	-56.8217
6080.000000	88.955	-55.4684
6150.000000	88.509	-54.1226
6220.000000	88.057	-52.3416
6300.000000	87.559	-50.1203
6400.000000	86.976	-47.0517
6500.000000	86.428	-43.4804
6600.000000	85.963	-39.5983
6700.000000	85.528	-35.6397
6800.000000	85.170	-31.4385
6900.000000	84.853	-27.2266
7000.000000	84.581	-22.9146
7100.000000	84.361	-18.7141
7200.000000	84.177	-14.2660
7300.000000	84.079	-10.1859
7400.000000	83.953	-5.9822
7500.000000	83.905	-1.8838
7620.000000	83.891	3.1637
7750.000000	83.922	8.3502
7880.000000	84.026	13.6434
8000.000000	84.169	18.2445
8120.000000	84.393	22.7854
8250.000000	84.719	27.4567
8380.000000	85.112	31.9211
8500.000000	85.571	35.7213
8620.000000	86.063	39.1168
8750.000000	86.739	42.0519
8850.000000	87.317	43.7440
9000.000000	88.280	45.3527
9120.000000	89.126	45.0606
9250.000000	90.080	43.2005
9380.000000	90.943	38.9829
9500.000000	91.562	32.8574
9620.000000	91.823	24.9368
9750.000000	91.485	16.4817
9880.000000	90.857	10.2030
10000.000000	89.970	5.5153
10150.000000	88.818	3.9242
10300.000000	87.814	3.6814
10440.000000	86.941	4.8236
10600.000000	86.082	7.3964
10750.000000	85.396	10.6734
10900.000000	84.841	14.4075
11060.000000	84.395	18.9547
11200.000000	84.126	23.1114
11380.000000	83.920	28.4357
11500.000000	83.900	32.0391
11720.000000	84.060	38.2494
11800.000000	84.193	40.6249
12060.000000	84.910	47.1679
12200.000000	85.534	49.6866
12410.000000	86.672	51.7418
12500.000000	87.282	51.7780
12650.000000	88.437	49.6695
12800.000000	89.649	43.8877
13150.000000	90.573	13.2304
13200.000000	90.271	8.3849
13400.000000	88.232	-5.9161
13600.000000	85.870	-11.8807
13800.000000	83.700	-12.6077
14000.000000	81.866	-10.5073
14300.000000	79.628	-4.4614
14500.000000	78.511	0.9025
14750.000000	77.385	7.4451
15000.000000	76.685	14.1095
15250.000000	76.184	20.6900
15500.000000	75.972	26.9961
15750.000000	76.092	30.3604
16000.000000	75.968	32.4804
16250.000000	75.978	37.1121
16500.000000	77.002	37.9208
16750.000000	77.794	33.0888
17000.000000	77.960	21.5990
17250.000000	76.998	9.9227
17500.000000	75.138	1.3255
17750.000000	73.388	-1.0469
18000.000000	71.327	-1.9552
18250.000000	69.739	2.4367
18500.000000	68.408	4.9522
18750.000000	67.350	8.3418
19000.000000	66.353	11.6517
19250.000000	65.067	12.8478
19500.000000	64.035	13.8551
19750.000000	62.485	18.5731
