* Measurement data measured by REW V5.20.5
* Source: USB Sound Device        , MICROPHONE, R, volume: 0.502
* Format: 256k Log Swept Sine, 1 sweep at -6.0 dBFS with no timing reference
* Dated: 21 Oct, 2023 7:47:26 PM
* REW Settings:
*  C-weighting compensation: Off
*  Target level: 75.0 dB
* Note: 
* Measurement: SIMGOT EA1000 Oct 21
* Smoothing: None
* Frequency Step: 1/48 octave
* Start Frequency: 20.000 Hz
*
* Freq(Hz)	SPL(dB)	Phase(degrees)
20.000000	89.107	-137.8718
20.299999	89.156	-138.4298
20.600000	89.203	-138.9730
20.900000	89.248	-139.5017
21.200001	89.292	-140.0184
21.400000	89.320	-140.3583
21.799999	89.376	-141.0283
22.000000	89.403	-141.3583
22.400000	89.454	-142.0053
22.700001	89.490	-142.4775
23.000000	89.527	-142.9394
23.299999	89.563	-143.3958
23.600000	89.598	-143.8508
24.000000	89.644	-144.4590
24.299999	89.676	-144.9140
24.700001	89.715	-145.5099
25.000000	89.743	-145.9425
25.400000	89.778	-146.4977
25.799999	89.814	-147.0351
26.200001	89.849	-147.5663
26.500000	89.876	-147.9650
26.900000	89.909	-148.4963
27.200001	89.932	-148.8907
27.600000	89.961	-149.4058
28.000000	89.987	-149.9057
28.500000	90.020	-150.5116
29.000000	90.050	-151.1021
29.500000	90.080	-151.6795
30.000000	90.108	-152.2437
30.400000	90.130	-152.6874
30.700001	90.145	-153.0179
31.100000	90.166	-153.4574
31.500000	90.184	-153.8935
32.000000	90.204	-154.4233
32.500000	90.222	-154.9236
33.000000	90.242	-155.3992
33.500000	90.265	-155.8757
34.000000	90.288	-156.3769
34.500000	90.305	-156.8965
35.000000	90.316	-157.4013
35.500000	90.322	-157.8617
36.000000	90.330	-158.2805
36.500000	90.342	-158.6861
37.000000	90.355	-159.1031
37.500000	90.367	-159.5310
38.200001	90.378	-160.1171
38.700001	90.385	-160.5163
39.500000	90.397	-161.1453
40.000000	90.404	-161.5384
40.599998	90.409	-161.9954
41.200001	90.414	-162.4283
41.799999	90.421	-162.8539
42.500000	90.429	-163.3605
43.099998	90.431	-163.7893
43.700001	90.432	-164.1950
44.400002	90.434	-164.6471
45.000000	90.436	-165.0330
45.500000	90.437	-165.3533
46.200001	90.436	-165.7903
46.799999	90.436	-166.1557
47.500000	90.435	-166.5804
48.200001	90.433	-167.0020
48.700001	90.431	-167.2999
49.400002	90.427	-167.7170
50.000000	90.422	-168.0685
50.799999	90.413	-168.5029
51.500000	90.407	-168.8571
52.200001	90.404	-169.2198
53.000000	90.396	-169.6425
53.799999	90.385	-170.0293
54.500000	90.378	-170.3375
55.200001	90.375	-170.6584
56.000000	90.370	-171.0606
57.000000	90.355	-171.5574
58.000000	90.336	-172.0285
59.000000	90.312	-172.4150
60.000000	90.307	-172.7729
60.799999	90.302	-173.1653
61.500000	90.283	-173.4854
62.200001	90.266	-173.7262
63.000000	90.257	-174.0120
64.000000	90.240	-174.4194
65.000000	90.220	-174.7772
66.000000	90.202	-175.1458
67.000000	90.181	-175.4901
68.000000	90.165	-175.8379
69.000000	90.143	-176.2134
70.000000	90.116	-176.5156
71.000000	90.098	-176.8059
72.000000	90.079	-177.1286
73.000000	90.057	-177.4285
74.000000	90.036	-177.7311
75.000000	90.012	-178.0316
76.199997	89.983	-178.3592
77.500000	89.954	-178.7129
78.800003	89.923	-179.0532
80.000000	89.896	-179.3607
81.199997	89.868	-179.6551
82.500000	89.835	-179.9789
83.800003	89.803	179.7609
85.000000	89.778	179.4737
86.199997	89.747	179.2155
87.500000	89.716	178.9131
88.500000	89.686	178.7022
90.000000	89.650	178.4249
91.199997	89.621	178.1828
92.500000	89.588	177.9323
93.800003	89.555	177.6880
95.000000	89.523	177.4822
96.199997	89.490	177.2771
97.500000	89.456	177.1035
98.800003	89.422	176.8748
100.000000	89.391	176.7262
101.500000	89.354	176.4356
103.000000	89.308	176.2235
104.400002	89.272	176.0514
106.000000	89.233	175.7868
107.500000	89.190	175.6336
109.000000	89.156	175.4476
110.599998	89.113	175.2679
112.000000	89.075	175.1387
113.800003	89.035	174.9362
115.000000	88.996	174.7869
117.199997	88.938	174.5783
118.000000	88.917	174.5098
120.599998	88.851	174.2531
122.000000	88.812	174.1468
124.099998	88.762	173.9850
125.000000	88.737	173.9406
126.500000	88.700	173.8298
128.000000	88.662	173.7179
131.500000	88.572	173.5263
132.000000	88.557	173.4892
134.000000	88.506	173.3929
136.000000	88.453	173.3145
138.000000	88.405	173.2271
140.000000	88.353	173.1729
143.000000	88.284	173.0377
145.000000	88.225	172.9516
147.500000	88.167	172.8964
150.000000	88.112	172.8422
152.500000	88.047	172.7860
155.000000	87.987	172.7264
157.500000	87.933	172.7021
160.000000	87.875	172.6971
162.500000	87.818	172.6965
165.000000	87.758	172.7381
167.500000	87.694	172.7575
170.000000	87.641	172.7088
172.500000	87.584	172.7727
175.000000	87.528	172.8132
177.500000	87.480	172.8040
180.000000	87.429	172.8772
182.500000	87.368	172.9235
185.000000	87.318	172.9959
187.500000	87.267	173.1198
190.000000	87.212	173.1898
192.500000	87.168	173.2770
195.000000	87.110	173.3439
197.500000	87.059	173.4601
200.000000	87.017	173.5186
203.000000	86.959	173.6055
206.000000	86.902	173.7599
209.000000	86.842	173.8693
212.000000	86.782	174.0008
214.000000	86.744	174.0883
218.000000	86.676	174.3183
220.000000	86.631	174.4791
224.000000	86.567	174.6706
227.000000	86.519	174.8135
230.000000	86.467	174.9999
233.000000	86.411	175.1132
236.000000	86.369	175.3262
240.000000	86.305	175.5829
243.000000	86.250	175.7599
247.000000	86.188	176.0173
250.000000	86.142	176.2193
254.000000	86.084	176.4698
258.000000	86.028	176.7794
262.000000	85.965	177.0333
265.000000	85.929	177.2228
269.000000	85.869	177.5217
272.000000	85.821	177.7740
276.000000	85.776	178.0971
280.000000	85.721	178.3513
285.000000	85.656	178.7603
290.000000	85.584	179.1060
295.000000	85.523	179.4659
300.000000	85.459	179.8314
304.000000	85.418	-179.7529
307.000000	85.385	-179.4505
311.000000	85.334	-179.2357
315.000000	85.299	-178.9213
320.000000	85.243	-178.4973
325.000000	85.186	-178.0350
330.000000	85.133	-177.6300
335.000000	85.087	-177.1991
340.000000	85.036	-176.7922
345.000000	84.987	-176.4389
350.000000	84.945	-175.9713
355.000000	84.898	-175.5045
360.000000	84.855	-175.0854
365.000000	84.811	-174.6418
370.000000	84.765	-174.2338
375.000000	84.728	-173.7834
382.000000	84.663	-173.1666
387.000000	84.626	-172.7229
395.000000	84.569	-172.0322
400.000000	84.532	-171.6316
406.000000	84.482	-171.1148
412.000000	84.452	-170.5122
418.000000	84.404	-170.0453
425.000000	84.355	-169.3934
431.000000	84.313	-168.7907
437.000000	84.279	-168.2783
444.000000	84.232	-167.6668
450.000000	84.197	-167.0921
455.000000	84.164	-166.6333
462.000000	84.122	-165.9572
468.000000	84.103	-165.4212
475.000000	84.068	-164.6723
482.000000	84.044	-164.0951
487.000000	84.026	-163.6522
494.000000	83.993	-163.0783
500.000000	83.975	-162.4915
508.000000	83.948	-161.8407
515.000000	83.909	-161.2486
522.000000	83.893	-160.5638
530.000000	83.868	-159.8121
538.000000	83.846	-159.1515
545.000000	83.816	-158.5088
552.000000	83.794	-157.8644
560.000000	83.771	-157.1566
570.000000	83.750	-156.2217
580.000000	83.723	-155.3895
590.000000	83.697	-154.4693
600.000000	83.672	-153.6114
608.000000	83.661	-152.8524
615.000000	83.643	-152.2036
622.000000	83.646	-151.6254
630.000000	83.630	-150.8743
640.000000	83.628	-149.9487
650.000000	83.608	-149.0762
660.000000	83.602	-148.1765
670.000000	83.598	-147.2780
680.000000	83.591	-146.3598
690.000000	83.585	-145.5203
700.000000	83.591	-144.5467
710.000000	83.590	-143.6545
720.000000	83.596	-142.7264
730.000000	83.599	-141.8763
740.000000	83.608	-141.0194
750.000000	83.624	-140.0590
762.000000	83.640	-138.9777
775.000000	83.667	-137.7413
788.000000	83.687	-136.5291
800.000000	83.729	-135.4838
812.000000	83.758	-134.4412
825.000000	83.806	-133.2150
838.000000	83.857	-132.0270
850.000000	83.900	-130.9740
862.000000	83.954	-129.9290
875.000000	84.019	-128.8647
885.000000	84.069	-127.9095
900.000000	84.169	-126.7183
912.000000	84.222	-125.7240
925.000000	84.318	-124.6885
938.000000	84.404	-123.6996
950.000000	84.497	-122.8082
962.000000	84.592	-121.9762
975.000000	84.686	-121.0127
988.000000	84.800	-120.2815
1000.000000	84.891	-119.5016
1015.000000	85.027	-118.7530
1030.000000	85.159	-118.0991
1044.000000	85.212	-117.8146
1060.000000	85.191	-116.3745
1075.000000	85.398	-114.9623
1090.000000	85.578	-114.2328
1106.000000	85.755	-113.6495
1120.000000	85.876	-113.2398
1138.000000	86.028	-112.6501
1150.000000	86.116	-112.2274
1172.000000	86.296	-111.5810
1180.000000	86.362	-111.3641
1206.000000	86.567	-110.7385
1220.000000	86.672	-110.4231
1241.000000	86.812	-109.9560
1250.000000	86.875	-109.7968
1265.000000	86.970	-109.4566
1280.000000	87.062	-109.1773
1315.000000	87.273	-108.5854
1320.000000	87.299	-108.4829
1340.000000	87.416	-108.1452
1360.000000	87.520	-107.8494
1380.000000	87.628	-107.4896
1400.000000	87.728	-107.1379
1430.000000	87.879	-106.6812
1450.000000	87.979	-106.3352
1475.000000	88.107	-105.9447
1500.000000	88.220	-105.5496
1525.000000	88.332	-105.1093
1550.000000	88.451	-104.7573
1575.000000	88.575	-104.3049
1600.000000	88.686	-103.9551
1625.000000	88.807	-103.5485
1650.000000	88.923	-103.2024
1675.000000	89.040	-102.8627
1700.000000	89.161	-102.4623
1725.000000	89.288	-102.1697
1750.000000	89.411	-101.8296
1775.000000	89.538	-101.5055
1800.000000	89.660	-101.2487
1825.000000	89.784	-100.9803
1850.000000	89.920	-100.7055
1875.000000	90.049	-100.4665
1900.000000	90.181	-100.3014
1925.000000	90.321	-100.1467
1950.000000	90.450	-99.9670
1975.000000	90.588	-99.8395
2000.000000	90.731	-99.7316
2030.000000	90.891	-99.7061
2060.000000	91.059	-99.6414
2090.000000	91.226	-99.7518
2120.000000	91.396	-99.8729
2140.000000	91.513	-99.9049
2180.000000	91.740	-100.1546
2200.000000	91.851	-100.3128
2240.000000	92.072	-100.7644
2270.000000	92.240	-101.1941
2300.000000	92.403	-101.6104
2330.000000	92.565	-102.1351
2360.000000	92.718	-102.6871
2400.000000	92.922	-103.5765
2430.000000	93.070	-104.3474
2470.000000	93.252	-105.4072
2500.000000	93.379	-106.3162
2540.000000	93.537	-107.6500
2580.000000	93.682	-108.9583
2620.000000	93.807	-110.4302
2650.000000	93.894	-111.5446
2690.000000	93.988	-113.1123
2720.000000	94.037	-114.2785
2760.000000	94.097	-115.9536
2800.000000	94.140	-117.5770
2850.000000	94.161	-119.6189
2900.000000	94.158	-121.6571
2950.000000	94.125	-123.6427
3000.000000	94.054	-125.5255
3040.000000	93.996	-127.0175
3070.000000	93.944	-128.0566
3110.000000	93.862	-129.4001
3150.000000	93.763	-130.6653
3200.000000	93.629	-132.1556
3250.000000	93.485	-133.5447
3300.000000	93.334	-134.7897
3350.000000	93.176	-135.9327
3400.000000	93.018	-136.9377
3450.000000	92.850	-137.9046
3500.000000	92.682	-138.6960
3550.000000	92.513	-139.4048
3600.000000	92.349	-140.0159
3650.000000	92.189	-140.5818
3700.000000	92.027	-141.1032
3750.000000	91.869	-141.4813
3820.000000	91.669	-141.9093
3870.000000	91.516	-142.2097
3950.000000	91.302	-142.5144
4000.000000	91.147	-142.6059
4060.000000	91.022	-142.8204
4120.000000	90.867	-142.9310
4180.000000	90.737	-142.9748
4250.000000	90.589	-143.0116
4310.000000	90.475	-142.9987
4370.000000	90.366	-142.9804
4440.000000	90.256	-142.9930
4500.000000	90.163	-143.0282
4550.000000	90.086	-142.9692
4620.000000	90.006	-143.0566
4680.000000	89.935	-143.1080
4750.000000	89.859	-143.1512
4820.000000	89.791	-143.3833
4870.000000	89.739	-143.4881
4940.000000	89.678	-143.6592
5000.000000	89.635	-143.8842
5080.000000	89.561	-144.2337
5150.000000	89.508	-144.6623
5220.000000	89.462	-145.1624
5300.000000	89.391	-145.6277
5380.000000	89.326	-146.2636
5450.000000	89.265	-146.9797
5520.000000	89.189	-147.7280
5600.000000	89.077	-148.5963
5700.000000	88.924	-149.7756
5800.000000	88.755	-150.8801
5900.000000	88.548	-152.1376
6000.000000	88.341	-153.2122
6080.000000	88.138	-154.1635
6150.000000	87.940	-154.8815
6220.000000	87.746	-155.5387
6300.000000	87.499	-156.3190
6400.000000	87.116	-156.9834
6500.000000	86.826	-156.3997
6600.000000	86.494	-157.4162
6700.000000	86.205	-156.0762
6800.000000	86.048	-157.1815
6900.000000	85.707	-157.7646
7000.000000	85.354	-157.6926
7100.000000	84.996	-157.4185
7200.000000	84.708	-156.8610
7300.000000	84.397	-156.1891
7400.000000	84.092	-155.6572
7500.000000	83.806	-155.0094
7620.000000	83.465	-153.8157
7750.000000	83.168	-152.4069
7880.000000	82.874	-150.7683
8000.000000	82.609	-149.2925
8120.000000	82.427	-147.9118
8250.000000	82.226	-145.9945
8380.000000	82.078	-144.1445
8500.000000	81.918	-142.4978
8620.000000	81.845	-140.8675
8750.000000	81.788	-138.8570
8850.000000	81.760	-137.3907
9000.000000	81.810	-135.1795
9120.000000	81.857	-133.3299
9250.000000	81.940	-131.3717
9380.000000	82.105	-129.4975
9500.000000	82.280	-127.8507
9620.000000	82.507	-126.2848
9750.000000	82.779	-124.5823
9880.000000	83.145	-123.1479
10000.000000	83.541	-121.8393
10150.000000	84.048	-120.6880
10300.000000	84.667	-119.7294
10440.000000	85.359	-119.1358
10600.000000	86.206	-119.0463
10750.000000	87.163	-119.6820
10900.000000	88.259	-121.4258
11060.000000	89.587	-125.1353
11200.000000	90.859	-130.6837
11380.000000	92.393	-142.5165
11500.000000	93.116	-153.7408
11720.000000	93.100	-177.5563
11800.000000	92.664	174.5843
12060.000000	90.456	156.9154
12200.000000	89.186	151.8021
12410.000000	87.442	147.7941
12500.000000	86.787	146.9252
12650.000000	85.805	146.5983
12800.000000	84.942	146.8145
13150.000000	83.496	149.7999
13200.000000	83.360	150.3694
13400.000000	83.014	153.2162
13600.000000	83.048	155.6741
13800.000000	83.384	156.1169
14000.000000	83.704	154.2910
14300.000000	84.092	149.9395
14500.000000	84.363	146.2501
14750.000000	84.606	141.2436
15000.000000	85.224	135.0151
15250.000000	85.903	124.2053
15500.000000	85.994	109.1080
15750.000000	85.218	92.6826
16000.000000	83.573	79.5475
16250.000000	81.726	70.5602
16500.000000	79.867	65.6185
16750.000000	78.416	63.5776
17000.000000	76.971	60.8736
17250.000000	75.820	60.3216
17500.000000	74.535	59.8983
17750.000000	73.598	60.6026
18000.000000	72.491	63.3015
18250.000000	71.895	67.1104
18500.000000	71.876	67.8362
18750.000000	71.797	67.1755
19000.000000	71.409	64.5918
19250.000000	71.099	60.0054
19500.000000	70.384	56.8877
19750.000000	69.456	54.0317
