* Measurement data measured by REW V5.20.5
* Source: USB Sound Device        , MICROPHONE, R, volume: 0.494
* Format: 256k Log Swept Sine, 1 sweep at -6.0 dBFS with no timing reference
* Dated: 7 Nov, 2023 7:20:43 PM
* REW Settings:
*  C-weighting compensation: Off
*  Target level: 75.0 dB
* Note: 
* Measurement: SIVGA NIGHTINGALE Nov 7
* Smoothing: None
* Frequency Step: 1/48 octave
* Start Frequency: 20.000 Hz
*
* Freq(Hz)	SPL(dB)	Phase(degrees)
20.000000	76.618	-104.1292
20.299999	76.736	-104.5173
20.600000	76.846	-104.9007
20.900000	76.948	-105.2621
21.200001	77.046	-105.5890
21.400000	77.111	-105.7884
21.799999	77.239	-106.1573
22.000000	77.304	-106.3358
22.400000	77.432	-106.6993
22.700001	77.527	-106.9810
23.000000	77.618	-107.2637
23.299999	77.707	-107.5372
23.600000	77.794	-107.7979
24.000000	77.911	-108.1328
24.299999	78.001	-108.3899
24.700001	78.122	-108.7611
25.000000	78.211	-109.0657
25.400000	78.323	-109.4962
25.799999	78.428	-109.9283
26.200001	78.527	-110.3368
26.500000	78.598	-110.6193
26.900000	78.693	-110.9625
27.200001	78.765	-111.1995
27.600000	78.865	-111.5020
28.000000	78.968	-111.8135
28.500000	79.098	-112.2486
29.000000	79.219	-112.7266
29.500000	79.326	-113.1846
30.000000	79.428	-113.5658
30.400000	79.514	-113.8321
30.700001	79.582	-114.0379
31.100000	79.673	-114.3493
31.500000	79.759	-114.6969
32.000000	79.854	-115.1190
32.500000	79.945	-115.4669
33.000000	80.045	-115.7803
33.500000	80.153	-116.1608
34.000000	80.251	-116.6361
34.500000	80.330	-117.1065
35.000000	80.398	-117.4672
35.500000	80.474	-117.7303
36.000000	80.563	-118.0062
36.500000	80.654	-118.3603
37.000000	80.734	-118.7473
37.500000	80.804	-119.0918
38.200001	80.908	-119.5080
38.700001	80.985	-119.8323
39.500000	81.097	-120.4071
40.000000	81.159	-120.7346
40.599998	81.233	-121.0795
41.200001	81.311	-121.4134
41.799999	81.392	-121.7607
42.500000	81.487	-122.1917
43.099998	81.564	-122.5837
43.700001	81.637	-122.9686
44.400002	81.719	-123.3839
45.000000	81.790	-123.7320
45.500000	81.847	-124.0243
46.200001	81.923	-124.4090
46.799999	81.989	-124.7138
47.500000	82.066	-125.0760
48.200001	82.139	-125.4291
48.700001	82.192	-125.6707
49.400002	82.269	-126.0581
50.000000	82.323	-126.4451
50.799999	82.376	-126.8733
51.500000	82.429	-127.1299
52.200001	82.495	-127.4357
53.000000	82.560	-127.8469
53.799999	82.622	-128.2061
54.500000	82.681	-128.5520
55.200001	82.732	-128.9185
56.000000	82.788	-129.2669
57.000000	82.867	-129.7034
58.000000	82.946	-130.1249
59.000000	83.030	-130.6566
60.000000	83.074	-131.1598
60.799999	83.114	-131.3565
61.500000	83.163	-131.5426
62.200001	83.213	-131.7580
63.000000	83.275	-132.0646
64.000000	83.322	-132.5559
65.000000	83.361	-132.7580
66.000000	83.441	-133.0844
67.000000	83.489	-133.5189
68.000000	83.548	-133.8716
69.000000	83.586	-134.3366
70.000000	83.622	-134.5511
71.000000	83.683	-134.8798
72.000000	83.721	-135.2254
73.000000	83.767	-135.4904
74.000000	83.810	-135.7968
75.000000	83.854	-136.0555
76.199997	83.908	-136.4254
77.500000	83.953	-136.8158
78.800003	83.996	-137.1332
80.000000	84.045	-137.4431
81.199997	84.084	-137.8100
82.500000	84.120	-138.1201
83.800003	84.167	-138.4097
85.000000	84.205	-138.7036
86.199997	84.246	-138.9443
87.500000	84.289	-139.2764
88.500000	84.313	-139.5023
90.000000	84.354	-139.7995
91.199997	84.387	-140.0755
92.500000	84.420	-140.3192
93.800003	84.460	-140.6012
95.000000	84.489	-140.8394
96.199997	84.517	-141.0845
97.500000	84.544	-141.3011
98.800003	84.566	-141.5424
100.000000	84.587	-141.7185
101.500000	84.614	-141.8973
103.000000	84.666	-142.2312
104.400002	84.674	-142.4643
106.000000	84.725	-142.6993
107.500000	84.745	-142.9130
109.000000	84.781	-143.1304
110.599998	84.800	-143.3522
112.000000	84.825	-143.5285
113.800003	84.856	-143.7880
115.000000	84.874	-143.9654
117.199997	84.916	-144.2263
118.000000	84.925	-144.3403
120.599998	84.967	-144.5974
122.000000	84.986	-144.7931
124.099998	85.000	-144.9411
125.000000	85.016	-145.0909
126.500000	85.031	-145.2452
128.000000	85.045	-145.3658
131.500000	85.115	-145.7483
132.000000	85.116	-145.8016
134.000000	85.137	-145.8997
136.000000	85.159	-146.0350
138.000000	85.189	-146.2563
140.000000	85.205	-146.3813
143.000000	85.241	-146.6046
145.000000	85.253	-146.8528
147.500000	85.273	-146.9752
150.000000	85.289	-147.1182
152.500000	85.325	-147.2882
155.000000	85.343	-147.4520
157.500000	85.365	-147.5757
160.000000	85.384	-147.6584
162.500000	85.404	-147.8625
165.000000	85.424	-147.9868
167.500000	85.450	-148.0059
170.000000	85.466	-148.1506
172.500000	85.474	-148.2273
175.000000	85.500	-148.3759
177.500000	85.526	-148.4936
180.000000	85.563	-148.4855
182.500000	85.559	-148.6416
185.000000	85.564	-148.6908
187.500000	85.592	-148.8102
190.000000	85.616	-148.9258
192.500000	85.619	-148.8922
195.000000	85.641	-148.9758
197.500000	85.658	-149.0242
200.000000	85.669	-149.1235
203.000000	85.675	-149.1569
206.000000	85.693	-149.2868
209.000000	85.725	-149.3198
212.000000	85.734	-149.4367
214.000000	85.751	-149.4310
218.000000	85.757	-149.5045
220.000000	85.763	-149.6256
224.000000	85.781	-149.5767
227.000000	85.810	-149.6582
230.000000	85.816	-149.7270
233.000000	85.836	-149.7375
236.000000	85.849	-149.7134
240.000000	85.857	-149.7375
243.000000	85.883	-149.8310
247.000000	85.888	-149.8369
250.000000	85.895	-149.8537
254.000000	85.916	-149.9196
258.000000	85.928	-149.9633
262.000000	85.952	-149.9460
265.000000	85.962	-149.9345
269.000000	85.966	-150.0536
272.000000	85.984	-150.0155
276.000000	85.992	-150.0800
280.000000	86.014	-150.0731
285.000000	86.025	-150.0819
290.000000	86.028	-150.1297
295.000000	86.059	-150.1369
300.000000	86.065	-149.9771
304.000000	86.073	-150.1735
307.000000	86.077	-150.1992
311.000000	86.083	-150.1244
315.000000	86.092	-150.1680
320.000000	86.107	-150.1707
325.000000	86.123	-150.2652
330.000000	86.131	-150.2501
335.000000	86.135	-150.2608
340.000000	86.151	-150.2218
345.000000	86.144	-150.2590
350.000000	86.154	-150.2530
355.000000	86.159	-150.2152
360.000000	86.163	-150.2159
365.000000	86.167	-150.1739
370.000000	86.159	-150.2421
375.000000	86.160	-150.2397
382.000000	86.171	-150.2711
387.000000	86.175	-150.2063
395.000000	86.166	-150.1172
400.000000	86.158	-150.1327
406.000000	86.171	-150.2511
412.000000	86.153	-150.2092
418.000000	86.147	-150.1352
425.000000	86.142	-150.1307
431.000000	86.125	-150.1235
437.000000	86.118	-150.0994
444.000000	86.103	-150.0433
450.000000	86.089	-150.0488
455.000000	86.081	-149.9849
462.000000	86.056	-149.8789
468.000000	86.038	-149.8671
475.000000	86.023	-149.7670
482.000000	86.003	-149.7103
487.000000	85.988	-149.6777
494.000000	85.952	-149.5638
500.000000	85.947	-149.4989
508.000000	85.900	-149.3520
515.000000	85.871	-149.2554
522.000000	85.856	-149.1095
530.000000	85.817	-148.9613
538.000000	85.776	-148.8418
545.000000	85.740	-148.6391
552.000000	85.705	-148.5124
560.000000	85.668	-148.1784
570.000000	85.613	-147.9941
580.000000	85.562	-147.6261
590.000000	85.513	-147.2442
600.000000	85.460	-146.8405
608.000000	85.422	-146.5055
615.000000	85.391	-146.1730
622.000000	85.358	-145.9006
630.000000	85.330	-145.5598
640.000000	85.282	-145.1144
650.000000	85.228	-144.7133
660.000000	85.190	-144.2466
670.000000	85.139	-143.6912
680.000000	85.086	-143.1997
690.000000	85.048	-142.6925
700.000000	85.006	-142.1376
710.000000	84.960	-141.5617
720.000000	84.914	-140.9233
730.000000	84.873	-140.3054
740.000000	84.832	-139.7022
750.000000	84.799	-139.0018
762.000000	84.764	-138.2013
775.000000	84.727	-137.2515
788.000000	84.691	-136.2699
800.000000	84.673	-135.3808
812.000000	84.651	-134.4643
825.000000	84.633	-133.4874
838.000000	84.627	-132.4258
850.000000	84.630	-131.4929
862.000000	84.633	-130.5436
875.000000	84.642	-129.5475
885.000000	84.650	-128.6953
900.000000	84.685	-127.5284
912.000000	84.719	-126.5690
925.000000	84.744	-125.6714
938.000000	84.787	-124.6558
950.000000	84.841	-123.7409
962.000000	84.887	-122.8534
975.000000	84.950	-121.9023
988.000000	85.017	-121.0966
1000.000000	85.080	-120.4029
1015.000000	85.162	-119.3684
1030.000000	85.245	-118.4879
1044.000000	85.337	-117.6851
1060.000000	85.436	-116.7975
1075.000000	85.537	-116.1170
1090.000000	85.636	-115.4250
1106.000000	85.741	-114.7008
1120.000000	85.827	-114.1273
1138.000000	85.951	-113.5186
1150.000000	86.027	-113.0985
1172.000000	86.185	-112.3921
1180.000000	86.215	-112.1989
1206.000000	86.384	-111.5014
1220.000000	86.470	-111.1613
1241.000000	86.578	-110.7317
1250.000000	86.625	-110.5552
1265.000000	86.716	-110.2397
1280.000000	86.792	-110.0394
1315.000000	86.964	-109.5351
1320.000000	86.988	-109.4146
1340.000000	87.081	-109.2026
1360.000000	87.162	-108.9938
1380.000000	87.247	-108.7364
1400.000000	87.333	-108.5054
1430.000000	87.454	-108.2071
1450.000000	87.525	-107.9659
1475.000000	87.631	-107.8702
1500.000000	87.733	-107.7598
1525.000000	87.817	-107.8127
1550.000000	87.893	-107.8799
1575.000000	87.959	-107.9039
1600.000000	88.022	-108.0317
1625.000000	88.075	-108.1381
1650.000000	88.108	-108.2604
1675.000000	88.148	-108.3753
1700.000000	88.168	-108.5686
1725.000000	88.186	-108.7544
1750.000000	88.193	-108.8637
1775.000000	88.202	-108.9823
1800.000000	88.196	-109.0866
1825.000000	88.192	-109.1883
1850.000000	88.174	-109.3006
1875.000000	88.156	-109.4577
1900.000000	88.131	-109.5041
1925.000000	88.108	-109.5514
1950.000000	88.077	-109.6717
1975.000000	88.046	-109.6724
2000.000000	87.995	-109.8239
2030.000000	87.941	-109.8335
2060.000000	87.883	-109.7775
2090.000000	87.815	-109.7218
2120.000000	87.750	-109.6823
2140.000000	87.699	-109.6371
2180.000000	87.604	-109.5169
2200.000000	87.541	-109.3984
2240.000000	87.440	-109.1148
2270.000000	87.364	-108.9230
2300.000000	87.285	-108.7133
2330.000000	87.196	-108.4963
2360.000000	87.111	-108.2264
2400.000000	87.001	-107.8116
2430.000000	86.925	-107.4595
2470.000000	86.813	-107.0652
2500.000000	86.729	-106.6856
2540.000000	86.625	-106.2372
2580.000000	86.504	-105.7834
2620.000000	86.412	-105.3859
2650.000000	86.328	-105.0715
2690.000000	86.214	-104.6703
2720.000000	86.137	-104.4116
2760.000000	85.999	-104.4076
2800.000000	85.840	-104.4522
2850.000000	85.463	-104.5142
2900.000000	84.984	-103.2453
2950.000000	84.606	-100.4746
3000.000000	84.427	-97.3311
3040.000000	84.372	-95.1125
3070.000000	84.355	-93.7605
3110.000000	84.366	-92.0466
3150.000000	84.373	-90.5820
3200.000000	84.373	-88.9259
3250.000000	84.387	-87.5332
3300.000000	84.380	-86.2072
3350.000000	84.377	-84.9173
3400.000000	84.368	-83.9456
3450.000000	84.339	-82.9574
3500.000000	84.298	-82.0369
3550.000000	84.201	-81.2384
3600.000000	84.097	-80.0745
3650.000000	83.971	-78.6670
3700.000000	83.911	-77.0377
3750.000000	83.865	-75.1994
3820.000000	83.864	-73.2286
3870.000000	83.878	-71.8465
3950.000000	83.889	-70.0092
4000.000000	83.888	-68.7701
4060.000000	83.925	-67.4555
4120.000000	83.928	-66.1729
4180.000000	83.929	-64.9312
4250.000000	83.939	-63.6710
4310.000000	83.917	-62.4743
4370.000000	83.929	-61.3338
4440.000000	83.910	-60.1082
4500.000000	83.918	-59.1214
4550.000000	83.923	-58.1601
4620.000000	83.910	-56.9409
4680.000000	83.904	-56.0404
4750.000000	83.891	-54.9226
4820.000000	83.917	-53.8012
4870.000000	83.945	-53.2026
4940.000000	83.950	-52.5949
5000.000000	83.964	-52.0187
5080.000000	83.896	-51.6900
5150.000000	83.811	-51.4262
5220.000000	83.691	-51.0425
5300.000000	83.465	-50.7444
5380.000000	83.220	-49.6670
5450.000000	82.980	-48.3810
5520.000000	82.790	-46.7432
5600.000000	82.616	-44.8241
5700.000000	82.478	-42.6691
5800.000000	82.342	-40.7019
5900.000000	82.164	-39.1820
6000.000000	81.918	-37.4567
6080.000000	81.658	-35.9496
6150.000000	81.443	-34.4121
6220.000000	81.232	-32.4839
6300.000000	81.001	-30.2243
6400.000000	80.661	-27.3592
6500.000000	80.384	-23.7941
6600.000000	80.148	-19.8667
6700.000000	79.964	-15.7973
6800.000000	79.830	-11.9138
6900.000000	79.677	-7.8362
7000.000000	79.553	-3.2514
7100.000000	79.415	1.5813
7200.000000	79.374	7.1074
7300.000000	79.470	12.9559
7400.000000	79.715	18.7231
7500.000000	80.099	24.1743
7620.000000	80.665	30.5970
7750.000000	81.461	35.8305
7880.000000	82.195	40.1100
8000.000000	82.882	44.3147
8120.000000	83.768	49.0355
8250.000000	85.221	52.9506
8380.000000	87.162	52.2165
8500.000000	88.637	43.9369
8620.000000	88.852	32.5656
8750.000000	88.076	26.2967
8850.000000	87.525	25.6389
9000.000000	87.152	27.5924
9120.000000	87.144	29.5370
9250.000000	87.333	31.0841
9380.000000	87.642	32.0159
9500.000000	87.970	32.1748
9620.000000	88.317	31.5285
9750.000000	88.651	29.9535
9880.000000	88.865	27.7690
10000.000000	88.949	25.6095
10150.000000	88.893	22.8251
10300.000000	88.693	20.9146
10440.000000	88.478	20.0249
10600.000000	88.244	20.0948
10750.000000	88.121	20.2996
10900.000000	88.005	20.5312
11060.000000	87.848	20.9972
11200.000000	87.705	22.0911
11380.000000	87.632	24.7500
11500.000000	87.757	26.6826
11720.000000	88.266	29.2816
11800.000000	88.499	29.8405
12060.000000	89.375	29.2243
12200.000000	89.813	27.4967
12410.000000	90.373	23.1347
12500.000000	90.533	20.7422
12650.000000	90.640	16.3447
12800.000000	90.584	11.9731
13150.000000	89.945	2.4998
13200.000000	89.806	1.5044
13400.000000	89.111	-2.2536
13600.000000	88.320	-4.1407
13800.000000	87.595	-4.8504
14000.000000	86.928	-4.7372
14300.000000	86.117	-2.9306
14500.000000	85.776	-1.1268
14750.000000	85.530	0.8560
15000.000000	85.555	2.1996
15250.000000	85.753	1.8788
15500.000000	85.914	-0.7012
15750.000000	85.790	-5.0646
16000.000000	85.356	-8.4543
16250.000000	84.810	-9.0844
16500.000000	85.021	-9.8562
16750.000000	85.072	-17.8190
17000.000000	84.061	-25.4798
17250.000000	82.776	-28.5936
17500.000000	81.516	-28.9025
17750.000000	80.535	-27.6885
18000.000000	79.727	-25.7037
18250.000000	79.095	-23.2098
18500.000000	78.683	-21.9912
18750.000000	78.284	-21.0763
19000.000000	77.921	-22.7922
19250.000000	77.284	-24.7320
19500.000000	76.155	-27.0571
19750.000000	75.156	-27.5073
