* Measurement data measured by REW V5.20.5
* Source: USB Sound Device        , MICROPHONE, R, volume: 0.657
* Format: 256k Log Swept Sine, 1 sweep at -6.0 dBFS with no timing reference
* Dated: 4 Jun, 2023 8:20:12 PM
* REW Settings:
*  C-weighting compensation: Off
*  Target level: 75.0 dB
* Note: 
* Measurement: SONY MDR-EX15LP
* Smoothing: None
* Frequency Step: 1/48 octave
* Start Frequency: 20.000 Hz
*
* Freq(Hz)	SPL(dB)	Phase(degrees)
20.000000	88.693	-117.2764
20.299999	88.799	-117.8006
20.600000	88.902	-118.3225
20.900000	89.002	-118.8361
21.200001	89.101	-119.3389
21.400000	89.167	-119.6703
21.799999	89.299	-120.3305
22.000000	89.364	-120.6623
22.400000	89.492	-121.3327
22.700001	89.586	-121.8381
23.000000	89.676	-122.3389
23.299999	89.762	-122.8279
23.600000	89.847	-123.3005
24.000000	89.957	-123.9017
24.299999	90.038	-124.3344
24.700001	90.147	-124.8981
25.000000	90.229	-125.3208
25.400000	90.336	-125.8927
25.799999	90.438	-126.4724
26.200001	90.536	-127.0480
26.500000	90.606	-127.4710
26.900000	90.698	-128.0239
27.200001	90.766	-128.4373
27.600000	90.855	-128.9975
28.000000	90.941	-129.5705
28.500000	91.039	-130.2841
29.000000	91.132	-130.9613
29.500000	91.224	-131.5977
30.000000	91.319	-132.2263
30.400000	91.395	-132.7448
30.700001	91.451	-133.1432
31.100000	91.521	-133.6753
31.500000	91.588	-134.1936
32.000000	91.669	-134.8119
32.500000	91.751	-135.4103
33.000000	91.833	-136.0135
33.500000	91.911	-136.6292
34.000000	91.984	-137.2426
34.500000	92.052	-137.8363
35.000000	92.119	-138.4108
35.500000	92.184	-138.9802
36.000000	92.246	-139.5518
36.500000	92.305	-140.1179
37.000000	92.361	-140.6688
37.500000	92.416	-141.2065
38.200001	92.493	-141.9536
38.700001	92.545	-142.4855
39.500000	92.625	-143.3239
40.000000	92.673	-143.8408
40.599998	92.727	-144.4528
41.200001	92.779	-145.0466
41.799999	92.829	-145.6218
42.500000	92.886	-146.2868
43.099998	92.932	-146.8580
43.700001	92.974	-147.4196
44.400002	93.021	-148.0569
45.000000	93.061	-148.5989
45.500000	93.092	-149.0517
46.200001	93.133	-149.6749
46.799999	93.168	-150.1917
47.500000	93.208	-150.7936
48.200001	93.246	-151.4016
48.700001	93.270	-151.8198
49.400002	93.304	-152.3697
50.000000	93.337	-152.8445
50.799999	93.376	-153.5236
51.500000	93.398	-154.0992
52.200001	93.419	-154.6048
53.000000	93.450	-155.1637
53.799999	93.479	-155.7655
54.500000	93.498	-156.2852
55.200001	93.517	-156.7761
56.000000	93.539	-157.3387
57.000000	93.562	-158.0461
58.000000	93.582	-158.7096
59.000000	93.605	-159.3773
60.000000	93.620	-160.0386
60.799999	93.632	-160.5339
61.500000	93.643	-160.9719
62.200001	93.650	-161.4085
63.000000	93.657	-161.8737
64.000000	93.669	-162.4601
65.000000	93.675	-163.0667
66.000000	93.679	-163.6279
67.000000	93.683	-164.1939
68.000000	93.683	-164.7398
69.000000	93.684	-165.2551
70.000000	93.685	-165.7706
71.000000	93.684	-166.2946
72.000000	93.676	-166.7917
73.000000	93.671	-167.2427
74.000000	93.671	-167.7401
75.000000	93.659	-168.2489
76.199997	93.643	-168.7674
77.500000	93.638	-169.3310
78.800003	93.623	-169.9554
80.000000	93.603	-170.4259
81.199997	93.596	-170.9031
82.500000	93.576	-171.4768
83.800003	93.551	-171.9716
85.000000	93.534	-172.4070
86.199997	93.521	-172.8753
87.500000	93.494	-173.3970
88.500000	93.472	-173.7327
90.000000	93.444	-174.2060
91.199997	93.427	-174.6001
92.500000	93.398	-175.0659
93.800003	93.367	-175.4664
95.000000	93.340	-175.8372
96.199997	93.314	-176.1818
97.500000	93.292	-176.5852
98.800003	93.264	-176.9985
100.000000	93.234	-177.3423
101.500000	93.204	-177.7473
103.000000	93.162	-178.1546
104.400002	93.133	-178.5006
106.000000	93.093	-178.9188
107.500000	93.049	-179.3241
109.000000	93.010	-179.6633
110.599998	92.961	-179.9852
112.000000	92.936	179.6946
113.800003	92.880	179.2769
115.000000	92.848	179.0406
117.199997	92.789	178.5731
118.000000	92.767	178.4149
120.599998	92.696	177.9308
122.000000	92.654	177.6894
124.099998	92.597	177.3063
125.000000	92.570	177.1491
126.500000	92.527	176.8784
128.000000	92.484	176.6270
131.500000	92.383	176.0601
132.000000	92.367	175.9859
134.000000	92.310	175.6905
136.000000	92.248	175.4299
138.000000	92.187	175.1610
140.000000	92.128	174.8947
143.000000	92.031	174.5317
145.000000	91.976	174.2887
147.500000	91.901	174.0099
150.000000	91.818	173.7543
152.500000	91.740	173.5128
155.000000	91.657	173.2875
157.500000	91.576	173.0698
160.000000	91.491	172.8086
162.500000	91.420	172.6343
165.000000	91.324	172.4911
167.500000	91.245	172.2889
170.000000	91.155	172.1396
172.500000	91.067	171.9836
175.000000	90.972	171.8916
177.500000	90.887	171.7712
180.000000	90.789	171.6762
182.500000	90.691	171.5962
185.000000	90.582	171.5432
187.500000	90.478	171.5114
190.000000	90.366	171.4840
192.500000	90.253	171.5405
195.000000	90.129	171.6412
197.500000	89.994	171.7636
200.000000	89.862	172.0503
203.000000	89.680	172.5415
206.000000	89.500	173.2949
209.000000	89.334	174.3726
212.000000	89.196	175.9028
214.000000	89.160	177.1004
218.000000	89.233	179.5643
220.000000	89.339	-179.3772
224.000000	89.650	-178.5244
227.000000	89.859	-178.7219
230.000000	90.006	-179.4218
233.000000	90.076	179.7631
236.000000	90.098	178.8821
240.000000	90.076	178.0360
243.000000	90.040	177.5577
247.000000	89.966	176.9941
250.000000	89.903	176.6854
254.000000	89.814	176.3837
258.000000	89.716	176.2034
262.000000	89.617	176.0934
265.000000	89.544	176.0284
269.000000	89.443	175.9820
272.000000	89.378	175.9874
276.000000	89.286	175.9830
280.000000	89.190	176.0855
285.000000	89.078	176.2083
290.000000	88.965	176.3504
295.000000	88.858	176.5473
300.000000	88.750	176.7615
304.000000	88.668	176.9432
307.000000	88.604	177.0787
311.000000	88.531	177.2835
315.000000	88.442	177.5180
320.000000	88.349	177.8435
325.000000	88.250	178.1260
330.000000	88.154	178.4057
335.000000	88.062	178.7704
340.000000	87.977	179.1404
345.000000	87.878	179.5126
350.000000	87.797	179.8785
355.000000	87.713	-179.7524
360.000000	87.625	-179.3654
365.000000	87.535	-178.9317
370.000000	87.457	-178.5018
375.000000	87.370	-178.1141
382.000000	87.266	-177.4853
387.000000	87.188	-177.0521
395.000000	87.065	-176.3362
400.000000	86.999	-175.8833
406.000000	86.909	-175.3168
412.000000	86.831	-174.7369
418.000000	86.750	-174.1917
425.000000	86.651	-173.5418
431.000000	86.573	-172.9158
437.000000	86.490	-172.3879
444.000000	86.405	-171.7122
450.000000	86.323	-171.1533
455.000000	86.259	-170.6431
462.000000	86.179	-169.9077
468.000000	86.103	-169.3087
475.000000	86.023	-168.6113
482.000000	85.938	-167.8838
487.000000	85.881	-167.3551
494.000000	85.795	-166.5731
500.000000	85.735	-165.9468
508.000000	85.651	-165.0449
515.000000	85.577	-164.2615
522.000000	85.500	-163.4807
530.000000	85.419	-162.5882
538.000000	85.345	-161.6816
545.000000	85.276	-160.8891
552.000000	85.208	-160.0868
560.000000	85.142	-159.1096
570.000000	85.057	-157.8869
580.000000	84.963	-156.7521
590.000000	84.890	-155.5458
600.000000	84.813	-154.3508
608.000000	84.750	-153.3423
615.000000	84.696	-152.4102
622.000000	84.656	-151.5850
630.000000	84.589	-150.5725
640.000000	84.525	-149.3474
650.000000	84.473	-148.0178
660.000000	84.418	-146.7795
670.000000	84.368	-145.4207
680.000000	84.316	-144.0605
690.000000	84.277	-142.8073
700.000000	84.233	-141.4016
710.000000	84.194	-140.0708
720.000000	84.167	-138.7081
730.000000	84.143	-137.3920
740.000000	84.114	-135.9830
750.000000	84.103	-134.6431
762.000000	84.093	-132.9780
775.000000	84.086	-131.2022
788.000000	84.082	-129.4301
800.000000	84.102	-127.7726
812.000000	84.119	-126.0479
825.000000	84.156	-124.3496
838.000000	84.202	-122.5922
850.000000	84.247	-120.9059
862.000000	84.291	-119.3853
875.000000	84.369	-117.6636
885.000000	84.422	-116.4711
900.000000	84.523	-114.5812
912.000000	84.596	-113.2031
925.000000	84.697	-111.6432
938.000000	84.817	-110.2358
950.000000	84.910	-108.8838
962.000000	85.028	-107.7347
975.000000	85.140	-106.4327
988.000000	85.258	-105.2138
1000.000000	85.372	-104.1060
1015.000000	85.518	-103.0106
1030.000000	85.653	-101.9438
1044.000000	85.743	-100.9585
1060.000000	85.886	-99.4664
1075.000000	86.062	-98.7157
1090.000000	86.132	-98.2771
1106.000000	86.094	-96.6049
1120.000000	86.331	-94.3741
1138.000000	86.656	-93.7226
1150.000000	86.796	-93.4209
1172.000000	87.000	-92.8472
1180.000000	87.057	-92.6120
1206.000000	87.238	-91.7890
1220.000000	87.329	-91.3820
1241.000000	87.451	-90.7772
1250.000000	87.501	-90.4716
1265.000000	87.580	-90.0070
1280.000000	87.649	-89.5841
1315.000000	87.791	-88.4350
1320.000000	87.816	-88.3023
1340.000000	87.892	-87.6820
1360.000000	87.968	-87.0082
1380.000000	88.026	-86.3648
1400.000000	88.091	-85.5919
1430.000000	88.172	-84.5568
1450.000000	88.227	-83.8391
1475.000000	88.293	-82.8431
1500.000000	88.349	-81.9278
1525.000000	88.413	-80.8896
1550.000000	88.475	-79.8872
1575.000000	88.538	-78.9129
1600.000000	88.595	-77.9072
1625.000000	88.657	-76.8301
1650.000000	88.723	-75.7711
1675.000000	88.788	-74.6812
1700.000000	88.858	-73.6462
1725.000000	88.922	-72.6076
1750.000000	89.006	-71.4569
1775.000000	89.073	-70.4235
1800.000000	89.145	-69.3775
1825.000000	89.227	-68.2845
1850.000000	89.306	-67.2845
1875.000000	89.382	-66.1256
1900.000000	89.466	-65.1691
1925.000000	89.557	-64.1156
1950.000000	89.653	-63.0835
1975.000000	89.750	-62.0631
2000.000000	89.855	-61.1837
2030.000000	89.957	-59.9784
2060.000000	90.073	-58.8353
2090.000000	90.198	-57.7655
2120.000000	90.330	-56.6958
2140.000000	90.407	-55.9823
2180.000000	90.570	-54.6649
2200.000000	90.658	-54.0216
2240.000000	90.829	-52.7555
2270.000000	90.953	-51.8437
2300.000000	91.086	-50.9598
2330.000000	91.214	-50.0998
2360.000000	91.342	-49.2785
2400.000000	91.518	-48.2107
2430.000000	91.645	-47.4618
2470.000000	91.818	-46.5039
2500.000000	91.950	-45.7880
2540.000000	92.112	-44.9585
2580.000000	92.274	-44.0657
2620.000000	92.431	-43.2337
2650.000000	92.554	-42.6118
2690.000000	92.706	-41.6748
2720.000000	92.832	-40.9774
2760.000000	93.020	-39.9912
2800.000000	93.244	-39.0766
2850.000000	93.574	-38.2848
2900.000000	93.907	-38.0619
2950.000000	94.202	-38.3773
3000.000000	94.429	-38.9613
3040.000000	94.557	-39.5014
3070.000000	94.636	-39.8477
3110.000000	94.728	-40.2576
3150.000000	94.793	-40.6114
3200.000000	94.863	-40.9333
3250.000000	94.910	-41.1141
3300.000000	94.961	-41.2124
3350.000000	95.015	-41.2419
3400.000000	95.072	-41.2682
3450.000000	95.130	-41.2828
3500.000000	95.192	-41.4228
3550.000000	95.225	-41.5935
3600.000000	95.249	-41.7756
3650.000000	95.260	-41.9470
3700.000000	95.265	-42.0380
3750.000000	95.251	-42.0879
3820.000000	95.220	-42.0913
3870.000000	95.195	-42.0155
3950.000000	95.141	-41.7872
4000.000000	95.103	-41.6261
4060.000000	95.048	-41.2983
4120.000000	94.993	-40.9040
4180.000000	94.929	-40.4577
4250.000000	94.874	-39.7228
4310.000000	94.813	-39.1197
4370.000000	94.770	-38.3816
4440.000000	94.719	-37.4959
4500.000000	94.686	-36.7001
4550.000000	94.659	-36.0085
4620.000000	94.641	-34.9662
4680.000000	94.624	-34.1120
4750.000000	94.622	-33.0828
4820.000000	94.627	-32.0510
4870.000000	94.635	-31.2803
4940.000000	94.659	-30.2203
5000.000000	94.686	-29.3586
5080.000000	94.753	-28.3197
5150.000000	94.814	-27.4406
5220.000000	94.893	-26.7261
5300.000000	94.967	-25.9838
5380.000000	95.047	-25.3766
5450.000000	95.115	-25.0069
5520.000000	95.177	-24.6966
5600.000000	95.240	-24.4593
5700.000000	95.305	-24.3407
5800.000000	95.344	-24.3170
5900.000000	95.355	-24.5228
6000.000000	95.330	-24.7104
6080.000000	95.294	-24.9490
6150.000000	95.233	-25.1017
6220.000000	95.149	-25.1920
6300.000000	95.045	-25.3042
6400.000000	94.887	-25.2742
6500.000000	94.708	-25.0359
6600.000000	94.530	-24.6767
6700.000000	94.329	-24.0895
6800.000000	94.122	-23.2531
6900.000000	93.935	-22.2764
7000.000000	93.750	-21.0531
7100.000000	93.581	-19.6811
7200.000000	93.440	-18.1412
7300.000000	93.317	-16.0442
7400.000000	93.418	-14.5442
7500.000000	93.376	-13.3150
7620.000000	93.382	-11.5846
7750.000000	93.469	-9.7263
7880.000000	93.639	-8.1329
8000.000000	93.880	-7.0065
8120.000000	94.178	-6.4911
8250.000000	94.585	-6.7515
8380.000000	95.040	-8.2223
8500.000000	95.471	-10.9236
8620.000000	95.823	-15.1862
8750.000000	96.018	-21.5582
8850.000000	95.956	-27.3840
9000.000000	95.388	-36.4364
9120.000000	94.575	-42.7801
9250.000000	93.436	-48.0777
9380.000000	92.180	-51.3871
9500.000000	90.980	-52.8312
9620.000000	89.811	-53.1379
9750.000000	88.594	-52.2647
9880.000000	87.456	-50.4588
10000.000000	86.464	-48.3105
10150.000000	85.318	-44.8983
10300.000000	84.265	-40.8891
10440.000000	83.355	-36.6836
10600.000000	82.433	-31.8903
10750.000000	81.648	-26.7842
10900.000000	80.899	-21.8137
11060.000000	80.236	-15.6927
11200.000000	79.665	-10.4411
11380.000000	79.132	-3.7345
11500.000000	78.781	0.7332
11720.000000	78.216	8.2836
11800.000000	78.052	11.3199
12060.000000	77.477	20.3674
12200.000000	77.234	25.6865
12410.000000	76.883	33.7502
12500.000000	76.813	36.6636
12650.000000	76.678	42.3651
12800.000000	76.640	48.1187
13150.000000	76.533	60.5240
13200.000000	76.576	62.5447
13400.000000	76.754	69.7273
13600.000000	76.827	76.5369
13800.000000	77.085	83.7418
14000.000000	77.497	90.4343
14300.000000	78.364	100.2192
14500.000000	79.064	106.8236
14750.000000	80.225	113.4951
15000.000000	81.760	119.6153
15250.000000	83.804	123.5299
15500.000000	86.410	123.3584
15750.000000	89.704	113.9152
16000.000000	92.074	85.9405
16250.000000	90.539	55.3770
16500.000000	87.628	42.8999
16750.000000	85.344	39.9795
17000.000000	83.764	41.0536
17250.000000	82.687	42.5982
17500.000000	82.092	43.2172
17750.000000	81.660	42.1329
18000.000000	81.181	37.2788
18250.000000	80.144	30.7162
18500.000000	78.286	23.9179
18750.000000	75.793	21.0010
19000.000000	73.160	24.3971
19250.000000	70.616	31.7822
19500.000000	68.848	42.1134
19750.000000	67.133	52.6604
