* Measurement data measured by REW V5.20.5
* Source: USB Sound Device        , MICROPHONE, R, volume: 0.502
* Format: 256k Log Swept Sine, 1 sweep at -6.0 dBFS with no timing reference
* Dated: 25 Sep, 2023 10:30:27 PM
* REW Settings:
*  C-weighting compensation: Off
*  Target level: 75.0 dB
* Note: 
* Measurement: TRN MARS Sep 25
* Smoothing: None
* Frequency Step: 1/48 octave
* Start Frequency: 20.000 Hz
*
* Freq(Hz)	SPL(dB)	Phase(degrees)
20.000000	93.154	16.0160
20.299999	93.155	15.6744
20.600000	93.157	15.3417
20.900000	93.159	15.0139
21.200001	93.161	14.6893
21.400000	93.162	14.4763
21.799999	93.162	14.0625
22.000000	93.162	13.8629
22.400000	93.161	13.4767
22.700001	93.161	13.1940
23.000000	93.161	12.9136
23.299999	93.159	12.6370
23.600000	93.157	12.3676
24.000000	93.153	12.0229
24.299999	93.151	11.7732
24.700001	93.148	11.4431
25.000000	93.147	11.1923
25.400000	93.143	10.8536
25.799999	93.137	10.5207
26.200001	93.130	10.2034
26.500000	93.125	9.9756
26.900000	93.119	9.6791
27.200001	93.116	9.4582
27.600000	93.110	9.1649
28.000000	93.105	8.8773
28.500000	93.098	8.5286
29.000000	93.092	8.1852
29.500000	93.085	7.8448
30.000000	93.076	7.5186
30.400000	93.069	7.2735
30.700001	93.064	7.0969
31.100000	93.058	6.8640
31.500000	93.052	6.6294
32.000000	93.044	6.3352
32.500000	93.035	6.0463
33.000000	93.025	5.7640
33.500000	93.015	5.4867
34.000000	93.003	5.2163
34.500000	92.992	4.9551
35.000000	92.982	4.6995
35.500000	92.972	4.4435
36.000000	92.962	4.1865
36.500000	92.952	3.9318
37.000000	92.941	3.6818
37.500000	92.931	3.4380
38.200001	92.915	3.1124
38.700001	92.905	2.8912
39.500000	92.890	2.5426
40.000000	92.881	2.3195
40.599998	92.869	2.0466
41.200001	92.854	1.7808
41.799999	92.839	1.5333
42.500000	92.824	1.2504
43.099998	92.811	0.9849
43.700001	92.793	0.7117
44.400002	92.767	0.4339
45.000000	92.749	0.2292
45.500000	92.738	0.0479
46.200001	92.719	-0.2324
46.799999	92.698	-0.4516
47.500000	92.679	-0.6675
48.200001	92.666	-0.9246
48.700001	92.652	-1.1465
49.400002	92.620	-1.4193
50.000000	92.594	-1.5715
50.799999	92.574	-1.7786
51.500000	92.554	-2.0237
52.200001	92.527	-2.2314
53.000000	92.505	-2.4329
53.799999	92.481	-2.6912
54.500000	92.451	-2.8672
55.200001	92.430	-2.9684
56.000000	92.420	-3.1540
57.000000	92.391	-3.4692
58.000000	92.359	-3.6646
59.000000	92.344	-3.8765
60.000000	92.330	-4.1874
60.799999	92.310	-4.4625
61.500000	92.288	-4.6781
62.200001	92.267	-4.8751
63.000000	92.242	-5.0983
64.000000	92.211	-5.3444
65.000000	92.188	-5.6302
66.000000	92.156	-5.9827
67.000000	92.113	-6.3137
68.000000	92.071	-6.5684
69.000000	92.043	-6.8790
70.000000	91.998	-7.2686
71.000000	91.947	-7.5005
72.000000	91.916	-7.7616
73.000000	91.874	-8.1486
74.000000	91.809	-8.4911
75.000000	91.747	-8.6724
76.199997	91.705	-9.0151
77.500000	91.619	-9.6230
78.800003	91.510	-9.9604
80.000000	91.444	-10.1094
81.199997	91.396	-10.6614
82.500000	91.255	-11.2805
83.800003	91.096	-11.3376
85.000000	91.086	-11.5411
86.199997	90.994	-12.8422
87.500000	90.689	-14.5266
88.500000	90.259	-13.1479
90.000000	90.780	-12.3849
91.199997	90.562	-16.2552
92.500000	89.980	-19.3079
93.800003	88.714	-14.3555
95.000000	89.476	-8.3798
96.199997	89.826	-11.0705
97.500000	89.555	-14.1937
98.800003	88.640	-15.0408
100.000000	87.649	-12.2408
101.500000	86.740	-2.3231
103.000000	87.035	8.7804
104.400002	88.116	15.4790
106.000000	89.484	16.8519
107.500000	90.570	14.8841
109.000000	91.238	10.7634
110.599998	91.524	7.0575
112.000000	91.641	4.6422
113.800003	91.739	2.1979
115.000000	91.798	0.7068
117.199997	91.840	-1.3210
118.000000	91.858	-1.8668
120.599998	91.815	-3.0792
122.000000	91.767	-3.5461
124.099998	91.655	-4.1223
125.000000	91.619	-4.3798
126.500000	91.532	-4.8774
128.000000	91.455	-5.1311
131.500000	91.305	-6.1152
132.000000	91.296	-6.2439
134.000000	91.255	-6.7285
136.000000	91.222	-6.7839
138.000000	91.152	-6.8076
140.000000	91.060	-6.8221
143.000000	90.928	-7.3489
145.000000	90.902	-7.6305
147.500000	90.852	-7.5982
150.000000	90.757	-7.6450
152.500000	90.673	-7.7086
155.000000	90.610	-7.9365
157.500000	90.567	-7.9481
160.000000	90.483	-7.9080
162.500000	90.422	-8.0216
165.000000	90.361	-8.0011
167.500000	90.307	-8.0388
170.000000	90.245	-7.9548
172.500000	90.183	-7.9751
175.000000	90.130	-7.9125
177.500000	90.071	-7.9117
180.000000	90.027	-7.9167
182.500000	89.969	-7.8197
185.000000	89.920	-7.7106
187.500000	89.858	-7.6359
190.000000	89.816	-7.5785
192.500000	89.761	-7.5116
195.000000	89.718	-7.4124
197.500000	89.662	-7.2869
200.000000	89.625	-7.1824
203.000000	89.567	-7.0909
206.000000	89.513	-6.9615
209.000000	89.452	-6.8246
212.000000	89.401	-6.7002
214.000000	89.363	-6.6281
218.000000	89.310	-6.4471
220.000000	89.267	-6.2898
224.000000	89.205	-6.0885
227.000000	89.162	-5.9187
230.000000	89.111	-5.7646
233.000000	89.070	-5.6141
236.000000	89.031	-5.4272
240.000000	88.976	-5.2272
243.000000	88.931	-5.0706
247.000000	88.879	-4.8232
250.000000	88.848	-4.6382
254.000000	88.791	-4.4388
258.000000	88.745	-4.2339
262.000000	88.702	-4.0029
265.000000	88.660	-3.8691
269.000000	88.619	-3.6213
272.000000	88.582	-3.4882
276.000000	88.544	-3.2784
280.000000	88.496	-3.0720
285.000000	88.449	-2.8770
290.000000	88.396	-2.6915
295.000000	88.342	-2.5058
300.000000	88.303	-2.3314
304.000000	88.248	-2.1385
307.000000	88.225	-2.0026
311.000000	88.190	-1.8465
315.000000	88.149	-1.7582
320.000000	88.100	-1.6685
325.000000	88.049	-1.5547
330.000000	87.998	-1.4868
335.000000	87.939	-1.4476
340.000000	87.876	-1.4674
345.000000	87.815	-1.4307
350.000000	87.740	-1.4104
355.000000	87.653	-1.3901
360.000000	87.563	-1.3567
365.000000	87.463	-1.3090
370.000000	87.366	-1.1096
375.000000	87.259	-0.9932
382.000000	87.132	-0.6106
387.000000	87.040	-0.4756
395.000000	86.878	-0.2251
400.000000	86.779	-0.1001
406.000000	86.641	0.2393
412.000000	86.496	0.5175
418.000000	86.346	0.9655
425.000000	86.162	1.5370
431.000000	86.008	2.0770
437.000000	85.867	2.7368
444.000000	85.704	3.5628
450.000000	85.559	4.4138
455.000000	85.460	5.0707
462.000000	85.315	6.1028
468.000000	85.209	6.9703
475.000000	85.076	8.0648
482.000000	84.966	9.2258
487.000000	84.885	10.0260
494.000000	84.792	11.1586
500.000000	84.708	12.1357
508.000000	84.626	13.5294
515.000000	84.570	14.6039
522.000000	84.514	15.4700
530.000000	84.410	16.6815
538.000000	84.327	17.8538
545.000000	84.273	19.0093
552.000000	84.239	20.1455
560.000000	84.190	21.2929
570.000000	84.125	22.7611
580.000000	84.054	24.1543
590.000000	84.005	25.5623
600.000000	83.956	26.9509
608.000000	83.915	28.0195
615.000000	83.874	28.9379
622.000000	83.847	29.8240
630.000000	83.800	30.9344
640.000000	83.741	32.2855
650.000000	83.695	33.6832
660.000000	83.644	35.1140
670.000000	83.605	36.5323
680.000000	83.575	37.9337
690.000000	83.536	39.4089
700.000000	83.515	40.8441
710.000000	83.495	42.2964
720.000000	83.471	43.7380
730.000000	83.471	45.2707
740.000000	83.467	46.6260
750.000000	83.469	48.0432
762.000000	83.473	49.7158
775.000000	83.481	51.5641
788.000000	83.490	53.3871
800.000000	83.518	55.0528
812.000000	83.550	56.6430
825.000000	83.585	58.4369
838.000000	83.632	60.1317
850.000000	83.666	61.7651
862.000000	83.719	63.4209
875.000000	83.767	65.0091
885.000000	83.827	66.2910
900.000000	83.914	68.1251
912.000000	83.985	69.6292
925.000000	84.061	71.2318
938.000000	84.152	72.7788
950.000000	84.231	74.0951
962.000000	84.317	75.3832
975.000000	84.415	76.8739
988.000000	84.504	78.1895
1000.000000	84.587	79.3716
1015.000000	84.714	80.9429
1030.000000	84.844	82.4074
1044.000000	84.962	83.7696
1060.000000	85.087	85.1857
1075.000000	85.207	86.4937
1090.000000	85.335	87.7361
1106.000000	85.466	89.0386
1120.000000	85.580	90.0543
1138.000000	85.709	91.4751
1150.000000	85.807	92.3325
1172.000000	85.974	93.8880
1180.000000	86.019	94.4388
1206.000000	86.207	96.1007
1220.000000	86.293	97.0456
1241.000000	86.403	98.2436
1250.000000	86.437	98.6646
1265.000000	86.425	99.3553
1280.000000	86.013	100.6284
1315.000000	87.258	105.4174
1320.000000	87.266	105.3883
1340.000000	87.339	105.9263
1360.000000	87.442	106.9512
1380.000000	87.556	107.9844
1400.000000	87.688	109.1154
1430.000000	87.881	110.8132
1450.000000	88.011	111.9872
1475.000000	88.187	113.4232
1500.000000	88.361	114.7878
1525.000000	88.532	116.2351
1550.000000	88.716	117.5527
1575.000000	88.899	118.9563
1600.000000	89.082	120.3016
1625.000000	89.273	121.5840
1650.000000	89.465	122.8566
1675.000000	89.656	124.0690
1700.000000	89.850	125.3265
1725.000000	90.058	126.5385
1750.000000	90.254	127.6527
1775.000000	90.456	128.7845
1800.000000	90.668	129.8901
1825.000000	90.878	130.9512
1850.000000	91.098	131.9900
1875.000000	91.309	132.9158
1900.000000	91.534	133.8929
1925.000000	91.762	134.7906
1950.000000	91.993	135.6242
1975.000000	92.222	136.4271
2000.000000	92.464	137.1306
2030.000000	92.742	137.9932
2060.000000	93.037	138.7014
2090.000000	93.330	139.3375
2120.000000	93.617	139.8542
2140.000000	93.813	140.1447
2180.000000	94.212	140.5146
2200.000000	94.409	140.6228
2240.000000	94.789	140.6992
2270.000000	95.081	140.5681
2300.000000	95.358	140.3309
2330.000000	95.628	139.9461
2360.000000	95.888	139.3846
2400.000000	96.214	138.4132
2430.000000	96.433	137.5314
2470.000000	96.700	136.1446
2500.000000	96.875	135.0103
2540.000000	97.068	133.2951
2580.000000	97.217	131.4910
2620.000000	97.318	129.6215
2650.000000	97.363	128.2155
2690.000000	97.382	126.3808
2720.000000	97.369	125.0633
2760.000000	97.318	123.4503
2800.000000	97.238	121.9860
2850.000000	97.098	120.4720
2900.000000	96.933	119.2836
2950.000000	96.746	118.4262
3000.000000	96.554	117.8866
3040.000000	96.389	117.7101
3070.000000	96.274	117.6805
3110.000000	96.115	117.8083
3150.000000	95.973	118.0923
3200.000000	95.802	118.6336
3250.000000	95.646	119.3792
3300.000000	95.508	120.2959
3350.000000	95.391	121.2982
3400.000000	95.290	122.4429
3450.000000	95.212	123.6672
3500.000000	95.154	124.9803
3550.000000	95.124	126.3463
3600.000000	95.110	127.7228
3650.000000	95.118	129.1284
3700.000000	95.154	130.5060
3750.000000	95.209	131.8787
3820.000000	95.321	133.7039
3870.000000	95.426	134.9384
3950.000000	95.633	136.6608
4000.000000	95.772	137.4411
4060.000000	95.992	138.5291
4120.000000	96.213	139.2956
4180.000000	96.454	139.7200
4250.000000	96.747	139.8210
4310.000000	96.998	139.5161
4370.000000	97.242	138.8230
4440.000000	97.498	137.4281
4500.000000	97.685	135.8256
4550.000000	97.804	134.1693
4620.000000	97.900	131.4632
4680.000000	97.900	128.8215
4750.000000	97.789	125.5940
4820.000000	97.549	122.3607
4870.000000	97.293	120.3015
4940.000000	96.833	117.8757
5000.000000	96.373	116.4047
5080.000000	95.693	115.3532
5150.000000	95.079	115.2188
5220.000000	94.471	115.8788
5300.000000	93.811	117.2693
5380.000000	93.192	119.3254
5450.000000	92.697	121.5158
5520.000000	92.235	124.0549
5600.000000	91.766	127.1525
5700.000000	91.254	131.4957
5800.000000	90.826	136.1906
5900.000000	90.467	141.1519
6000.000000	90.200	146.2033
6080.000000	90.025	150.3642
6150.000000	89.912	154.1540
6220.000000	89.850	157.8047
6300.000000	89.795	162.0767
6400.000000	89.815	167.4680
6500.000000	89.903	172.8612
6600.000000	90.042	178.0876
6700.000000	90.250	-176.7379
6800.000000	90.548	-171.7216
6900.000000	90.880	-166.7911
7000.000000	91.306	-162.0823
7100.000000	91.807	-157.6918
7200.000000	92.367	-153.4860
7300.000000	93.004	-149.8404
7400.000000	93.700	-146.6286
7500.000000	94.470	-143.9591
7620.000000	95.470	-141.6447
7750.000000	96.635	-140.7340
7880.000000	97.824	-141.8810
8000.000000	98.840	-145.2689
8120.000000	99.648	-150.9330
8250.000000	100.120	-159.3226
8380.000000	100.113	-168.4136
8500.000000	99.760	-175.7725
8620.000000	99.200	178.7376
8750.000000	98.494	175.0734
8850.000000	97.950	173.5950
9000.000000	97.183	173.0183
9120.000000	96.641	173.5692
9250.000000	96.143	174.7542
9380.000000	95.728	176.5493
9500.000000	95.424	178.4269
9620.000000	95.192	-179.4928
9750.000000	95.010	-177.0692
9880.000000	94.913	-174.6479
10000.000000	94.897	-172.3604
10150.000000	94.948	-169.7726
10300.000000	95.115	-167.2354
10440.000000	95.368	-165.2260
10600.000000	95.760	-163.5144
10750.000000	96.243	-162.6971
10900.000000	96.811	-163.0231
11060.000000	97.487	-165.0045
11200.000000	98.109	-168.7257
11380.000000	98.759	-176.9123
11500.000000	98.960	175.0314
11720.000000	98.335	156.9006
11800.000000	97.693	150.4035
12060.000000	94.215	136.5151
12200.000000	91.869	135.5784
12410.000000	88.596	143.4061
12500.000000	87.525	149.3663
12650.000000	86.337	160.5090
12800.000000	85.764	170.6345
13150.000000	85.397	-171.1024
13200.000000	85.382	-169.0682
13400.000000	85.424	-161.0892
13600.000000	85.601	-153.9814
13800.000000	85.938	-148.0052
14000.000000	86.431	-142.6593
14300.000000	87.518	-136.4726
14500.000000	88.593	-134.7255
14750.000000	90.273	-137.7534
15000.000000	91.775	-150.4938
15250.000000	91.506	-171.4189
15500.000000	89.190	173.3849
15750.000000	86.485	168.7838
16000.000000	84.187	169.9584
16250.000000	82.270	174.7471
16500.000000	80.865	-179.6932
16750.000000	79.883	-173.9710
17000.000000	79.202	-168.8350
17250.000000	78.657	-166.1999
17500.000000	78.059	-165.7950
17750.000000	76.975	-166.5162
18000.000000	75.499	-164.9432
18250.000000	73.811	-160.3145
18500.000000	72.255	-153.8635
18750.000000	70.943	-141.2204
19000.000000	70.253	-126.1461
19250.000000	70.379	-115.3702
19500.000000	71.267	-105.6142
19750.000000	72.357	-103.5055
