* Measurement data measured by REW V5.20.5
* Source: USB Sound Device        , MICROPHONE, R, volume: 0.667
* Format: 256k Log Swept Sine, 1 sweep at -6.0 dBFS with no timing reference
* Dated: 18 Jun, 2023 7:48:11 PM
* REW Settings:
*  C-weighting compensation: Off
*  Target level: 75.0 dB
* Note: 
* Measurement: WHIZZER HE10
* Smoothing: None
* Frequency Step: 1/48 octave
* Start Frequency: 20.000 Hz
*
* Freq(Hz)	SPL(dB)	Phase(degrees)
20.000000	94.568	13.2928
20.299999	94.572	12.7901
20.600000	94.575	12.2955
20.900000	94.576	11.8057
21.200001	94.575	11.3204
21.400000	94.573	11.0019
21.799999	94.566	10.3818
22.000000	94.562	10.0811
22.400000	94.554	9.4949
22.700001	94.548	9.0606
23.000000	94.543	8.6232
23.299999	94.537	8.1818
23.600000	94.530	7.7404
24.000000	94.519	7.1603
24.299999	94.510	6.7365
24.700001	94.500	6.1851
25.000000	94.492	5.7776
25.400000	94.483	5.2380
25.799999	94.473	4.7051
26.200001	94.462	4.1855
26.500000	94.454	3.8070
26.900000	94.443	3.3167
27.200001	94.434	2.9586
27.600000	94.421	2.4940
28.000000	94.408	2.0457
28.500000	94.390	1.5076
29.000000	94.373	0.9845
29.500000	94.354	0.4667
30.000000	94.333	-0.0447
30.400000	94.314	-0.4442
30.700001	94.300	-0.7367
31.100000	94.281	-1.1199
31.500000	94.262	-1.5002
32.000000	94.238	-1.9794
32.500000	94.213	-2.4607
33.000000	94.185	-2.9265
33.500000	94.157	-3.3598
34.000000	94.133	-3.7689
34.500000	94.114	-4.1884
35.000000	94.095	-4.6387
35.500000	94.069	-5.0959
36.000000	94.038	-5.5145
36.500000	94.008	-5.8818
37.000000	93.982	-6.2286
37.500000	93.958	-6.5867
38.200001	93.921	-7.1008
38.700001	93.893	-7.4550
39.500000	93.846	-8.0032
40.000000	93.816	-8.3425
40.599998	93.779	-8.7372
41.200001	93.742	-9.1152
41.799999	93.707	-9.4888
42.500000	93.666	-9.9261
43.099998	93.630	-10.2952
43.700001	93.594	-10.6519
44.400002	93.552	-11.0530
45.000000	93.517	-11.3927
45.500000	93.487	-11.6757
46.200001	93.443	-12.0592
46.799999	93.404	-12.3666
47.500000	93.362	-12.7120
48.200001	93.321	-13.0621
48.700001	93.291	-13.3139
49.400002	93.246	-13.6562
50.000000	93.209	-13.9364
50.799999	93.158	-14.3014
51.500000	93.113	-14.6097
52.200001	93.069	-14.8985
53.000000	93.021	-15.2324
53.799999	92.969	-15.5741
54.500000	92.921	-15.8367
55.200001	92.878	-16.0823
56.000000	92.832	-16.3906
57.000000	92.769	-16.7819
58.000000	92.703	-17.1443
59.000000	92.637	-17.4319
60.000000	92.585	-17.7355
60.799999	92.537	-18.0295
61.500000	92.489	-18.2473
62.200001	92.445	-18.4430
63.000000	92.395	-18.6876
64.000000	92.329	-18.9568
65.000000	92.269	-19.2146
66.000000	92.207	-19.4881
67.000000	92.147	-19.7263
68.000000	92.085	-19.9904
69.000000	92.020	-20.1911
70.000000	91.966	-20.3741
71.000000	91.910	-20.6277
72.000000	91.846	-20.8546
73.000000	91.785	-21.0494
74.000000	91.727	-21.2444
75.000000	91.668	-21.4399
76.199997	91.596	-21.6365
77.500000	91.524	-21.8524
78.800003	91.446	-22.0358
80.000000	91.380	-22.2055
81.199997	91.306	-22.3857
82.500000	91.230	-22.5142
83.800003	91.158	-22.6926
85.000000	91.090	-22.8311
86.199997	91.025	-22.9802
87.500000	90.950	-23.1338
88.500000	90.894	-23.2150
90.000000	90.816	-23.3325
91.199997	90.751	-23.4495
92.500000	90.681	-23.5283
93.800003	90.614	-23.6389
95.000000	90.549	-23.7106
96.199997	90.488	-23.7761
97.500000	90.422	-23.8425
98.800003	90.353	-23.8818
100.000000	90.298	-23.9290
101.500000	90.216	-24.0056
103.000000	90.142	-24.0586
104.400002	90.072	-24.0948
106.000000	89.993	-24.1574
107.500000	89.925	-24.1764
109.000000	89.848	-24.2067
110.599998	89.778	-24.1958
112.000000	89.707	-24.2104
113.800003	89.628	-24.1959
115.000000	89.573	-24.1970
117.199997	89.474	-24.1974
118.000000	89.437	-24.1716
120.599998	89.322	-24.1049
122.000000	89.262	-24.1039
124.099998	89.172	-24.0458
125.000000	89.134	-24.0356
126.500000	89.072	-23.9623
128.000000	89.010	-23.8977
131.500000	88.865	-23.7354
132.000000	88.845	-23.7162
134.000000	88.760	-23.5774
136.000000	88.685	-23.5706
138.000000	88.607	-23.4366
140.000000	88.543	-23.3598
143.000000	88.436	-23.1663
145.000000	88.348	-23.0293
147.500000	88.256	-22.8646
150.000000	88.169	-22.6943
152.500000	88.081	-22.4816
155.000000	87.998	-22.3011
157.500000	87.914	-22.1248
160.000000	87.831	-21.9514
162.500000	87.754	-21.6936
165.000000	87.674	-21.4644
167.500000	87.600	-21.2275
170.000000	87.517	-21.0221
172.500000	87.440	-20.7979
175.000000	87.359	-20.6014
177.500000	87.292	-20.3507
180.000000	87.227	-20.1108
182.500000	87.158	-19.8465
185.000000	87.091	-19.6115
187.500000	87.015	-19.3333
190.000000	86.963	-19.0896
192.500000	86.895	-18.7894
195.000000	86.831	-18.5859
197.500000	86.763	-18.3139
200.000000	86.713	-18.1368
203.000000	86.617	-17.7201
206.000000	86.553	-17.2955
209.000000	86.483	-17.0154
212.000000	86.410	-16.7045
214.000000	86.372	-16.5211
218.000000	86.275	-16.0878
220.000000	86.236	-15.9088
224.000000	86.167	-15.3796
227.000000	86.099	-15.0557
230.000000	86.033	-14.7240
233.000000	85.978	-14.3828
236.000000	85.932	-14.0162
240.000000	85.848	-13.5211
243.000000	85.790	-13.1279
247.000000	85.727	-12.7109
250.000000	85.671	-12.3431
254.000000	85.602	-11.8920
258.000000	85.525	-11.4709
262.000000	85.461	-10.9371
265.000000	85.413	-10.5668
269.000000	85.366	-10.1417
272.000000	85.320	-9.7682
276.000000	85.254	-9.3097
280.000000	85.194	-8.8611
285.000000	85.127	-8.3013
290.000000	85.066	-7.6531
295.000000	84.992	-7.0491
300.000000	84.936	-6.4596
304.000000	84.882	-5.9874
307.000000	84.849	-5.6842
311.000000	84.806	-5.2140
315.000000	84.751	-4.7498
320.000000	84.693	-4.1638
325.000000	84.645	-3.5657
330.000000	84.593	-2.9539
335.000000	84.547	-2.4020
340.000000	84.493	-1.8248
345.000000	84.444	-1.2880
350.000000	84.399	-0.6646
355.000000	84.347	-0.0582
360.000000	84.310	0.4656
365.000000	84.265	1.0194
370.000000	84.231	1.6138
375.000000	84.197	2.1592
382.000000	84.145	2.9102
387.000000	84.104	3.4521
395.000000	84.048	4.2941
400.000000	84.010	4.9574
406.000000	83.982	5.5177
412.000000	83.938	6.2108
418.000000	83.904	6.8273
425.000000	83.864	7.5976
431.000000	83.835	8.2075
437.000000	83.802	8.9286
444.000000	83.764	9.6342
450.000000	83.732	10.2660
455.000000	83.702	10.7449
462.000000	83.675	11.4998
468.000000	83.649	12.1215
475.000000	83.612	12.8403
482.000000	83.578	13.4965
487.000000	83.573	14.0089
494.000000	83.537	14.7555
500.000000	83.522	15.4345
508.000000	83.479	16.1785
515.000000	83.470	16.7433
522.000000	83.427	17.5816
530.000000	83.420	18.2830
538.000000	83.394	19.1941
545.000000	83.356	19.9213
552.000000	83.355	20.5374
560.000000	83.320	21.3885
570.000000	83.303	22.4255
580.000000	83.288	23.3287
590.000000	83.256	24.3447
600.000000	83.235	25.3602
608.000000	83.229	26.1763
615.000000	83.220	26.8634
622.000000	83.197	27.5188
630.000000	83.189	28.2772
640.000000	83.191	29.2686
650.000000	83.185	30.2694
660.000000	83.174	31.2690
670.000000	83.172	32.2447
680.000000	83.168	33.2785
690.000000	83.174	34.2265
700.000000	83.175	35.1932
710.000000	83.177	36.1466
720.000000	83.182	37.1212
730.000000	83.193	38.1975
740.000000	83.213	39.1068
750.000000	83.215	40.1132
762.000000	83.231	41.2421
775.000000	83.259	42.5829
788.000000	83.299	43.8192
800.000000	83.333	44.9459
812.000000	83.364	46.1620
825.000000	83.413	47.4579
838.000000	83.471	48.6133
850.000000	83.513	49.8123
862.000000	83.580	51.0887
875.000000	83.663	52.3733
885.000000	83.704	53.2396
900.000000	83.817	54.5210
912.000000	83.891	55.4508
925.000000	83.977	56.4055
938.000000	84.063	57.4717
950.000000	84.127	58.4100
962.000000	84.207	59.4453
975.000000	84.305	60.5629
988.000000	84.411	61.5812
1000.000000	84.472	62.5805
1015.000000	84.616	63.6105
1030.000000	84.757	64.7606
1044.000000	84.894	65.7399
1060.000000	85.050	66.8365
1075.000000	85.213	67.7674
1090.000000	85.386	68.6192
1106.000000	85.578	69.5041
1120.000000	85.730	70.0890
1138.000000	85.944	70.7141
1150.000000	86.088	71.0679
1172.000000	86.308	71.5505
1180.000000	86.392	71.6619
1206.000000	86.633	72.0033
1220.000000	86.740	72.1959
1241.000000	86.904	72.3689
1250.000000	86.956	72.4807
1265.000000	87.058	72.6423
1280.000000	87.141	72.7733
1315.000000	87.335	73.2067
1320.000000	87.364	73.3003
1340.000000	87.467	73.6193
1360.000000	87.558	73.9568
1380.000000	87.660	74.2824
1400.000000	87.750	74.5833
1430.000000	87.889	75.0924
1450.000000	87.975	75.5021
1475.000000	88.104	76.0269
1500.000000	88.221	76.3995
1525.000000	88.335	76.8859
1550.000000	88.446	77.3616
1575.000000	88.573	77.8564
1600.000000	88.689	78.3200
1625.000000	88.820	78.7390
1650.000000	88.948	79.1886
1675.000000	89.062	79.6415
1700.000000	89.199	79.9843
1725.000000	89.328	80.3562
1750.000000	89.461	80.6872
1775.000000	89.596	81.0611
1800.000000	89.735	81.3732
1825.000000	89.866	81.6678
1850.000000	90.001	81.9260
1875.000000	90.148	82.1551
1900.000000	90.282	82.3775
1925.000000	90.429	82.5255
1950.000000	90.571	82.7121
1975.000000	90.717	82.8233
2000.000000	90.851	82.9349
2030.000000	91.027	82.9452
2060.000000	91.205	82.8748
2090.000000	91.371	82.8306
2120.000000	91.543	82.7447
2140.000000	91.656	82.6681
2180.000000	91.873	82.3636
2200.000000	91.991	82.1684
2240.000000	92.206	81.7570
2270.000000	92.369	81.3340
2300.000000	92.517	80.9064
2330.000000	92.667	80.4311
2360.000000	92.804	79.8768
2400.000000	92.994	79.0457
2430.000000	93.122	78.4219
2470.000000	93.285	77.4616
2500.000000	93.399	76.6976
2540.000000	93.536	75.6542
2580.000000	93.659	74.5528
2620.000000	93.770	73.3936
2650.000000	93.841	72.5041
2690.000000	93.920	71.2914
2720.000000	93.969	70.3938
2760.000000	94.024	69.1860
2800.000000	94.053	67.9630
2850.000000	94.083	66.4872
2900.000000	94.083	65.0482
2950.000000	94.073	63.6267
3000.000000	94.039	62.3179
3040.000000	93.994	61.3136
3070.000000	93.964	60.6170
3110.000000	93.907	59.7269
3150.000000	93.849	58.8864
3200.000000	93.761	57.8857
3250.000000	93.680	57.0483
3300.000000	93.588	56.3031
3350.000000	93.495	55.5739
3400.000000	93.399	55.0095
3450.000000	93.300	54.4518
3500.000000	93.210	53.9948
3550.000000	93.112	53.6276
3600.000000	93.022	53.3563
3650.000000	92.934	53.1020
3700.000000	92.861	52.9077
3750.000000	92.778	52.7645
3820.000000	92.676	52.6678
3870.000000	92.627	52.6224
3950.000000	92.529	52.6989
4000.000000	92.488	52.8313
4060.000000	92.446	52.9888
4120.000000	92.431	53.2113
4180.000000	92.418	53.4815
4250.000000	92.444	53.8653
4310.000000	92.495	54.2349
4370.000000	92.572	54.6460
4440.000000	92.715	55.0910
4500.000000	92.895	55.4044
4550.000000	93.085	55.5409
4620.000000	93.431	55.4087
4680.000000	93.805	54.6661
4750.000000	94.299	52.8364
4820.000000	94.800	49.4349
4870.000000	95.111	45.8840
4940.000000	95.301	39.6261
5000.000000	95.183	33.7571
5080.000000	94.649	26.8778
5150.000000	93.958	22.4688
5220.000000	93.199	19.7823
5300.000000	92.378	18.2363
5380.000000	91.644	17.8828
5450.000000	91.082	18.0665
5520.000000	90.567	18.6047
5600.000000	90.068	19.4426
5700.000000	89.536	20.6823
5800.000000	89.075	22.1924
5900.000000	88.683	23.7202
6000.000000	88.318	25.3640
6080.000000	88.065	26.5649
6150.000000	87.868	27.6829
6220.000000	87.677	28.7920
6300.000000	87.497	30.2423
6400.000000	87.302	31.9125
6500.000000	87.161	33.6828
6600.000000	87.043	35.5587
6700.000000	86.969	37.0765
6800.000000	86.904	38.7203
6900.000000	86.892	40.1306
7000.000000	86.873	41.6144
7100.000000	86.932	43.1816
7200.000000	87.006	44.6389
7300.000000	87.129	45.8412
7400.000000	87.311	46.8358
7500.000000	87.482	47.7802
7620.000000	87.756	48.5647
7750.000000	88.099	48.9156
7880.000000	88.506	48.7009
8000.000000	88.907	47.8530
8120.000000	89.368	46.4788
8250.000000	89.856	43.8419
8380.000000	90.296	40.1650
8500.000000	90.618	35.7097
8620.000000	90.813	30.4375
8750.000000	90.818	24.0784
8850.000000	90.642	19.0485
9000.000000	90.130	12.0825
9120.000000	89.552	7.4033
9250.000000	88.803	3.3740
9380.000000	88.008	0.5273
9500.000000	87.270	-1.1170
9620.000000	86.559	-2.0766
9750.000000	85.838	-2.3859
9880.000000	85.156	-2.0481
10000.000000	84.552	-1.4285
10150.000000	83.899	0.1901
10300.000000	83.337	2.1883
10440.000000	82.861	4.2664
10600.000000	82.397	7.0596
10750.000000	82.039	10.4063
10900.000000	81.769	14.0351
11060.000000	81.636	18.6987
11200.000000	81.653	23.1414
11380.000000	81.961	29.6595
11500.000000	82.385	33.3276
11720.000000	83.694	38.7477
11800.000000	84.253	39.3122
12060.000000	86.029	38.2411
12200.000000	86.921	36.1692
12410.000000	88.243	31.9449
12500.000000	88.848	29.6995
12650.000000	89.857	24.7209
12800.000000	90.925	17.6904
13150.000000	92.579	-9.6920
13200.000000	92.567	-14.5367
13400.000000	91.790	-33.2465
13600.000000	90.175	-46.9580
13800.000000	88.346	-55.4041
14000.000000	86.651	-60.1320
14300.000000	84.547	-62.9528
14500.000000	83.363	-63.4711
14750.000000	82.205	-62.8350
15000.000000	81.347	-62.4598
15250.000000	80.567	-61.2460
15500.000000	80.121	-60.2802
15750.000000	79.838	-60.2778
16000.000000	79.703	-59.8271
16250.000000	79.673	-61.4882
16500.000000	79.750	-64.0627
16750.000000	79.814	-67.3876
17000.000000	79.757	-72.3253
17250.000000	79.688	-77.8478
17500.000000	79.261	-83.6537
17750.000000	78.614	-88.9315
18000.000000	77.840	-94.0957
18250.000000	77.021	-97.8409
18500.000000	76.297	-100.5593
18750.000000	75.443	-104.6257
19000.000000	73.622	-104.5323
19250.000000	73.170	-101.2321
19500.000000	72.827	-101.8992
19750.000000	72.366	-102.3011
