* Measurement data measured by REW V5.20.5
* Source: USB Sound Device        , MICROPHONE, R, volume: 0.149
* Format: 256k Log Swept Sine, 1 sweep at -6.0 dBFS with no timing reference
* Dated: 28 Jun, 2023 8:26:41 PM
* REW Settings:
*  C-weighting compensation: Off
*  Target level: 75.0 dB
* Note: 
* Measurement: WHIZZER H1
* Smoothing: None
* Frequency Step: 1/48 octave
* Start Frequency: 20.000 Hz
*
* Freq(Hz)	SPL(dB)	Phase(degrees)
20.000000	88.964	-124.1401
20.299999	89.036	-124.9434
20.600000	89.114	-125.6973
20.900000	89.173	-126.4003
21.200001	89.184	-127.0803
21.400000	89.200	-127.5462
21.799999	89.259	-128.5356
22.000000	89.292	-129.0616
22.400000	89.316	-130.1442
22.700001	89.331	-130.9254
23.000000	89.359	-131.6252
23.299999	89.373	-132.2242
23.600000	89.382	-132.7368
24.000000	89.418	-133.3455
24.299999	89.468	-133.8069
24.700001	89.537	-134.4856
25.000000	89.584	-135.0511
25.400000	89.641	-135.8557
25.799999	89.691	-136.6700
26.200001	89.740	-137.4555
26.500000	89.777	-138.0172
26.900000	89.817	-138.7319
27.200001	89.841	-139.2466
27.600000	89.870	-139.9085
28.000000	89.896	-140.5455
28.500000	89.927	-141.3212
29.000000	89.965	-142.1109
29.500000	89.994	-142.9429
30.000000	89.995	-143.7884
30.400000	89.990	-144.4217
30.700001	89.990	-144.8507
31.100000	89.986	-145.3728
31.500000	89.988	-145.8891
32.000000	90.014	-146.6192
32.500000	90.063	-147.4561
33.000000	90.080	-148.2742
33.500000	90.079	-148.9467
34.000000	90.101	-149.4961
34.500000	90.145	-150.0737
35.000000	90.182	-150.7641
35.500000	90.203	-151.4909
36.000000	90.217	-152.1187
36.500000	90.230	-152.6119
37.000000	90.243	-153.0553
37.500000	90.252	-153.5440
38.200001	90.258	-154.3329
38.700001	90.265	-154.9028
39.500000	90.230	-155.6491
40.000000	90.202	-156.0063
40.599998	90.203	-156.4622
41.200001	90.205	-157.0754
41.799999	90.189	-157.7581
42.500000	90.164	-158.4531
43.099998	90.161	-159.0279
43.700001	90.177	-159.6806
44.400002	90.204	-160.4600
45.000000	90.244	-161.1909
45.500000	90.267	-161.9636
46.200001	90.236	-163.0375
46.799999	90.166	-163.3888
47.500000	90.144	-163.1553
48.200001	90.224	-163.2514
48.700001	90.274	-163.7329
49.400002	90.262	-164.4490
50.000000	90.227	-164.8273
50.799999	90.219	-165.3374
51.500000	90.197	-165.8829
52.200001	90.176	-166.3223
53.000000	90.176	-166.8138
53.799999	90.166	-167.3596
54.500000	90.165	-167.7697
55.200001	90.184	-168.2341
56.000000	90.187	-168.8683
57.000000	90.172	-169.4973
58.000000	90.165	-170.0522
59.000000	90.131	-170.6342
60.000000	90.085	-171.1508
60.799999	90.056	-171.4790
61.500000	90.056	-171.7923
62.200001	90.051	-172.2508
63.000000	90.013	-172.7619
64.000000	89.980	-173.0073
65.000000	90.018	-173.4095
66.000000	90.027	-174.1304
67.000000	90.016	-174.5727
68.000000	90.015	-175.2036
69.000000	89.952	-175.7149
70.000000	89.932	-176.0389
71.000000	89.895	-176.6816
72.000000	89.839	-177.0306
73.000000	89.832	-177.4922
74.000000	89.821	-177.9464
75.000000	89.835	-178.3408
76.199997	89.815	-178.8136
77.500000	89.814	-179.0427
78.800003	89.781	-179.6499
80.000000	89.707	179.8177
81.199997	89.646	179.4011
82.500000	89.602	178.9429
83.800003	89.587	178.3755
85.000000	89.583	177.9195
86.199997	89.569	177.5936
87.500000	89.574	177.2685
88.500000	89.550	176.8322
90.000000	89.481	176.3777
91.199997	89.432	175.9013
92.500000	89.375	175.5554
93.800003	89.378	175.2224
95.000000	89.391	174.8810
96.199997	89.414	174.2593
97.500000	89.358	174.0072
98.800003	89.357	173.7306
100.000000	89.296	173.2524
101.500000	89.207	173.0086
103.000000	89.181	172.7650
104.400002	89.155	172.4673
106.000000	89.144	171.9881
107.500000	89.100	171.6716
109.000000	89.056	171.3817
110.599998	89.010	170.9529
112.000000	88.947	170.5531
113.800003	88.896	170.2210
115.000000	88.889	170.0023
117.199997	88.874	169.8829
118.000000	88.843	169.5703
120.599998	88.715	168.9125
122.000000	88.642	168.9495
124.099998	88.679	168.3398
125.000000	88.669	167.9102
126.500000	88.633	167.8318
128.000000	88.629	167.7711
131.500000	88.517	167.1932
132.000000	88.492	166.9864
134.000000	88.421	166.7949
136.000000	88.448	166.7369
138.000000	88.404	166.3586
140.000000	88.313	165.6367
143.000000	88.244	165.7396
145.000000	88.201	165.5583
147.500000	88.147	165.2939
150.000000	88.075	164.7630
152.500000	87.973	164.4096
155.000000	87.924	164.6629
157.500000	87.898	164.1060
160.000000	87.856	164.2236
162.500000	87.806	163.6019
165.000000	87.790	163.0486
167.500000	87.707	163.3068
170.000000	87.577	163.0767
172.500000	87.565	162.7565
175.000000	87.508	162.5629
177.500000	87.452	162.3623
180.000000	87.443	162.3320
182.500000	87.322	162.0250
185.000000	87.311	161.7985
187.500000	87.298	161.9610
190.000000	87.241	162.4210
192.500000	87.113	162.2722
195.000000	87.067	161.6434
197.500000	87.076	161.9128
200.000000	86.971	161.2878
203.000000	86.948	161.2217
206.000000	86.853	161.0548
209.000000	86.836	160.7247
212.000000	86.767	160.9348
214.000000	86.639	161.1031
218.000000	86.657	161.4233
220.000000	86.560	161.1536
224.000000	86.474	160.9959
227.000000	86.512	160.6638
230.000000	86.408	160.9965
233.000000	86.452	161.6467
236.000000	86.337	161.4130
240.000000	86.332	159.8602
243.000000	86.263	160.3196
247.000000	86.260	161.3704
250.000000	86.096	161.6033
254.000000	85.901	161.7734
258.000000	85.821	161.0350
262.000000	85.908	161.1614
265.000000	85.746	160.4079
269.000000	85.650	161.2408
272.000000	85.751	161.6688
276.000000	85.598	162.1677
280.000000	85.753	161.9940
285.000000	85.420	162.8910
290.000000	85.404	162.3602
295.000000	85.199	163.2439
300.000000	85.375	161.9091
304.000000	85.064	162.6078
307.000000	85.218	162.1493
311.000000	85.261	162.3378
315.000000	85.111	162.2224
320.000000	85.114	163.2993
325.000000	85.031	162.6719
330.000000	84.885	163.0305
335.000000	84.814	163.5379
340.000000	84.838	163.5615
345.000000	84.708	163.4838
350.000000	84.627	163.8625
355.000000	84.561	164.5599
360.000000	84.566	164.8549
365.000000	84.470	164.7623
370.000000	84.513	164.7443
375.000000	84.433	166.2112
382.000000	84.275	165.5545
387.000000	84.075	166.2439
395.000000	84.352	169.7323
400.000000	84.537	166.7994
406.000000	84.060	167.1320
412.000000	84.092	166.7993
418.000000	83.893	168.2256
425.000000	83.868	168.2019
431.000000	83.947	168.6702
437.000000	83.823	168.8145
444.000000	83.845	169.8603
450.000000	83.790	169.2842
455.000000	83.672	171.0171
462.000000	83.525	171.2455
468.000000	83.534	171.3416
475.000000	83.521	171.1006
482.000000	83.540	171.4640
487.000000	83.538	172.2846
494.000000	83.637	172.4438
500.000000	83.407	173.1653
508.000000	83.537	174.6133
515.000000	83.191	176.2542
522.000000	83.049	175.3290
530.000000	83.326	175.7932
538.000000	82.960	175.8239
545.000000	83.104	175.6613
552.000000	83.203	177.0377
560.000000	83.092	178.4946
570.000000	83.084	176.7879
580.000000	82.973	178.9619
590.000000	82.863	-179.4481
600.000000	83.030	-178.7564
608.000000	82.799	-179.4354
615.000000	82.832	-178.4158
622.000000	82.767	-176.7802
630.000000	82.804	-176.3061
640.000000	82.868	-176.5880
650.000000	82.795	-175.5659
660.000000	82.793	-175.3238
670.000000	82.773	-174.2432
680.000000	82.835	-173.2192
690.000000	82.747	-171.7735
700.000000	82.656	-171.3358
710.000000	82.728	-170.7782
720.000000	82.667	-169.6081
730.000000	82.731	-168.6199
740.000000	82.624	-167.9064
750.000000	82.608	-167.0147
762.000000	82.656	-165.8315
775.000000	82.673	-164.6398
788.000000	82.730	-163.3163
800.000000	82.765	-162.0268
812.000000	82.704	-161.3951
825.000000	82.835	-160.5946
838.000000	82.868	-158.8662
850.000000	82.867	-158.1839
862.000000	82.931	-157.1234
875.000000	83.044	-156.0543
885.000000	83.078	-155.0384
900.000000	83.143	-153.8098
912.000000	83.212	-152.4970
925.000000	83.273	-151.7251
938.000000	83.426	-151.0514
950.000000	83.477	-149.9212
962.000000	83.627	-149.0922
975.000000	83.717	-148.1546
988.000000	83.829	-147.3692
1000.000000	83.951	-146.7477
1015.000000	84.114	-146.3522
1030.000000	84.215	-145.6200
1044.000000	84.362	-144.9364
1060.000000	84.548	-143.9992
1075.000000	84.640	-143.7753
1090.000000	84.761	-143.3224
1106.000000	84.975	-142.9565
1120.000000	85.065	-142.8045
1138.000000	85.235	-142.5904
1150.000000	85.356	-142.1527
1172.000000	85.489	-142.0843
1180.000000	85.538	-142.0075
1206.000000	85.727	-141.8694
1220.000000	85.750	-141.6195
1241.000000	85.775	-141.7492
1250.000000	85.699	-141.7599
1265.000000	85.719	-141.5069
1280.000000	85.801	-141.4436
1315.000000	86.262	-141.2859
1320.000000	86.363	-141.0002
1340.000000	86.700	-140.8957
1360.000000	87.040	-140.7037
1380.000000	87.258	-140.4636
1400.000000	87.414	-140.6020
1430.000000	87.588	-140.2885
1450.000000	87.658	-140.2189
1475.000000	87.772	-139.8438
1500.000000	87.880	-139.6336
1525.000000	87.982	-139.5989
1550.000000	88.114	-139.2289
1575.000000	88.216	-139.1397
1600.000000	88.365	-138.9516
1625.000000	88.486	-138.7091
1650.000000	88.631	-138.5846
1675.000000	88.756	-138.5094
1700.000000	88.912	-138.2523
1725.000000	89.053	-138.2952
1750.000000	89.187	-138.2830
1775.000000	89.324	-138.1648
1800.000000	89.465	-138.1530
1825.000000	89.625	-138.1736
1850.000000	89.769	-138.1542
1875.000000	89.936	-138.2660
1900.000000	90.056	-138.3620
1925.000000	90.238	-138.6125
1950.000000	90.357	-138.6164
1975.000000	90.507	-138.9430
2000.000000	90.653	-139.1340
2030.000000	90.845	-139.6576
2060.000000	91.033	-139.9849
2090.000000	91.218	-140.5503
2120.000000	91.382	-140.9559
2140.000000	91.503	-141.4201
2180.000000	91.736	-142.5340
2200.000000	91.837	-142.9711
2240.000000	92.046	-143.8663
2270.000000	92.202	-144.9742
2300.000000	92.350	-145.7809
2330.000000	92.478	-146.7821
2360.000000	92.611	-147.8811
2400.000000	92.750	-149.3628
2430.000000	92.834	-150.5612
2470.000000	92.966	-152.1347
2500.000000	93.035	-153.2666
2540.000000	93.118	-154.9944
2580.000000	93.194	-156.8232
2620.000000	93.234	-158.4964
2650.000000	93.228	-159.7024
2690.000000	93.233	-161.4345
2720.000000	93.278	-162.5933
2760.000000	93.260	-164.3103
2800.000000	93.247	-165.9473
2850.000000	93.196	-167.8692
2900.000000	93.160	-169.6726
2950.000000	93.136	-171.3726
3000.000000	93.063	-172.9612
3040.000000	92.988	-173.9488
3070.000000	92.954	-174.9016
3110.000000	92.876	-176.1675
3150.000000	92.810	-176.9398
3200.000000	92.769	-178.3897
3250.000000	92.711	-179.6239
3300.000000	92.634	179.5056
3350.000000	92.595	178.3718
3400.000000	92.532	177.2672
3450.000000	92.491	176.2501
3500.000000	92.429	175.0323
3550.000000	92.399	174.0307
3600.000000	92.372	173.2546
3650.000000	92.353	172.0712
3700.000000	92.329	170.7579
3750.000000	92.314	169.6299
3820.000000	92.304	167.6440
3870.000000	92.294	166.3802
3950.000000	92.214	164.0288
4000.000000	92.196	162.4547
4060.000000	92.116	160.3259
4120.000000	92.042	158.3248
4180.000000	91.908	156.0742
4250.000000	91.658	153.7289
4310.000000	91.392	151.5802
4370.000000	91.150	149.2975
4440.000000	90.823	147.0711
4500.000000	90.555	145.2672
4550.000000	90.315	143.7275
4620.000000	89.957	142.0431
4680.000000	89.601	140.6708
4750.000000	89.244	139.2752
4820.000000	88.801	138.4932
4870.000000	88.443	137.9191
4940.000000	88.026	137.3328
5000.000000	87.689	137.1493
5080.000000	87.106	137.2692
5150.000000	86.655	137.4564
5220.000000	86.219	137.7007
5300.000000	85.676	139.0174
5380.000000	85.128	140.2327
5450.000000	84.635	141.6952
5520.000000	84.068	145.0250
5600.000000	83.935	150.6483
5700.000000	84.339	151.2540
5800.000000	83.941	150.4153
5900.000000	83.457	151.5430
6000.000000	83.039	154.0997
6080.000000	82.770	156.0165
6150.000000	82.612	157.3335
6220.000000	82.454	159.1719
6300.000000	82.235	161.6219
6400.000000	82.078	164.1906
6500.000000	81.970	167.1057
6600.000000	81.841	170.0335
6700.000000	81.830	173.0201
6800.000000	81.757	175.8556
6900.000000	81.810	179.0449
7000.000000	81.854	-178.2250
7100.000000	81.916	-175.4437
7200.000000	82.049	-172.5596
7300.000000	82.302	-170.1346
7400.000000	82.590	-167.2597
7500.000000	82.908	-165.0604
7620.000000	83.349	-162.6917
7750.000000	83.818	-160.6551
7880.000000	84.306	-159.5673
8000.000000	84.820	-159.1458
8120.000000	85.255	-159.8570
8250.000000	85.872	-162.0152
8380.000000	86.498	-165.7093
8500.000000	86.973	-170.4311
8620.000000	87.260	-176.9473
8750.000000	87.140	175.3212
8850.000000	86.767	169.8692
9000.000000	85.989	162.9948
9120.000000	85.159	159.3677
9250.000000	84.184	157.1381
9380.000000	83.331	156.6435
9500.000000	82.592	156.7258
9620.000000	81.848	158.0253
9750.000000	81.171	159.3076
9880.000000	80.596	161.2206
10000.000000	80.108	163.3521
10150.000000	79.536	166.0287
10300.000000	79.115	169.0540
10440.000000	78.815	172.0461
10600.000000	78.385	175.6505
10750.000000	78.114	178.9652
10900.000000	77.874	-177.8335
11060.000000	77.746	-173.0624
11200.000000	77.670	-169.5860
11380.000000	77.709	-164.6769
11500.000000	77.728	-160.5717
11720.000000	78.131	-154.1388
11800.000000	78.316	-152.3271
12060.000000	79.343	-145.6203
12200.000000	80.162	-143.5375
12410.000000	81.498	-142.5822
12500.000000	82.113	-143.1543
12650.000000	83.248	-146.9651
12800.000000	84.157	-153.7296
13150.000000	84.301	-177.8026
13200.000000	84.061	179.5016
13400.000000	82.666	171.5100
13600.000000	81.160	168.9279
13800.000000	79.765	170.3344
14000.000000	78.688	173.6924
14300.000000	77.332	-178.8830
14500.000000	76.808	-172.7726
14750.000000	76.635	-165.1879
15000.000000	76.829	-159.1506
15250.000000	77.420	-154.8073
15500.000000	77.994	-153.1489
15750.000000	78.701	-148.8554
16000.000000	80.407	-148.4910
16250.000000	81.839	-155.7043
16500.000000	82.917	-166.4295
16750.000000	83.116	-179.9513
17000.000000	82.353	167.3709
17250.000000	81.267	159.0876
17500.000000	80.011	153.9428
17750.000000	78.878	150.4723
18000.000000	77.757	145.2668
18250.000000	75.913	138.2940
18500.000000	72.278	133.1114
18750.000000	65.649	177.0486
19000.000000	74.211	-163.2575
19250.000000	73.844	173.2376
19500.000000	71.814	169.4157
19750.000000	69.392	171.7857
