* Measurement data measured by REW V5.20.5
* Source: USB Sound Device        , MICROPHONE, R, volume: 0.675
* Format: 256k Log Swept Sine, 1 sweep at -6.0 dBFS with no timing reference
* Dated: 12 Jul, 2023 8:10:17 PM
* REW Settings:
*  C-weighting compensation: Off
*  Target level: 75.0 dB
* Note: 
* Measurement: ZHULINNIAO QINGLUAN RED
* Smoothing: None
* Frequency Step: 1/48 octave
* Start Frequency: 20.000 Hz
*
* Freq(Hz)	SPL(dB)	Phase(degrees)
20.000000	87.863	-159.2953
20.299999	87.867	-159.6596
20.600000	87.870	-160.0135
20.900000	87.875	-160.3471
21.200001	87.883	-160.6580
21.400000	87.891	-160.8579
21.799999	87.911	-161.2514
22.000000	87.922	-161.4485
22.400000	87.944	-161.8407
22.700001	87.959	-162.1212
23.000000	87.972	-162.3787
23.299999	87.984	-162.6132
23.600000	87.996	-162.8308
24.000000	88.011	-163.1054
24.299999	88.020	-163.3008
24.700001	88.026	-163.5368
25.000000	88.028	-163.6873
25.400000	88.032	-163.8559
25.799999	88.038	-164.0162
26.200001	88.046	-164.2035
26.500000	88.050	-164.3706
26.900000	88.051	-164.6182
27.200001	88.047	-164.8063
27.600000	88.039	-165.0408
28.000000	88.031	-165.2508
28.500000	88.026	-165.4972
29.000000	88.028	-165.7584
29.500000	88.033	-166.0503
30.000000	88.037	-166.3610
30.400000	88.039	-166.6036
30.700001	88.039	-166.7731
31.100000	88.040	-166.9765
31.500000	88.041	-167.1548
32.000000	88.045	-167.3504
32.500000	88.052	-167.5303
33.000000	88.060	-167.7150
33.500000	88.065	-167.9161
34.000000	88.064	-168.1167
34.500000	88.057	-168.2816
35.000000	88.052	-168.4055
35.500000	88.053	-168.5343
36.000000	88.055	-168.7108
36.500000	88.052	-168.9180
37.000000	88.043	-169.1027
37.500000	88.037	-169.2533
38.200001	88.036	-169.4780
38.700001	88.034	-169.6613
39.500000	88.026	-169.8875
40.000000	88.028	-169.9902
40.599998	88.036	-170.1461
41.200001	88.039	-170.3427
41.799999	88.034	-170.5130
42.500000	88.029	-170.6531
43.099998	88.027	-170.7733
43.700001	88.024	-170.9103
44.400002	88.017	-171.0620
45.000000	88.011	-171.1808
45.500000	88.008	-171.2888
46.200001	88.001	-171.4597
46.799999	87.991	-171.6015
47.500000	87.979	-171.7344
48.200001	87.970	-171.8423
48.700001	87.966	-171.9209
49.400002	87.961	-172.0478
50.000000	87.955	-172.1617
50.799999	87.947	-172.2827
51.500000	87.945	-172.3769
52.200001	87.946	-172.5116
53.000000	87.940	-172.6827
53.799999	87.932	-172.8138
54.500000	87.926	-172.9297
55.200001	87.914	-173.0266
56.000000	87.905	-173.0573
57.000000	87.913	-173.1575
58.000000	87.905	-173.3873
59.000000	87.882	-173.5525
60.000000	87.857	-173.6385
60.799999	87.849	-173.6412
61.500000	87.854	-173.7243
62.200001	87.847	-173.8744
63.000000	87.831	-173.9463
64.000000	87.827	-174.0332
65.000000	87.805	-174.1623
66.000000	87.792	-174.1418
67.000000	87.788	-174.2721
68.000000	87.769	-174.3798
69.000000	87.753	-174.5466
70.000000	87.717	-174.6144
71.000000	87.715	-174.5622
72.000000	87.712	-174.7033
73.000000	87.697	-174.7368
74.000000	87.687	-174.8163
75.000000	87.660	-174.7810
76.199997	87.664	-174.7780
77.500000	87.639	-174.8891
78.800003	87.627	-175.1696
80.000000	87.558	-175.1593
81.199997	87.579	-175.0199
82.500000	87.569	-175.1792
83.800003	87.569	-175.1794
85.000000	87.548	-175.2564
86.199997	87.525	-175.2466
87.500000	87.489	-175.2239
88.500000	87.481	-175.2372
90.000000	87.458	-175.2723
91.199997	87.483	-175.7595
92.500000	87.340	-175.8326
93.800003	87.398	-175.2887
95.000000	87.387	-175.5168
96.199997	87.383	-175.3925
97.500000	87.352	-175.3741
98.800003	87.348	-175.3451
100.000000	87.305	-175.3829
101.500000	87.298	-175.2208
103.000000	87.291	-175.3584
104.400002	87.262	-175.3267
106.000000	87.250	-175.2534
107.500000	87.220	-175.1895
109.000000	87.203	-175.1686
110.599998	87.178	-175.1152
112.000000	87.151	-175.1298
113.800003	87.137	-175.0724
115.000000	87.113	-175.0814
117.199997	87.077	-174.9631
118.000000	87.061	-174.8835
120.599998	87.042	-174.9539
122.000000	87.010	-174.7342
124.099998	86.989	-174.7151
125.000000	86.979	-174.7134
126.500000	86.945	-174.6338
128.000000	86.952	-174.5217
131.500000	86.896	-174.2938
132.000000	86.896	-174.3311
134.000000	86.844	-174.2602
136.000000	86.810	-174.0844
138.000000	86.782	-174.0024
140.000000	86.787	-174.0546
143.000000	86.731	-173.6173
145.000000	86.709	-173.4695
147.500000	86.656	-173.4443
150.000000	86.636	-173.2470
152.500000	86.602	-172.9945
155.000000	86.559	-172.8493
157.500000	86.535	-172.6458
160.000000	86.488	-172.3340
162.500000	86.461	-172.2813
165.000000	86.439	-172.0239
167.500000	86.416	-171.8154
170.000000	86.391	-171.5144
172.500000	86.351	-171.1958
175.000000	86.324	-171.1540
177.500000	86.297	-170.8777
180.000000	86.283	-170.8218
182.500000	86.235	-170.4635
185.000000	86.229	-170.2825
187.500000	86.199	-170.0653
190.000000	86.175	-169.7660
192.500000	86.150	-169.4975
195.000000	86.116	-169.1256
197.500000	86.105	-168.9260
200.000000	86.088	-168.7395
203.000000	86.065	-168.3353
206.000000	86.022	-168.1300
209.000000	85.996	-167.8148
212.000000	85.982	-167.4389
214.000000	85.999	-167.1197
218.000000	85.907	-166.9281
220.000000	85.906	-167.0034
224.000000	85.898	-166.2627
227.000000	85.905	-166.0502
230.000000	85.878	-165.6613
233.000000	85.830	-165.4063
236.000000	85.832	-165.0816
240.000000	85.796	-164.8931
243.000000	85.784	-164.4057
247.000000	85.758	-164.0453
250.000000	85.749	-163.6907
254.000000	85.723	-163.2204
258.000000	85.690	-162.8436
262.000000	85.693	-162.3630
265.000000	85.678	-162.1468
269.000000	85.635	-161.7910
272.000000	85.606	-161.4631
276.000000	85.600	-161.1575
280.000000	85.587	-160.7197
285.000000	85.552	-160.1111
290.000000	85.521	-159.6197
295.000000	85.504	-159.3206
300.000000	85.474	-158.7886
304.000000	85.460	-158.1374
307.000000	85.447	-157.8004
311.000000	85.407	-157.4748
315.000000	85.406	-157.1379
320.000000	85.378	-156.6147
325.000000	85.359	-156.0911
330.000000	85.346	-155.5388
335.000000	85.318	-154.9297
340.000000	85.294	-154.3667
345.000000	85.291	-153.9128
350.000000	85.250	-153.2847
355.000000	85.235	-152.8493
360.000000	85.221	-152.2148
365.000000	85.214	-151.7790
370.000000	85.188	-151.1875
375.000000	85.164	-150.6786
382.000000	85.159	-149.8216
387.000000	85.137	-149.3701
395.000000	85.123	-148.4595
400.000000	85.101	-147.9478
406.000000	85.102	-147.2849
412.000000	85.080	-146.6830
418.000000	85.064	-146.0101
425.000000	85.055	-145.1794
431.000000	85.050	-144.5626
437.000000	85.038	-143.8905
444.000000	85.024	-143.1141
450.000000	85.013	-142.4900
455.000000	85.008	-141.9708
462.000000	85.008	-141.1557
468.000000	84.999	-140.5884
475.000000	84.980	-139.8413
482.000000	84.972	-139.0197
487.000000	84.977	-138.4910
494.000000	84.971	-137.7471
500.000000	84.958	-137.0670
508.000000	84.965	-136.2052
515.000000	84.955	-135.4097
522.000000	84.962	-134.7263
530.000000	84.951	-133.8891
538.000000	84.955	-133.0090
545.000000	84.954	-132.3068
552.000000	84.953	-131.5468
560.000000	84.959	-130.6216
570.000000	84.964	-129.5077
580.000000	84.967	-128.4886
590.000000	84.978	-127.4262
600.000000	84.984	-126.2668
608.000000	84.997	-125.3952
615.000000	84.999	-124.6197
622.000000	85.001	-123.8428
630.000000	85.008	-122.9878
640.000000	85.023	-121.9558
650.000000	85.051	-120.8477
660.000000	85.056	-119.7458
670.000000	85.078	-118.6378
680.000000	85.101	-117.5752
690.000000	85.122	-116.4543
700.000000	85.158	-115.3585
710.000000	85.175	-114.3324
720.000000	85.192	-113.2241
730.000000	85.245	-112.0778
740.000000	85.273	-111.0016
750.000000	85.316	-109.8919
762.000000	85.354	-108.5603
775.000000	85.404	-107.2051
788.000000	85.462	-105.7457
800.000000	85.532	-104.4043
812.000000	85.592	-103.1141
825.000000	85.663	-101.6964
838.000000	85.740	-100.3030
850.000000	85.809	-99.0097
862.000000	85.890	-97.7038
875.000000	85.990	-96.3819
885.000000	86.052	-95.3718
900.000000	86.170	-93.8339
912.000000	86.265	-92.6218
925.000000	86.377	-91.3420
938.000000	86.485	-90.1950
950.000000	86.588	-89.0478
962.000000	86.693	-87.9841
975.000000	86.813	-86.8055
988.000000	86.934	-85.6411
1000.000000	87.057	-84.5560
1015.000000	87.191	-83.4411
1030.000000	87.345	-82.2932
1044.000000	87.493	-81.2772
1060.000000	87.643	-80.1070
1075.000000	87.791	-79.0856
1090.000000	87.938	-78.0718
1106.000000	88.100	-77.0818
1120.000000	88.233	-76.1877
1138.000000	88.410	-75.1459
1150.000000	88.520	-74.4841
1172.000000	88.723	-73.2250
1180.000000	88.800	-72.8117
1206.000000	89.037	-71.4259
1220.000000	89.158	-70.7326
1241.000000	89.351	-69.7088
1250.000000	89.416	-69.2703
1265.000000	89.548	-68.5740
1280.000000	89.681	-67.8720
1315.000000	89.973	-66.2224
1320.000000	90.016	-66.0108
1340.000000	90.184	-65.0928
1360.000000	90.350	-64.1701
1380.000000	90.516	-63.3286
1400.000000	90.677	-62.4228
1430.000000	90.929	-61.1590
1450.000000	91.097	-60.3255
1475.000000	91.312	-59.3221
1500.000000	91.524	-58.3271
1525.000000	91.736	-57.3842
1550.000000	91.965	-56.4278
1575.000000	92.183	-55.5496
1600.000000	92.415	-54.6843
1625.000000	92.648	-53.8730
1650.000000	92.883	-53.1405
1675.000000	93.124	-52.4318
1700.000000	93.366	-51.7517
1725.000000	93.614	-51.1854
1750.000000	93.869	-50.6397
1775.000000	94.116	-50.1406
1800.000000	94.377	-49.7857
1825.000000	94.631	-49.4854
1850.000000	94.890	-49.2787
1875.000000	95.149	-49.1762
1900.000000	95.414	-49.1438
1925.000000	95.668	-49.2281
1950.000000	95.923	-49.3822
1975.000000	96.177	-49.6727
2000.000000	96.422	-50.0603
2030.000000	96.717	-50.7127
2060.000000	96.989	-51.4862
2090.000000	97.255	-52.4653
2120.000000	97.492	-53.6027
2140.000000	97.643	-54.4092
2180.000000	97.904	-56.2773
2200.000000	98.016	-57.2813
2240.000000	98.197	-59.3902
2270.000000	98.300	-61.0605
2300.000000	98.366	-62.7451
2330.000000	98.392	-64.4450
2360.000000	98.392	-66.0815
2400.000000	98.343	-68.1651
2430.000000	98.270	-69.6041
2470.000000	98.140	-71.3675
2500.000000	98.017	-72.5266
2540.000000	97.833	-73.8012
2580.000000	97.626	-74.8410
2620.000000	97.402	-75.6545
2650.000000	97.229	-76.0821
2690.000000	96.998	-76.4464
2720.000000	96.820	-76.5487
2760.000000	96.590	-76.5344
2800.000000	96.364	-76.3718
2850.000000	96.092	-75.8694
2900.000000	95.841	-75.1761
2950.000000	95.604	-74.3244
3000.000000	95.376	-73.2133
3040.000000	95.220	-72.3028
3070.000000	95.111	-71.5487
3110.000000	94.967	-70.4403
3150.000000	94.844	-69.3603
3200.000000	94.709	-67.8827
3250.000000	94.585	-66.3640
3300.000000	94.489	-64.7605
3350.000000	94.406	-63.1698
3400.000000	94.341	-61.5560
3450.000000	94.304	-59.9022
3500.000000	94.281	-58.2764
3550.000000	94.286	-56.6969
3600.000000	94.297	-55.1144
3650.000000	94.327	-53.5510
3700.000000	94.375	-52.0336
3750.000000	94.438	-50.6064
3820.000000	94.555	-48.6626
3870.000000	94.655	-47.3986
3950.000000	94.852	-45.5415
4000.000000	94.995	-44.5949
4060.000000	95.170	-43.5619
4120.000000	95.366	-42.7599
4180.000000	95.564	-42.1819
4250.000000	95.814	-41.8561
4310.000000	96.016	-41.9243
4370.000000	96.216	-42.2317
4440.000000	96.425	-42.9865
4500.000000	96.563	-43.9829
4550.000000	96.656	-45.0051
4620.000000	96.730	-46.7198
4680.000000	96.733	-48.3414
4750.000000	96.661	-50.3409
4820.000000	96.506	-52.2596
4870.000000	96.346	-53.5864
4940.000000	96.063	-55.1936
5000.000000	95.765	-56.2873
5080.000000	95.325	-57.3242
5150.000000	94.915	-57.8100
5220.000000	94.484	-57.8646
5300.000000	93.974	-57.5552
5380.000000	93.468	-56.7461
5450.000000	93.029	-55.7540
5520.000000	92.607	-54.4192
5600.000000	92.144	-52.5972
5700.000000	91.608	-49.9921
5800.000000	91.090	-46.9183
5900.000000	90.652	-43.4918
6000.000000	90.254	-39.8732
6080.000000	89.960	-36.8818
6150.000000	89.750	-34.1892
6220.000000	89.552	-31.3090
6300.000000	89.358	-27.9121
6400.000000	89.159	-23.7898
6500.000000	89.011	-19.5846
6600.000000	88.930	-15.0784
6700.000000	88.905	-10.7093
6800.000000	88.940	-6.3706
6900.000000	89.016	-2.0850
7000.000000	89.164	2.1179
7100.000000	89.393	6.3243
7200.000000	89.704	10.1976
7300.000000	90.059	13.8763
7400.000000	90.513	17.0361
7500.000000	91.032	19.9846
7620.000000	91.774	22.6228
7750.000000	92.698	24.1864
7880.000000	93.746	23.8449
8000.000000	94.727	21.1849
8120.000000	95.591	15.7390
8250.000000	96.131	6.7958
8380.000000	95.982	-3.4160
8500.000000	95.253	-11.5584
8620.000000	94.174	-17.0256
8750.000000	92.890	-19.9566
8850.000000	91.924	-20.4486
9000.000000	90.603	-19.2165
9120.000000	89.684	-16.9930
9250.000000	88.816	-13.6933
9380.000000	88.069	-9.7923
9500.000000	87.498	-5.9651
9620.000000	87.031	-1.9907
9750.000000	86.626	2.6038
9880.000000	86.306	7.2555
10000.000000	86.120	11.7996
10150.000000	85.968	16.5682
10300.000000	85.925	21.4809
10440.000000	85.973	25.8951
10600.000000	86.119	30.3080
10750.000000	86.363	33.8688
10900.000000	86.650	37.1217
11060.000000	87.037	39.8735
11200.000000	87.378	41.3366
11380.000000	87.849	42.0873
11500.000000	88.113	41.5673
11720.000000	88.349	39.6996
11800.000000	88.308	38.8589
12060.000000	87.882	38.4404
12200.000000	87.759	40.1002
12410.000000	87.913	41.6287
12500.000000	87.990	41.7473
12650.000000	88.037	41.0565
12800.000000	87.983	40.6242
13150.000000	87.844	40.5307
13200.000000	87.816	40.4886
13400.000000	87.863	40.6269
13600.000000	87.959	40.3518
13800.000000	88.195	38.9851
14000.000000	88.418	36.2258
14300.000000	88.583	29.0587
14500.000000	88.425	22.4245
14750.000000	87.730	13.5086
15000.000000	86.470	5.8300
15250.000000	84.957	1.1671
15500.000000	83.436	-1.1538
15750.000000	82.022	-1.4740
16000.000000	80.786	-0.1799
16250.000000	79.775	1.1563
16500.000000	79.055	2.3243
16750.000000	78.323	3.3534
17000.000000	77.874	2.7173
17250.000000	77.475	0.3686
17500.000000	76.697	-4.2689
17750.000000	75.663	-10.9963
18000.000000	73.972	-16.6525
18250.000000	71.874	-19.5334
18500.000000	69.441	-21.8066
18750.000000	66.940	-14.9759
19000.000000	64.638	-7.2637
19250.000000	63.673	4.7263
19500.000000	62.701	9.9343
19750.000000	62.256	12.3444
