* Measurement data measured by REW V5.20.5
* Source: USB Sound Device        , MICROPHONE, R, volume: 0.657
* Format: 256k Log Swept Sine, 1 sweep at -6.0 dBFS with no timing reference
* Dated: 8 Jun, 2023 8:49:35 PM
* REW Settings:
*  C-weighting compensation: Off
*  Target level: 75.0 dB
* Note: 
* Measurement: ZLN SHUANGHUA L
* Smoothing: None
* Frequency Step: 1/48 octave
* Start Frequency: 20.000 Hz
*
* Freq(Hz)	SPL(dB)	Phase(degrees)
20.000000	87.121	-134.8175
20.299999	87.174	-135.2315
20.600000	87.227	-135.6527
20.900000	87.279	-136.0752
21.200001	87.331	-136.4936
21.400000	87.365	-136.7688
21.799999	87.435	-137.3095
22.000000	87.470	-137.5741
22.400000	87.540	-138.0889
22.700001	87.591	-138.4594
23.000000	87.642	-138.8139
23.299999	87.692	-139.1517
23.600000	87.742	-139.4727
24.000000	87.805	-139.8742
24.299999	87.852	-140.1564
24.700001	87.914	-140.5125
25.000000	87.959	-140.7715
25.400000	88.018	-141.1173
25.799999	88.072	-141.4699
26.200001	88.121	-141.8228
26.500000	88.154	-142.0793
26.900000	88.195	-142.4047
27.200001	88.224	-142.6395
27.600000	88.265	-142.9520
28.000000	88.306	-143.2781
28.500000	88.355	-143.7106
29.000000	88.401	-144.1557
29.500000	88.445	-144.5960
30.000000	88.490	-145.0247
30.400000	88.527	-145.3620
30.700001	88.556	-145.6158
31.100000	88.596	-145.9621
31.500000	88.634	-146.3188
32.000000	88.675	-146.7597
32.500000	88.709	-147.1485
33.000000	88.745	-147.4587
33.500000	88.789	-147.7314
34.000000	88.840	-148.0451
34.500000	88.885	-148.4235
35.000000	88.915	-148.8069
35.500000	88.937	-149.1196
36.000000	88.963	-149.3618
36.500000	88.998	-149.6026
37.000000	89.035	-149.8987
37.500000	89.066	-150.2335
38.200001	89.099	-150.6686
38.700001	89.123	-150.9396
39.500000	89.170	-151.3955
40.000000	89.196	-151.7039
40.599998	89.222	-152.0533
41.200001	89.250	-152.3626
41.799999	89.281	-152.6656
42.500000	89.318	-153.0474
43.099998	89.344	-153.3847
43.700001	89.364	-153.6926
44.400002	89.390	-153.9923
45.000000	89.420	-154.2453
45.500000	89.445	-154.5004
46.200001	89.469	-154.8877
46.799999	89.480	-155.1469
47.500000	89.505	-155.3817
48.200001	89.537	-155.6988
48.700001	89.551	-155.9644
49.400002	89.559	-156.2585
50.000000	89.575	-156.4503
50.799999	89.603	-156.7826
51.500000	89.617	-157.0975
52.200001	89.631	-157.3425
53.000000	89.659	-157.6507
53.799999	89.679	-158.0002
54.500000	89.696	-158.2469
55.200001	89.721	-158.5232
56.000000	89.735	-158.8954
57.000000	89.741	-159.1617
58.000000	89.775	-159.4485
59.000000	89.784	-159.8621
60.000000	89.788	-160.0873
60.799999	89.809	-160.3059
61.500000	89.824	-160.5743
62.200001	89.830	-160.8413
63.000000	89.836	-161.0942
64.000000	89.854	-161.3659
65.000000	89.875	-161.6926
66.000000	89.887	-161.9894
67.000000	89.903	-162.2645
68.000000	89.902	-162.5755
69.000000	89.900	-162.6759
70.000000	89.936	-162.8608
71.000000	89.950	-163.3037
72.000000	89.938	-163.5887
73.000000	89.944	-163.8036
74.000000	89.952	-164.0730
75.000000	89.955	-164.3177
76.199997	89.961	-164.5782
77.500000	89.967	-164.8515
78.800003	89.972	-165.1114
80.000000	89.977	-165.4054
81.199997	89.969	-165.6756
82.500000	89.975	-165.9149
83.800003	89.974	-166.2198
85.000000	89.976	-166.4394
86.199997	89.978	-166.6553
87.500000	89.983	-166.9005
88.500000	89.979	-167.0842
90.000000	89.976	-167.3367
91.199997	89.972	-167.5367
92.500000	89.968	-167.7877
93.800003	89.962	-168.0002
95.000000	89.959	-168.1990
96.199997	89.958	-168.3892
97.500000	89.953	-168.5959
98.800003	89.952	-168.7572
100.000000	89.953	-168.9572
101.500000	89.940	-169.2072
103.000000	89.931	-169.3935
104.400002	89.919	-169.5732
106.000000	89.916	-169.7808
107.500000	89.906	-169.9930
109.000000	89.900	-170.2234
110.599998	89.882	-170.4371
112.000000	89.874	-170.5655
113.800003	89.861	-170.7633
115.000000	89.856	-170.8741
117.199997	89.837	-171.1461
118.000000	89.832	-171.2205
120.599998	89.819	-171.4911
122.000000	89.803	-171.6553
124.099998	89.780	-171.8383
125.000000	89.772	-171.9389
126.500000	89.752	-172.0692
128.000000	89.742	-172.2070
131.500000	89.714	-172.4927
132.000000	89.712	-172.5089
134.000000	89.685	-172.6847
136.000000	89.674	-172.7494
138.000000	89.631	-173.0306
140.000000	89.622	-173.1705
143.000000	89.582	-173.3088
145.000000	89.576	-173.5346
147.500000	89.539	-173.6702
150.000000	89.515	-173.8122
152.500000	89.483	-174.0004
155.000000	89.435	-174.0063
157.500000	89.412	-174.2110
160.000000	89.357	-174.5154
162.500000	89.368	-174.3955
165.000000	89.338	-174.3802
167.500000	89.309	-174.6248
170.000000	89.279	-174.6345
172.500000	89.267	-174.7537
175.000000	89.205	-174.7311
177.500000	89.185	-174.8691
180.000000	89.139	-174.8842
182.500000	89.116	-174.9662
185.000000	89.076	-174.8983
187.500000	89.054	-174.9577
190.000000	89.020	-175.0769
192.500000	88.984	-175.0478
195.000000	88.959	-175.0074
197.500000	88.916	-175.0876
200.000000	88.916	-175.0253
203.000000	88.836	-175.0616
206.000000	88.798	-174.9865
209.000000	88.776	-175.1897
212.000000	88.732	-174.9974
214.000000	88.686	-175.1125
218.000000	88.617	-174.8792
220.000000	88.593	-175.1097
224.000000	88.569	-174.7366
227.000000	88.527	-174.9455
230.000000	88.497	-174.9857
233.000000	88.454	-174.9080
236.000000	88.399	-174.8423
240.000000	88.347	-174.5251
243.000000	88.313	-174.6322
247.000000	88.248	-174.5403
250.000000	88.210	-174.5630
254.000000	88.175	-174.3327
258.000000	88.112	-174.2097
262.000000	88.077	-174.1525
265.000000	88.024	-173.9565
269.000000	87.967	-173.7938
272.000000	87.944	-173.7661
276.000000	87.886	-173.5818
280.000000	87.833	-173.3499
285.000000	87.775	-173.1371
290.000000	87.707	-172.9518
295.000000	87.645	-172.6699
300.000000	87.577	-172.2160
304.000000	87.533	-172.2212
307.000000	87.496	-172.0506
311.000000	87.464	-171.8525
315.000000	87.410	-171.7038
320.000000	87.351	-171.3150
325.000000	87.290	-171.0193
330.000000	87.219	-170.7350
335.000000	87.174	-170.4600
340.000000	87.114	-170.1711
345.000000	87.061	-169.8620
350.000000	87.010	-169.4841
355.000000	86.933	-169.1239
360.000000	86.895	-168.7961
365.000000	86.838	-168.3801
370.000000	86.781	-168.0885
375.000000	86.734	-167.8454
382.000000	86.652	-167.2900
387.000000	86.607	-166.8405
395.000000	86.533	-166.2980
400.000000	86.475	-165.8960
406.000000	86.412	-165.3456
412.000000	86.361	-164.9572
418.000000	86.305	-164.4420
425.000000	86.240	-163.8634
431.000000	86.178	-163.4104
437.000000	86.119	-162.8924
444.000000	86.063	-162.2610
450.000000	85.995	-161.8092
455.000000	85.966	-161.3996
462.000000	85.914	-160.6757
468.000000	85.845	-160.1427
475.000000	85.789	-159.6085
482.000000	85.729	-158.9892
487.000000	85.704	-158.4628
494.000000	85.649	-157.9102
500.000000	85.588	-157.2810
508.000000	85.534	-156.6075
515.000000	85.468	-155.9255
522.000000	85.438	-155.2706
530.000000	85.378	-154.5419
538.000000	85.331	-153.7583
545.000000	85.270	-153.0787
552.000000	85.231	-152.3973
560.000000	85.171	-151.5943
570.000000	85.109	-150.6480
580.000000	85.047	-149.6404
590.000000	84.995	-148.6501
600.000000	84.935	-147.5846
608.000000	84.886	-146.7619
615.000000	84.847	-146.1027
622.000000	84.809	-145.3171
630.000000	84.766	-144.4232
640.000000	84.720	-143.5000
650.000000	84.683	-142.3941
660.000000	84.631	-141.2386
670.000000	84.591	-140.1200
680.000000	84.549	-139.0422
690.000000	84.514	-137.9455
700.000000	84.478	-136.7824
710.000000	84.461	-135.7081
720.000000	84.423	-134.6262
730.000000	84.397	-133.4187
740.000000	84.381	-132.3160
750.000000	84.358	-131.2743
762.000000	84.339	-129.7177
775.000000	84.332	-128.3356
788.000000	84.322	-126.8349
800.000000	84.317	-125.4065
812.000000	84.320	-123.9912
825.000000	84.332	-122.5485
838.000000	84.343	-121.0132
850.000000	84.370	-119.6307
862.000000	84.389	-118.2315
875.000000	84.426	-116.8257
885.000000	84.450	-115.6571
900.000000	84.501	-113.9906
912.000000	84.545	-112.6952
925.000000	84.602	-111.2844
938.000000	84.669	-109.8924
950.000000	84.728	-108.6359
962.000000	84.789	-107.3749
975.000000	84.865	-106.1830
988.000000	84.933	-104.9575
1000.000000	85.006	-103.9456
1015.000000	85.103	-102.4678
1030.000000	85.207	-101.1600
1044.000000	85.301	-99.9860
1060.000000	85.402	-98.6346
1075.000000	85.502	-97.5735
1090.000000	85.589	-96.3845
1106.000000	85.700	-95.2651
1120.000000	85.790	-94.2539
1138.000000	85.890	-93.0317
1150.000000	85.956	-92.2173
1172.000000	86.080	-90.7591
1180.000000	86.131	-90.2473
1206.000000	86.258	-88.5748
1220.000000	86.317	-87.6633
1241.000000	86.423	-86.2663
1250.000000	86.466	-85.6435
1265.000000	86.534	-84.6467
1280.000000	86.604	-83.6115
1315.000000	86.789	-81.1180
1320.000000	86.819	-80.6965
1340.000000	86.940	-79.1799
1360.000000	87.068	-77.6188
1380.000000	87.225	-76.0772
1400.000000	87.407	-74.5788
1430.000000	87.710	-72.6577
1450.000000	87.943	-71.4961
1475.000000	88.224	-70.3849
1500.000000	88.504	-69.6625
1525.000000	88.751	-69.1148
1550.000000	88.967	-68.7959
1575.000000	89.144	-68.5337
1600.000000	89.293	-68.2202
1625.000000	89.412	-67.8781
1650.000000	89.513	-67.5034
1675.000000	89.612	-67.0011
1700.000000	89.698	-66.4505
1725.000000	89.773	-65.8478
1750.000000	89.862	-65.1971
1775.000000	89.948	-64.4923
1800.000000	90.039	-63.7398
1825.000000	90.121	-63.0016
1850.000000	90.209	-62.2496
1875.000000	90.309	-61.4990
1900.000000	90.401	-60.7079
1925.000000	90.494	-59.9529
1950.000000	90.595	-59.1946
1975.000000	90.701	-58.4474
2000.000000	90.791	-57.7078
2030.000000	90.930	-56.8402
2060.000000	91.058	-56.0114
2090.000000	91.195	-55.2062
2120.000000	91.330	-54.4285
2140.000000	91.428	-53.9573
2180.000000	91.614	-53.0038
2200.000000	91.696	-52.5700
2240.000000	91.894	-51.7062
2270.000000	92.032	-51.1740
2300.000000	92.173	-50.6281
2330.000000	92.312	-50.1275
2360.000000	92.449	-49.7194
2400.000000	92.632	-49.2035
2430.000000	92.763	-48.8458
2470.000000	92.940	-48.5123
2500.000000	93.070	-48.3100
2540.000000	93.226	-48.0962
2580.000000	93.378	-47.8863
2620.000000	93.524	-47.8015
2650.000000	93.622	-47.8019
2690.000000	93.746	-47.8413
2720.000000	93.834	-47.8463
2760.000000	93.939	-47.9780
2800.000000	94.023	-48.1084
2850.000000	94.117	-48.3484
2900.000000	94.189	-48.5865
2950.000000	94.238	-48.7996
3000.000000	94.269	-49.0712
3040.000000	94.271	-49.2479
3070.000000	94.273	-49.3154
3110.000000	94.255	-49.4164
3150.000000	94.235	-49.4835
3200.000000	94.190	-49.4838
3250.000000	94.130	-49.4113
3300.000000	94.071	-49.2317
3350.000000	93.994	-48.9873
3400.000000	93.915	-48.5809
3450.000000	93.828	-48.1818
3500.000000	93.742	-47.6083
3550.000000	93.653	-46.9727
3600.000000	93.559	-46.2995
3650.000000	93.471	-45.4847
3700.000000	93.389	-44.6008
3750.000000	93.306	-43.6843
3820.000000	93.203	-42.2802
3870.000000	93.135	-41.1351
3950.000000	93.041	-39.2634
4000.000000	92.999	-37.9127
4060.000000	92.944	-36.5378
4120.000000	92.896	-34.8847
4180.000000	92.875	-33.2317
4250.000000	92.861	-31.3660
4310.000000	92.859	-29.6727
4370.000000	92.872	-27.9859
4440.000000	92.902	-25.9485
4500.000000	92.948	-24.2322
4550.000000	92.998	-22.8147
4620.000000	93.087	-20.8406
4680.000000	93.165	-19.1541
4750.000000	93.290	-17.2461
4820.000000	93.429	-15.4058
4870.000000	93.539	-14.1565
4940.000000	93.709	-12.4498
5000.000000	93.891	-11.0762
5080.000000	94.118	-9.3505
5150.000000	94.344	-8.0070
5220.000000	94.585	-6.7539
5300.000000	94.882	-5.6444
5380.000000	95.191	-4.7649
5450.000000	95.470	-4.2388
5520.000000	95.744	-3.9999
5600.000000	96.067	-3.9975
5700.000000	96.443	-4.5122
5800.000000	96.778	-5.7014
5900.000000	97.057	-7.3613
6000.000000	97.244	-9.4976
6080.000000	97.315	-11.4509
6150.000000	97.315	-13.1977
6220.000000	97.260	-14.8963
6300.000000	97.132	-16.7286
6400.000000	96.874	-18.7268
6500.000000	96.556	-20.1320
6600.000000	96.187	-21.0680
6700.000000	95.782	-21.4607
6800.000000	95.381	-21.2265
6900.000000	94.975	-20.4942
7000.000000	94.612	-19.3071
7100.000000	94.277	-17.7658
7200.000000	93.985	-15.9220
7300.000000	93.746	-13.9658
7400.000000	93.534	-11.8046
7500.000000	93.384	-9.5393
7620.000000	93.268	-6.7866
7750.000000	93.213	-3.6689
7880.000000	93.265	-0.6800
8000.000000	93.399	1.9567
8120.000000	93.612	4.2896
8250.000000	93.946	6.3302
8380.000000	94.376	7.6873
8500.000000	94.871	8.1243
8620.000000	95.429	7.4968
8750.000000	96.061	5.1447
8850.000000	96.512	1.8964
9000.000000	96.989	-5.4579
9120.000000	97.036	-12.9987
9250.000000	96.620	-21.6468
9380.000000	95.772	-29.1566
9500.000000	94.712	-34.2686
9620.000000	93.550	-37.5073
9750.000000	92.247	-39.0003
9880.000000	90.984	-38.9996
10000.000000	89.876	-37.6707
10150.000000	88.613	-34.9620
10300.000000	87.491	-31.0977
10440.000000	86.558	-27.0391
10600.000000	85.630	-21.7483
10750.000000	84.877	-16.4436
10900.000000	84.231	-11.0378
11060.000000	83.675	-4.8651
11200.000000	83.222	0.4794
11380.000000	82.800	7.2761
11500.000000	82.573	12.1458
11720.000000	82.299	20.7496
11800.000000	82.287	23.9305
12060.000000	82.204	34.2747
12200.000000	82.351	39.9284
12410.000000	82.694	48.4147
12500.000000	82.913	51.7353
12650.000000	83.441	57.1694
12800.000000	84.088	62.3177
13150.000000	86.330	70.5544
13200.000000	86.728	71.1653
13400.000000	88.555	71.6296
13600.000000	90.763	66.9149
13800.000000	93.036	52.1662
14000.000000	93.616	25.1021
14300.000000	89.920	-3.9430
14500.000000	87.097	-9.3095
14750.000000	84.120	-8.8607
15000.000000	81.747	-4.9426
15250.000000	79.855	1.2423
15500.000000	78.273	8.0458
15750.000000	77.070	15.1797
16000.000000	76.031	23.7198
16250.000000	75.202	30.8395
16500.000000	74.753	38.4749
16750.000000	74.522	45.1570
17000.000000	74.136	51.2585
17250.000000	74.211	57.4585
17500.000000	74.379	60.8467
17750.000000	74.433	63.2720
18000.000000	74.370	64.0217
18250.000000	74.124	62.6403
18500.000000	73.232	60.6101
18750.000000	71.915	61.2227
19000.000000	70.623	61.7191
19250.000000	69.237	68.4288
19500.000000	67.846	75.0255
19750.000000	66.551	80.1564
