* Measurement data measured by REW V5.20 Beta 60
* Source: Headset (USB-C to 3.5mm Headphone Jack Adapter), MICROPHONE (Master Volume), R, volume: 0.000
* Format: 256k Log Swept Sine, 1 sweep at -12.0 dBFS with no timing reference
* Dated: Sep 19, 2020 4:13:16 PM
* REW Settings:
*  C-weighting compensation: Off
*  Target level: 75.0 dB
* Note: ; 
* Measurement: 1More Triple Driver R
* Smoothing: None
* Frequency Step: 1/48 octave
* Start Frequency: 20.000 Hz
*
* Freq(Hz)	SPL(dB)	Phase(degrees)
20.000000	95.720238	-153.5348
20.299999	95.769653	-154.0059
20.600000	95.823212	-154.4883
20.900000	95.876099	-155.0041
21.200001	95.926247	-155.5754
21.400000	95.953278	-155.9676
21.799999	95.991249	-156.7237
22.000000	96.004662	-157.0698
22.400000	96.031181	-157.6929
22.700001	96.053497	-158.0831
23.000000	96.082779	-158.4448
23.299999	96.120331	-158.8290
23.600000	96.159943	-159.2474
24.000000	96.207245	-159.8607
24.299999	96.235970	-160.3431
24.700001	96.265221	-160.9626
25.000000	96.284134	-161.3919
25.400000	96.313652	-161.9422
25.799999	96.346069	-162.4912
26.200001	96.377602	-163.0867
26.500000	96.396423	-163.5599
26.900000	96.409515	-164.1694
27.200001	96.413345	-164.5832
27.600000	96.418213	-165.0538
28.000000	96.428596	-165.4514
28.500000	96.457153	-165.9487
29.000000	96.493027	-166.5087
29.500000	96.524673	-167.1403
30.000000	96.541855	-167.7588
30.400000	96.550781	-168.2139
30.700001	96.556671	-168.5199
31.100000	96.566795	-168.9065
31.500000	96.580025	-169.2977
32.000000	96.595306	-169.7916
32.500000	96.608856	-170.2951
33.000000	96.619255	-170.7885
33.500000	96.625763	-171.2952
34.000000	96.623573	-171.8017
34.500000	96.616867	-172.2765
35.000000	96.608154	-172.6669
35.500000	96.609810	-173.0026
36.000000	96.624115	-173.3635
36.500000	96.641220	-173.8290
37.000000	96.647636	-174.3577
37.500000	96.641991	-174.8687
38.200001	96.625900	-175.4466
38.700001	96.621399	-175.7896
39.500000	96.634193	-176.3322
40.000000	96.646172	-176.7037
40.599998	96.656044	-177.2008
41.200001	96.658394	-177.7134
41.799999	96.651878	-178.2091
42.500000	96.633400	-178.7062
43.099998	96.620277	-179.0587
43.700001	96.614754	-179.4095
44.400002	96.607155	-179.8555
45.000000	96.599327	179.7793
45.500000	96.598953	179.4666
46.200001	96.596367	178.9450
46.799999	96.576500	178.4830
47.500000	96.552231	178.0883
48.200001	96.548843	177.6842
48.700001	96.540565	177.2829
49.400002	96.498497	176.8308
50.000000	96.474930	176.7015
50.799999	96.512115	176.3042
51.500000	96.513634	175.5127
52.200001	96.441040	174.8880
53.000000	96.375648	174.6825
53.799999	96.361687	174.3816
54.500000	96.329391	174.0216
55.200001	96.302826	173.8462
56.000000	96.314850	173.5681
57.000000	96.303986	172.8696
58.000000	96.261490	172.4142
59.000000	96.247910	172.0122
60.000000	96.229599	171.5248
60.799999	96.202049	171.1495
61.500000	96.175758	170.8582
62.200001	96.150284	170.5905
63.000000	96.121796	170.2865
64.000000	96.085022	169.8990
65.000000	96.048615	169.4871
66.000000	96.002609	169.1087
67.000000	95.975578	168.7589
68.000000	95.935150	168.2960
69.000000	95.902985	168.0766
70.000000	95.907524	167.6238
71.000000	95.855331	167.0474
72.000000	95.805450	166.7948
73.000000	95.766937	166.4646
74.000000	95.721436	166.2580
75.000000	95.698929	166.0015
76.199997	95.651138	165.6259
77.500000	95.611191	165.3059
78.800003	95.562149	164.8626
80.000000	95.510406	164.5556
81.199997	95.467590	164.2321
82.500000	95.414909	163.8669
83.800003	95.368393	163.5675
85.000000	95.331726	163.2293
86.199997	95.286957	162.9057
87.500000	95.231384	162.5775
88.500000	95.192612	162.4148
90.000000	95.139526	162.1313
91.199997	95.103294	161.8328
92.500000	95.029182	161.4935
93.800003	94.974419	161.3069
95.000000	94.930748	161.0353
96.199997	94.874756	160.7147
97.500000	94.817123	160.5614
98.800003	94.779282	160.2866
100.000000	94.724731	159.9908
101.500000	94.652283	159.8289
103.000000	94.610504	159.5023
104.400002	94.566986	159.1914
106.000000	94.481415	158.6482
107.500000	94.421814	158.6835
109.000000	94.380791	158.4981
110.599998	94.319740	158.3900
112.000000	94.270210	158.2740
113.800003	94.184242	158.0850
115.000000	94.144684	157.9092
117.199997	94.050682	157.5081
118.000000	94.012672	157.4167
120.599998	93.923134	157.2153
122.000000	93.873840	157.0570
124.099998	93.777466	156.7792
125.000000	93.742615	156.6601
126.500000	93.707764	156.5521
128.000000	93.650734	156.0168
131.500000	93.498947	156.1081
132.000000	93.478943	156.0470
134.000000	93.401634	156.1669
136.000000	93.320839	155.8703
138.000000	93.236549	155.6307
140.000000	93.162399	155.6382
143.000000	93.062988	155.3486
145.000000	92.990730	155.3130
147.500000	92.904289	155.1553
150.000000	92.829910	155.1303
152.500000	92.720612	154.9537
155.000000	92.648987	154.8506
157.500000	92.572159	154.7251
160.000000	92.550507	154.2955
162.500000	92.429672	154.5941
165.000000	92.328293	154.7337
167.500000	92.257301	154.6977
170.000000	92.201942	154.5164
172.500000	92.090630	154.6477
175.000000	91.997139	154.7271
177.500000	91.924194	154.4117
180.000000	91.791382	154.6317
182.500000	91.776512	154.6421
185.000000	91.632301	154.7831
187.500000	91.565628	154.6450
190.000000	91.475319	154.7408
192.500000	91.384529	154.7836
195.000000	91.299362	154.8764
197.500000	91.211311	154.8901
200.000000	91.130333	155.0135
203.000000	90.992851	155.2292
206.000000	90.939560	155.0082
209.000000	90.844345	155.1838
212.000000	90.723473	155.2259
214.000000	90.721527	155.2805
218.000000	90.589249	155.4626
220.000000	90.549248	155.5820
224.000000	90.460258	155.8476
227.000000	90.366508	155.9781
230.000000	90.276505	156.0208
233.000000	90.208458	156.1596
236.000000	90.136261	156.2637
240.000000	90.030449	156.6012
243.000000	89.945786	156.6675
247.000000	89.840698	156.9244
250.000000	89.769684	157.0950
254.000000	89.661377	157.3969
258.000000	89.562408	157.6321
262.000000	89.465881	157.8481
265.000000	89.396523	158.0731
269.000000	89.292557	158.3569
272.000000	89.215424	158.5434
276.000000	89.125084	158.8620
280.000000	89.023315	159.1298
285.000000	88.912399	159.4421
290.000000	88.806267	159.8979
295.000000	88.694725	160.2403
300.000000	88.583443	160.6774
304.000000	88.495354	160.9832
307.000000	88.433762	161.2328
311.000000	88.331017	161.6213
315.000000	88.256989	161.9367
320.000000	88.133331	162.3468
325.000000	88.047440	162.8471
330.000000	87.928932	163.2300
335.000000	87.862350	163.7003
340.000000	87.735382	164.1499
345.000000	87.666641	164.9219
350.000000	87.555740	165.1087
355.000000	87.530586	166.0500
360.000000	87.303528	166.1201
365.000000	87.303726	166.2950
370.000000	87.157433	167.4410
375.000000	87.173546	167.7050
382.000000	86.943359	168.1499
387.000000	86.896622	169.0717
395.000000	86.774712	170.1828
400.000000	86.733459	169.5880
406.000000	86.750290	170.5286
412.000000	86.506508	171.3635
418.000000	86.421135	172.1835
425.000000	86.317902	172.6543
431.000000	86.231544	173.3194
437.000000	86.140778	174.3151
444.000000	85.995193	174.7673
450.000000	85.955414	175.0377
455.000000	85.917999	176.0440
462.000000	85.797455	176.5302
468.000000	85.757355	177.3336
475.000000	85.657249	177.8647
482.000000	85.552902	178.7509
487.000000	85.506203	179.0440
494.000000	85.395905	179.8304
500.000000	85.356796	-179.3585
508.000000	85.239944	-178.4074
515.000000	85.177490	-177.7868
522.000000	85.096008	-176.8757
530.000000	84.997452	-176.3114
538.000000	84.884880	-175.0907
545.000000	84.853447	-174.3222
552.000000	84.770233	-173.6111
560.000000	84.655487	-172.7937
570.000000	84.617073	-171.5390
580.000000	84.476845	-170.1181
590.000000	84.414688	-168.9390
600.000000	84.337082	-167.8129
608.000000	84.252083	-166.8538
615.000000	84.193390	-165.9364
622.000000	84.140610	-165.2311
630.000000	84.078415	-164.1055
640.000000	84.024948	-163.0280
650.000000	83.938614	-161.8275
660.000000	83.879898	-160.4250
670.000000	83.820518	-159.2740
680.000000	83.745804	-158.1795
690.000000	83.702759	-156.8415
700.000000	83.628357	-155.5473
710.000000	83.579163	-154.3021
720.000000	83.524879	-153.1387
730.000000	83.482697	-151.7901
740.000000	83.407600	-150.9376
750.000000	83.389069	-149.3377
762.000000	83.318474	-147.8427
775.000000	83.289017	-146.0522
788.000000	83.226570	-144.5300
800.000000	83.202225	-143.0149
812.000000	83.145180	-141.4166
825.000000	83.142059	-139.7322
838.000000	83.092171	-138.1265
850.000000	83.083168	-136.4945
862.000000	83.085449	-135.1111
875.000000	83.074715	-133.5000
885.000000	83.065605	-132.1667
900.000000	83.060997	-130.4156
912.000000	83.076370	-128.7705
925.000000	83.100410	-127.0717
938.000000	83.132454	-125.6451
950.000000	83.153954	-124.2308
962.000000	83.176987	-122.7674
975.000000	83.186859	-121.2386
988.000000	83.245979	-119.7075
1000.000000	83.337486	-118.1976
1015.000000	83.311188	-116.7624
1030.000000	83.326767	-115.1170
1044.000000	83.340561	-113.6325
1060.000000	83.399185	-111.6777
1075.000000	83.474411	-110.0707
1090.000000	83.564697	-108.3459
1106.000000	83.679131	-106.9117
1120.000000	83.757721	-105.3510
1138.000000	83.894745	-103.8896
1150.000000	83.934608	-102.7975
1172.000000	84.109009	-100.9002
1180.000000	84.157593	-100.2996
1206.000000	84.329102	-98.1875
1220.000000	84.427963	-97.0827
1241.000000	84.544182	-95.5603
1250.000000	84.608078	-94.9031
1265.000000	84.706459	-93.8160
1280.000000	84.803085	-92.9188
1315.000000	84.986641	-90.7560
1320.000000	85.054276	-90.0085
1340.000000	85.170860	-88.7877
1360.000000	85.280251	-87.5280
1380.000000	85.407227	-86.1500
1400.000000	85.515373	-84.8642
1430.000000	85.691483	-83.0080
1450.000000	85.813782	-81.7973
1475.000000	85.955658	-80.3081
1500.000000	86.105789	-78.8490
1525.000000	86.254684	-77.0612
1550.000000	86.407471	-75.7352
1575.000000	86.556534	-74.2928
1600.000000	86.719780	-72.7994
1625.000000	86.879288	-71.3908
1650.000000	87.038300	-69.9909
1675.000000	87.213692	-68.7132
1700.000000	87.382599	-67.3149
1725.000000	87.553154	-66.0380
1750.000000	87.732468	-64.8362
1775.000000	87.913666	-63.6511
1800.000000	88.098145	-62.5309
1825.000000	88.285156	-61.4546
1850.000000	88.473160	-60.3313
1875.000000	88.653030	-59.5861
1900.000000	88.846046	-58.5001
1925.000000	89.036331	-57.6971
1950.000000	89.229851	-56.9726
1975.000000	89.392792	-56.2339
2000.000000	89.518204	-55.8070
2030.000000	89.816643	-54.9311
2060.000000	90.022896	-54.2342
2090.000000	90.229462	-53.6975
2120.000000	90.445213	-53.3934
2140.000000	90.566101	-53.1726
2180.000000	90.808472	-52.8527
2200.000000	90.920410	-52.7969
2240.000000	91.131500	-52.8972
2270.000000	91.249176	-53.2728
2300.000000	91.358002	-53.8926
2330.000000	91.441017	-54.5805
2360.000000	91.521591	-55.3492
2400.000000	91.573151	-56.0267
2430.000000	91.627220	-56.2625
2470.000000	91.619339	-56.5485
2500.000000	91.607193	-56.6938
2540.000000	91.557213	-56.6762
2580.000000	91.500443	-56.5493
2620.000000	91.420807	-56.2702
2650.000000	91.341743	-56.0578
2690.000000	91.232857	-55.5309
2720.000000	91.169540	-55.0480
2760.000000	91.045845	-54.2157
2800.000000	90.894775	-53.4151
2850.000000	90.800171	-51.8902
2900.000000	90.703979	-50.4942
2950.000000	90.628380	-48.9249
3000.000000	90.595497	-46.9692
3040.000000	90.568695	-46.1189
3070.000000	90.559372	-45.3623
3110.000000	90.544563	-44.2812
3150.000000	90.523308	-43.2733
3200.000000	90.485741	-41.9421
3250.000000	90.471123	-40.6592
3300.000000	90.441528	-39.2755
3350.000000	90.428200	-37.9004
3400.000000	90.417183	-36.4632
3450.000000	90.439095	-35.0353
3500.000000	90.496094	-33.5983
3550.000000	90.569740	-32.2249
3600.000000	90.664062	-30.9413
3650.000000	90.772583	-29.7636
3700.000000	90.888718	-28.6910
3750.000000	91.017906	-27.7565
3820.000000	91.217094	-26.7133
3870.000000	91.358337	-26.1668
3950.000000	91.584793	-25.7477
4000.000000	91.697220	-25.9366
4060.000000	91.890060	-26.0284
4120.000000	92.025406	-26.7260
4180.000000	92.115997	-27.7430
4250.000000	92.163002	-29.0642
4310.000000	92.155014	-30.2557
4370.000000	92.153450	-31.7110
4440.000000	92.066566	-33.9639
4500.000000	91.877800	-36.0043
4550.000000	91.649567	-37.5310
4620.000000	91.249146	-39.3302
4680.000000	90.846718	-40.4326
4750.000000	90.336174	-41.1683
4820.000000	89.808708	-41.2901
4870.000000	89.443832	-41.0329
4940.000000	88.958725	-40.3110
5000.000000	88.578941	-39.4330
5080.000000	88.170776	-37.5569
5150.000000	87.887405	-35.9660
5220.000000	87.690460	-34.4591
5300.000000	87.603119	-33.1765
5380.000000	87.620209	-33.0157
5450.000000	87.638680	-34.3503
5520.000000	87.469124	-37.2183
5600.000000	86.900230	-41.2966
5700.000000	85.704224	-45.1015
5800.000000	84.195259	-46.3646
5900.000000	82.590111	-44.2448
6000.000000	81.193085	-39.4984
6080.000000	80.298141	-34.6056
6150.000000	79.668365	-30.1123
6220.000000	79.149109	-25.5950
6300.000000	78.712341	-20.3100
6400.000000	78.268654	-14.2447
6500.000000	77.920898	-8.4441
6600.000000	77.701050	-2.8831
6700.000000	77.537567	2.3044
6800.000000	77.463890	7.2306
6900.000000	77.460175	12.0513
7000.000000	77.553909	16.6199
7100.000000	77.752441	20.8709
7200.000000	78.039627	24.9576
7300.000000	78.441353	28.4306
7400.000000	78.968948	31.5165
7500.000000	79.612175	33.9667
7620.000000	80.549484	35.4507
7750.000000	81.722549	34.8155
7880.000000	83.001869	31.1657
8000.000000	84.159988	23.6278
8120.000000	84.874062	12.1174
8250.000000	84.773766	-2.8738
8380.000000	83.671036	-15.8632
8500.000000	82.225708	-23.6679
8620.000000	80.736557	-27.8525
8750.000000	79.211052	-29.5873
8850.000000	78.187401	-29.3889
9000.000000	76.837662	-27.7695
9120.000000	75.961899	-25.4516
9250.000000	75.157234	-22.5040
9380.000000	74.486282	-19.2331
9500.000000	73.971527	-15.9195
9620.000000	73.590973	-12.6306
9750.000000	73.210762	-8.3496
9880.000000	72.963379	-4.2773
10000.000000	72.800102	-0.2164
10150.000000	72.723846	5.1588
10300.000000	72.732559	10.2677
10440.000000	72.892723	14.8977
10600.000000	73.276970	20.3598
10750.000000	73.618721	24.6892
10900.000000	74.042320	28.6003
11060.000000	74.587723	32.2255
11200.000000	75.095985	34.5101
11380.000000	75.757652	36.9917
11500.000000	76.157501	37.7912
11720.000000	76.761620	38.6843
11800.000000	76.928116	39.0021
12060.000000	77.369667	39.8124
12200.000000	77.580933	40.1376
12410.000000	77.886826	40.4077
12500.000000	77.951904	40.4673
12650.000000	77.987007	40.6759
12800.000000	77.914116	41.5490
13150.000000	77.664474	46.4616
13200.000000	77.650063	47.6375
13400.000000	77.659500	52.2757
13600.000000	77.835670	57.3592
13800.000000	78.199234	62.4887
14000.000000	78.685051	67.3071
14300.000000	79.664093	74.2031
14500.000000	80.516800	78.0488
14750.000000	81.939278	81.2457
15000.000000	83.690231	80.6491
15250.000000	85.462357	73.6660
15500.000000	86.468895	59.8066
15750.000000	86.045006	44.1328
16000.000000	84.555817	33.7958
16250.000000	82.929794	29.6533
16500.000000	81.538727	29.3331
16750.000000	80.519928	31.0055
17000.000000	79.826294	33.2944
17250.000000	79.456367	35.7355
17500.000000	79.351891	37.0502
17750.000000	79.295761	36.1675
18000.000000	79.738937	30.7414
18250.000000	80.292328	22.2708
18500.000000	80.949707	10.5895
18750.000000	81.478836	-1.9313
19000.000000	81.797577	-16.8452
19250.000000	81.821228	-34.6176
19500.000000	81.313515	-55.5089
19750.000000	80.257736	-79.7594
