* Measurement data measured by REW V5.20 Beta 47
* Source: Headset (USB-C to 3.5mm Headphone Jack Adapter), MICROPHONE (Master Volume), L, volume: 0.000
* Format: 256k Log Swept Sine, 1 sweep at -3.0 dBFS with no timing reference
* Dated: May 24, 2020 5:48:59 PM
* REW Settings:
*  C-weighting compensation: Off
*  Target level: 75.0 dB
* Note: ; 
* Measurement: 64Audio U12t R
* Smoothing: None
* Frequency Step: 1/48 octave
* Start Frequency: 20.000 Hz
*
* Freq(Hz)	SPL(dB)	Phase(degrees)
20.0000	91.7990	12.18
20.3000	91.8368	11.42
20.6000	91.8657	10.68
20.9000	91.8842	10.00
21.2000	91.8999	9.38
21.4000	91.9104	9.01
21.8000	91.9362	8.35
22.0000	91.9542	8.03
22.4000	92.0028	7.34
22.7000	92.0404	6.78
23.0000	92.0731	6.16
23.3000	92.0995	5.50
23.6000	92.1170	4.84
24.0000	92.1286	3.99
24.3000	92.1348	3.39
24.7000	92.1441	2.60
25.0000	92.1526	2.00
25.4000	92.1656	1.16
25.8000	92.1711	0.29
26.2000	92.1673	-0.59
26.5000	92.1601	-1.22
26.9000	92.1470	-2.00
27.2000	92.1396	-2.55
27.6000	92.1358	-3.27
28.0000	92.1319	-4.01
28.5000	92.1186	-4.96
29.0000	92.0912	-5.80
29.5000	92.0670	-6.50
30.0000	92.0586	-7.11
30.4000	92.0623	-7.65
30.7000	92.0627	-8.09
31.1000	92.0535	-8.69
31.5000	92.0356	-9.27
32.0000	92.0129	-9.89
32.5000	92.0034	-10.50
33.0000	91.9938	-11.21
33.5000	91.9667	-11.97
34.0000	91.9258	-12.63
34.5000	91.8988	-13.21
35.0000	91.8867	-13.84
35.5000	91.8704	-14.57
36.0000	91.8357	-15.29
36.5000	91.7976	-15.88
37.0000	91.7789	-16.41
37.5000	91.7750	-17.06
38.2000	91.7380	-18.09
38.7000	91.6863	-18.67
39.5000	91.6503	-19.27
40.0000	91.6594	-19.79
40.6000	91.6413	-20.68
41.2000	91.5702	-21.42
41.8000	91.5126	-21.76
42.5000	91.5238	-22.24
43.1000	91.5280	-23.17
43.7000	91.4510	-24.13
44.4000	91.3349	-24.60
45.0000	91.3223	-24.77
45.5000	91.3434	-25.31
46.2000	91.2978	-26.40
46.8000	91.2068	-26.93
47.5000	91.1739	-27.24
48.2000	91.1629	-28.01
48.7000	91.1079	-28.60
49.4000	91.0321	-28.92
50.0000	91.0373	-29.23
50.8000	91.0184	-30.37
51.5000	90.8980	-31.05
52.2000	90.8320	-31.08
53.0000	90.8746	-31.54
53.8000	90.8468	-32.78
54.5000	90.7191	-33.54
55.2000	90.6168	-33.59
56.0000	90.6384	-33.70
57.0000	90.6200	-35.14
58.0000	90.4277	-35.65
59.0000	90.4634	-35.76
60.0000	90.4098	-37.33
60.8000	90.2426	-37.72
61.5000	90.2047	-37.57
62.2000	90.2308	-37.95
63.0000	90.2005	-38.84
64.0000	90.0771	-39.56
65.0000	90.0227	-39.79
66.0000	90.0087	-40.68
67.0000	89.8693	-41.53
68.0000	89.7872	-41.60
69.0000	89.7749	-42.24
70.0000	89.6702	-42.92
71.0000	89.6017	-43.05
72.0000	89.6000	-43.51
73.0000	89.5554	-44.31
74.0000	89.4707	-45.04
75.0000	89.3534	-45.53
76.2000	89.2868	-45.66
77.5000	89.2464	-46.49
78.8000	89.1616	-47.15
80.0000	89.0551	-47.85
81.2000	88.9676	-47.97
82.5000	88.9197	-48.42
83.8000	88.8963	-48.88
85.0000	88.8310	-49.83
86.2000	88.7079	-50.30
87.5000	88.6235	-50.67
88.5000	88.5660	-51.04
90.0000	88.4600	-51.46
91.2000	88.4241	-51.78
92.5000	88.3649	-52.39
93.8000	88.2831	-52.93
95.0000	88.2171	-53.22
96.2000	88.1781	-53.78
97.5000	88.0713	-54.28
98.8000	88.0125	-54.56
100.0000	87.9518	-55.11
101.5000	87.8257	-55.51
103.0000	87.7806	-55.84
104.4000	87.6830	-56.47
106.0000	87.6054	-56.69
107.5000	87.5741	-57.29
109.0000	87.4756	-57.75
110.6000	87.4353	-58.15
112.0000	87.3710	-58.60
113.8000	87.2605	-58.99
115.0000	87.2345	-59.28
117.2000	87.1250	-60.00
118.0000	87.0817	-60.21
120.6000	86.9771	-60.65
122.0000	86.9147	-60.95
124.1000	86.8400	-61.31
125.0000	86.7637	-61.62
126.5000	86.7068	-61.66
128.0000	86.6286	-62.32
131.5000	86.4898	-63.10
132.0000	86.4732	-63.30
134.0000	86.3718	-63.84
136.0000	86.2778	-64.04
138.0000	86.2502	-64.42
140.0000	86.1331	-64.92
143.0000	86.0193	-65.52
145.0000	86.0002	-66.06
147.5000	85.9043	-66.57
150.0000	85.8057	-66.83
152.5000	85.7202	-67.19
155.0000	85.6491	-67.55
157.5000	85.6087	-68.22
160.0000	85.5394	-68.36
162.5000	85.4422	-68.92
165.0000	85.4038	-69.52
167.5000	85.3394	-69.77
170.0000	85.2622	-70.14
172.5000	85.1924	-70.53
175.0000	85.1335	-70.97
177.5000	85.0389	-71.42
180.0000	84.9769	-71.58
182.5000	84.9415	-72.05
185.0000	84.8561	-72.44
187.5000	84.7868	-72.73
190.0000	84.7002	-73.29
192.5000	84.6422	-73.44
195.0000	84.5995	-73.70
197.5000	84.5587	-73.99
200.0000	84.4802	-74.48
203.0000	84.4271	-74.85
206.0000	84.3700	-75.48
209.0000	84.3015	-75.77
212.0000	84.2326	-75.99
214.0000	84.2186	-76.34
218.0000	84.1214	-76.70
220.0000	84.1971	-76.97
224.0000	84.0559	-77.67
227.0000	84.0493	-78.00
230.0000	84.0067	-78.47
233.0000	83.9693	-78.88
236.0000	83.9274	-79.21
240.0000	83.8867	-79.86
243.0000	83.8525	-80.16
247.0000	83.8028	-80.62
250.0000	83.7671	-81.02
254.0000	83.7693	-81.53
258.0000	83.7140	-81.93
262.0000	83.6673	-82.47
265.0000	83.6280	-82.81
269.0000	83.6103	-83.21
272.0000	83.5929	-83.86
276.0000	83.6075	-84.10
280.0000	83.5243	-84.83
285.0000	83.5253	-85.39
290.0000	83.5067	-86.01
295.0000	83.5012	-86.65
300.0000	83.4735	-87.21
304.0000	83.4423	-87.61
307.0000	83.4439	-88.13
311.0000	83.4588	-88.85
315.0000	83.4745	-89.02
320.0000	83.4367	-89.95
325.0000	83.4521	-90.47
330.0000	83.4497	-91.50
335.0000	83.5579	-91.76
340.0000	83.4188	-93.09
345.0000	83.4296	-93.52
350.0000	83.4256	-93.98
355.0000	83.4738	-94.45
360.0000	83.4486	-95.04
365.0000	83.5051	-95.88
370.0000	83.5083	-96.61
375.0000	83.5256	-97.41
382.0000	83.5436	-98.43
387.0000	83.5714	-98.91
395.0000	83.5906	-100.28
400.0000	83.6177	-101.26
406.0000	83.6381	-101.61
412.0000	83.7035	-103.12
418.0000	83.6766	-103.86
425.0000	83.7317	-104.85
431.0000	83.7856	-105.45
437.0000	83.8246	-106.76
444.0000	83.8661	-107.76
450.0000	83.9053	-108.86
455.0000	83.9243	-109.63
462.0000	83.9705	-110.86
468.0000	84.0040	-111.99
475.0000	84.0212	-113.14
482.0000	84.0602	-114.39
487.0000	84.0874	-115.24
494.0000	84.1155	-116.52
500.0000	84.1371	-117.48
508.0000	84.1788	-118.80
515.0000	84.2240	-119.88
522.0000	84.2590	-121.57
530.0000	84.2517	-122.30
538.0000	84.2590	-124.27
545.0000	84.3294	-125.23
552.0000	84.3281	-126.36
560.0000	84.2979	-127.76
570.0000	84.3571	-129.31
580.0000	84.3786	-130.87
590.0000	84.3996	-132.42
600.0000	84.3980	-134.07
608.0000	84.4019	-135.31
615.0000	84.3976	-136.40
622.0000	84.3962	-137.50
630.0000	84.4104	-138.65
640.0000	84.4115	-140.13
650.0000	84.3979	-141.60
660.0000	84.3887	-143.04
670.0000	84.3911	-144.46
680.0000	84.3592	-145.71
690.0000	84.3483	-147.02
700.0000	84.3272	-148.22
710.0000	84.3149	-149.41
720.0000	84.2993	-150.54
730.0000	84.2670	-151.73
740.0000	84.2428	-152.77
750.0000	84.2208	-153.86
762.0000	84.1914	-155.00
775.0000	84.1520	-156.26
788.0000	84.1251	-157.46
800.0000	84.1094	-158.51
812.0000	84.0725	-159.38
825.0000	84.0477	-160.45
838.0000	84.0291	-161.38
850.0000	84.0094	-162.20
862.0000	83.9963	-162.91
875.0000	83.9812	-163.77
885.0000	83.9710	-164.32
900.0000	83.9661	-165.15
912.0000	83.9784	-165.78
925.0000	83.9745	-166.44
938.0000	84.0162	-167.04
950.0000	84.0311	-167.66
962.0000	84.0492	-168.09
975.0000	84.0656	-168.66
988.0000	84.1231	-169.15
1000.0000	84.2318	-169.43
1015.0000	84.1903	-170.23
1030.0000	84.2318	-170.85
1044.0000	84.2820	-171.40
1060.0000	84.3468	-172.03
1075.0000	84.4122	-172.59
1090.0000	84.4879	-173.13
1106.0000	84.5764	-173.81
1120.0000	84.6606	-174.40
1138.0000	84.7556	-175.22
1150.0000	84.8356	-175.69
1172.0000	84.9548	-176.64
1180.0000	85.0011	-176.92
1206.0000	85.1532	-178.10
1220.0000	85.2417	-178.64
1241.0000	85.3738	-179.58
1250.0000	85.4214	179.99
1265.0000	85.5142	179.37
1280.0000	85.5960	178.73
1315.0000	85.7993	177.28
1320.0000	85.8280	177.13
1340.0000	85.9325	176.30
1360.0000	86.0449	175.54
1380.0000	86.1573	174.82
1400.0000	86.2673	174.07
1430.0000	86.4209	173.10
1450.0000	86.5320	172.46
1475.0000	86.6667	171.72
1500.0000	86.8033	171.00
1525.0000	86.9394	170.29
1550.0000	87.0826	169.64
1575.0000	87.2382	169.02
1600.0000	87.3877	168.43
1625.0000	87.5451	167.87
1650.0000	87.7061	167.25
1675.0000	87.8751	166.70
1700.0000	88.0505	166.15
1725.0000	88.2291	165.57
1750.0000	88.4150	164.95
1775.0000	88.6018	164.33
1800.0000	88.7924	163.70
1825.0000	88.9897	162.99
1850.0000	89.1903	162.22
1875.0000	89.3877	161.45
1900.0000	89.5963	160.56
1925.0000	89.8003	159.62
1950.0000	90.0003	158.58
1975.0000	90.1782	157.43
2000.0000	90.3058	155.94
2030.0000	90.5990	154.69
2060.0000	90.8098	153.03
2090.0000	91.0018	151.20
2120.0000	91.1673	149.26
2140.0000	91.2612	147.91
2180.0000	91.4063	145.08
2200.0000	91.4596	143.65
2240.0000	91.5127	140.55
2270.0000	91.5005	137.95
2300.0000	91.4622	135.31
2330.0000	91.3930	132.75
2360.0000	91.2820	130.30
2400.0000	91.0968	127.51
2430.0000	90.9370	125.84
2470.0000	90.6830	124.04
2500.0000	90.4615	122.96
2540.0000	90.1631	121.79
2580.0000	89.8420	121.09
2620.0000	89.5284	120.69
2650.0000	89.2911	120.66
2690.0000	89.0066	120.82
2720.0000	88.8276	121.08
2760.0000	88.5809	121.75
2800.0000	88.3754	122.30
2850.0000	88.1539	123.28
2900.0000	87.9431	124.16
2950.0000	87.7749	125.26
3000.0000	87.6239	126.61
3040.0000	87.5564	127.13
3070.0000	87.4576	127.72
3110.0000	87.3837	128.78
3150.0000	87.3451	129.63
3200.0000	87.2843	130.71
3250.0000	87.2198	132.00
3300.0000	87.1754	132.81
3350.0000	87.2068	134.22
3400.0000	87.2426	135.13
3450.0000	87.3117	136.09
3500.0000	87.3684	137.23
3550.0000	87.4332	137.64
3600.0000	87.6038	138.48
3650.0000	87.7279	138.55
3700.0000	87.8281	138.71
3750.0000	87.9695	138.82
3820.0000	88.0959	138.92
3870.0000	88.1062	138.34
3950.0000	88.2079	137.74
4000.0000	88.1661	137.09
4060.0000	88.0946	137.23
4120.0000	88.0391	137.14
4180.0000	87.9750	136.93
4250.0000	87.9419	137.13
4310.0000	87.9703	138.07
4370.0000	88.0064	138.09
4440.0000	88.0081	138.36
4500.0000	88.1365	138.99
4550.0000	88.1155	139.55
4620.0000	88.3586	139.12
4680.0000	88.4181	138.97
4750.0000	88.6054	138.55
4820.0000	88.8287	137.07
4870.0000	89.0523	135.88
4940.0000	89.1167	134.14
5000.0000	89.3008	131.20
5080.0000	89.2011	127.64
5150.0000	88.8473	124.37
5220.0000	88.2845	120.55
5300.0000	87.4962	119.73
5380.0000	86.7620	120.32
5450.0000	86.2829	122.13
5520.0000	85.9793	123.82
5600.0000	85.6027	127.16
5700.0000	85.5007	130.33
5800.0000	85.2693	133.30
5900.0000	85.1989	134.45
6000.0000	85.0574	136.97
6080.0000	84.9411	138.50
6150.0000	84.8712	142.68
6220.0000	85.2190	145.92
6300.0000	85.6129	145.90
6400.0000	86.0123	147.76
6500.0000	86.2190	150.30
6600.0000	86.8202	148.78
6700.0000	87.0795	148.08
6800.0000	87.3122	147.42
6900.0000	87.1440	144.90
7000.0000	87.4076	145.85
7100.0000	87.4116	143.87
7200.0000	87.1669	141.85
7300.0000	87.3243	140.67
7400.0000	86.9772	139.26
7500.0000	86.6820	138.08
7620.0000	86.5874	136.85
7750.0000	86.3079	138.68
7880.0000	85.4557	138.21
8000.0000	85.1101	139.65
8120.0000	85.2298	142.91
8250.0000	84.5667	144.84
8380.0000	84.4218	147.70
8500.0000	84.8578	149.97
8620.0000	84.3966	155.38
8750.0000	84.6106	156.73
8850.0000	85.2313	152.09
9000.0000	85.0098	147.37
9120.0000	84.9398	149.17
9250.0000	84.1623	143.07
9380.0000	82.6140	133.94
9500.0000	81.5294	130.33
9620.0000	80.0216	138.43
9750.0000	78.2012	143.29
9880.0000	76.3939	146.98
10000.0000	75.7177	152.30
10150.0000	75.4807	168.25
10300.0000	75.0688	175.48
10440.0000	74.0980	-173.94
10600.0000	74.5205	-160.83
10750.0000	75.7094	-160.26
10900.0000	76.0113	-159.33
11060.0000	75.0275	-156.51
11200.0000	74.4368	-155.21
11380.0000	74.7492	-156.65
11500.0000	74.0665	-144.44
11720.0000	71.5281	-139.70
11800.0000	72.4427	-142.12
12060.0000	70.9788	-122.41
12200.0000	68.9185	-120.35
12410.0000	68.5303	-109.96
12500.0000	67.7431	-94.07
12650.0000	69.2205	-79.79
12800.0000	69.4607	-70.77
13150.0000	70.9531	-45.68
13200.0000	69.5823	-58.36
13400.0000	72.6400	-42.70
13600.0000	71.8997	-40.22
13800.0000	73.2700	-36.87
14000.0000	76.4295	-49.15
14300.0000	75.4367	-44.58
14500.0000	74.2107	-49.88
14750.0000	72.3654	-74.96
15000.0000	69.9196	-66.06
15250.0000	72.0898	-49.47
15500.0000	69.7889	-54.69
15750.0000	72.6235	-43.00
16000.0000	71.6937	-20.72
16250.0000	75.0782	-29.59
16500.0000	75.7830	-87.16
16750.0000	77.9227	-91.81
17000.0000	73.9099	-119.46
17250.0000	68.7265	-176.81
17500.0000	65.3084	-153.24
17750.0000	59.2231	-150.74
18000.0000	54.7775	-179.36
18250.0000	55.0775	-121.42
18500.0000	57.4420	-118.29
18750.0000	50.7845	-135.08
19000.0000	60.0939	-147.65
19250.0000	59.5380	-176.16
19500.0000	59.8249	176.86
19750.0000	59.2858	-163.45
