* Measurement data measured by REW V5.20 Beta 47
* Source: Microphone (Realtek Audio), MICROPHONE (Master Volume), R, volume: 0.250
* Format: 256k Log Swept Sine, 1 sweep at -12.0 dBFS with no timing reference
* Dated: Aug 15, 2020 3:15:39 AM
* REW Settings:
*  C-weighting compensation: Off
*  Target level: 75.0 dB
* Note: ; 
* Measurement: M15 R
* Smoothing: None
* Frequency Step: 1/48 octave
* Start Frequency: 20.000 Hz
*
* Freq(Hz)	SPL(dB)	Phase(degrees)
20.0000	93.5661	0.67
20.3000	93.5597	-0.02
20.6000	93.5550	-0.70
20.9000	93.5541	-1.33
21.2000	93.5610	-1.96
21.4000	93.5665	-2.40
21.8000	93.5742	-3.31
22.0000	93.5773	-3.76
22.4000	93.5903	-4.58
22.7000	93.5967	-5.14
23.0000	93.6065	-5.63
23.3000	93.6280	-6.07
23.6000	93.6584	-6.50
24.0000	93.7045	-7.11
24.3000	93.7374	-7.58
24.7000	93.7746	-8.21
25.0000	93.7971	-8.67
25.4000	93.8237	-9.23
25.8000	93.8528	-9.78
26.2000	93.8756	-10.40
26.5000	93.8817	-10.89
26.9000	93.8748	-11.52
27.2000	93.8596	-11.95
27.6000	93.8379	-12.43
28.0000	93.8304	-12.85
28.5000	93.8398	-13.49
29.0000	93.8443	-14.28
29.5000	93.8264	-15.12
30.0000	93.8063	-15.76
30.4000	93.8141	-16.20
30.7000	93.8362	-16.57
31.1000	93.8749	-17.20
31.5000	93.9038	-17.98
32.0000	93.9009	-18.98
32.5000	93.8734	-19.70
33.0000	93.8634	-20.13
33.5000	93.9045	-20.45
34.0000	93.9734	-21.01
34.5000	94.0230	-21.87
35.0000	94.0211	-22.83
35.5000	93.9701	-23.57
36.0000	93.9145	-23.97
36.5000	93.8878	-24.19
37.0000	93.8966	-24.53
37.5000	93.8955	-25.08
38.2000	93.8474	-25.94
38.7000	93.7994	-26.36
39.5000	93.7701	-26.97
40.0000	93.7622	-27.55
40.6000	93.7284	-28.36
41.2000	93.6757	-29.04
41.8000	93.6333	-29.61
42.5000	93.6042	-30.26
43.1000	93.5894	-30.83
43.7000	93.5848	-31.45
44.4000	93.5733	-32.32
45.0000	93.5362	-33.06
45.5000	93.4949	-33.55
46.2000	93.4474	-34.05
46.8000	93.4224	-34.44
47.5000	93.4042	-34.91
48.2000	93.3961	-35.49
48.7000	93.3841	-36.02
49.4000	93.3310	-36.82
50.0000	93.2622	-37.34
50.8000	93.1976	-37.81
51.5000	93.1680	-38.37
52.2000	93.1145	-39.05
53.0000	93.0470	-39.58
53.8000	93.0315	-40.18
54.5000	92.9970	-41.06
55.2000	92.8936	-41.77
56.0000	92.7960	-41.90
57.0000	92.8259	-42.18
58.0000	92.8349	-43.36
59.0000	92.7413	-44.46
60.0000	92.6639	-45.09
60.8000	92.6354	-45.77
61.5000	92.5803	-46.45
62.2000	92.5235	-46.84
63.0000	92.5147	-47.28
64.0000	92.4847	-48.25
65.0000	92.3972	-48.91
66.0000	92.3228	-49.33
67.0000	92.2570	-49.65
68.0000	92.2192	-50.12
69.0000	92.1590	-50.99
70.0000	92.0455	-51.74
71.0000	92.0193	-52.34
72.0000	91.9693	-53.53
73.0000	91.9344	-53.70
74.0000	92.1183	-54.84
75.0000	91.9598	-56.91
76.2000	91.7447	-56.08
77.5000	91.7424	-56.44
78.8000	91.6094	-56.87
80.0000	91.4687	-57.77
81.2000	91.3758	-58.70
82.5000	91.3147	-59.28
83.8000	91.3788	-60.65
85.0000	91.3611	-60.10
86.2000	91.2654	-61.25
87.5000	91.2263	-59.13
88.5000	90.7023	-62.87
90.0000	90.5793	-50.05
91.2000	91.5666	-60.46
92.5000	90.5685	-62.63
93.8000	90.7551	-65.88
95.0000	90.5326	-66.18
96.2000	90.6569	-67.41
97.5000	90.5716	-67.12
98.8000	90.5700	-67.29
100.0000	90.4429	-67.68
101.5000	90.3115	-67.86
103.0000	90.2481	-68.80
104.4000	90.2124	-69.67
106.0000	90.1734	-70.76
107.5000	90.0708	-71.02
109.0000	89.9574	-71.74
110.6000	89.9295	-72.60
112.0000	89.7011	-72.87
113.8000	89.8703	-74.15
115.0000	89.6798	-74.83
117.2000	89.6243	-74.48
118.0000	89.6566	-75.01
120.6000	89.4502	-76.30
122.0000	89.4058	-76.79
124.1000	89.2979	-77.52
125.0000	89.2717	-77.70
126.5000	89.2101	-78.16
128.0000	89.1065	-78.83
131.5000	88.9590	-79.99
132.0000	88.9564	-80.15
134.0000	88.8937	-80.87
136.0000	88.8004	-81.38
138.0000	88.6664	-82.29
140.0000	88.5382	-83.03
143.0000	88.4595	-83.92
145.0000	88.3731	-84.30
147.5000	88.2651	-85.34
150.0000	88.1672	-85.91
152.5000	88.0492	-86.61
155.0000	87.9523	-87.17
157.5000	87.8808	-88.08
160.0000	87.8060	-88.68
162.5000	87.7593	-89.53
165.0000	87.6619	-90.16
167.5000	87.5660	-90.98
170.0000	87.4771	-91.50
172.5000	87.4148	-92.07
175.0000	87.3338	-92.62
177.5000	87.2449	-93.31
180.0000	87.0846	-93.87
182.5000	87.0823	-94.40
185.0000	86.9998	-94.61
187.5000	86.9423	-95.47
190.0000	86.8751	-96.15
192.5000	86.7924	-96.74
195.0000	86.7160	-97.31
197.5000	86.6401	-97.97
200.0000	86.5486	-98.75
203.0000	86.4823	-99.33
206.0000	86.4154	-99.85
209.0000	86.3203	-100.39
212.0000	86.1887	-100.99
214.0000	86.1696	-101.58
218.0000	86.0940	-102.10
220.0000	86.0605	-102.69
224.0000	85.9299	-103.25
227.0000	85.8852	-103.79
230.0000	85.8380	-104.27
233.0000	85.7714	-104.90
236.0000	85.7372	-105.59
240.0000	85.6540	-106.23
243.0000	85.5809	-106.71
247.0000	85.4961	-107.41
250.0000	85.4341	-107.92
254.0000	85.3700	-109.14
258.0000	85.3302	-108.95
262.0000	85.2131	-110.40
265.0000	85.1457	-110.67
269.0000	85.0320	-111.08
272.0000	84.9951	-111.51
276.0000	84.9593	-112.06
280.0000	84.9083	-112.83
285.0000	84.7979	-113.58
290.0000	84.7400	-114.13
295.0000	84.6505	-114.90
300.0000	84.5892	-115.66
304.0000	84.5431	-116.28
307.0000	84.5172	-116.49
311.0000	84.4546	-116.98
315.0000	84.3988	-117.68
320.0000	84.3561	-118.37
325.0000	84.3369	-118.86
330.0000	84.2955	-119.44
335.0000	84.2376	-120.31
340.0000	84.1855	-120.80
345.0000	84.1316	-121.48
350.0000	84.1044	-122.28
355.0000	84.0254	-122.81
360.0000	84.0088	-123.10
365.0000	83.9154	-123.63
370.0000	83.8984	-123.99
375.0000	83.8279	-124.14
382.0000	83.7468	-125.18
387.0000	83.6986	-125.00
395.0000	83.6831	-126.23
400.0000	83.6387	-127.12
406.0000	83.6200	-127.69
412.0000	83.5832	-128.13
418.0000	83.5215	-128.70
425.0000	83.4480	-129.16
431.0000	83.5031	-130.01
437.0000	83.4563	-130.43
444.0000	83.4094	-131.00
450.0000	83.3509	-131.51
455.0000	83.3547	-131.98
462.0000	83.2686	-132.35
468.0000	83.5729	-132.42
475.0000	83.2341	-132.72
482.0000	83.2925	-133.35
487.0000	83.2430	-133.05
494.0000	83.3052	-134.54
500.0000	83.3135	-134.80
508.0000	83.3457	-135.44
515.0000	83.1250	-136.56
522.0000	83.0923	-136.94
530.0000	83.1125	-137.66
538.0000	83.0456	-138.07
545.0000	83.0585	-138.32
552.0000	83.0020	-138.80
560.0000	83.0236	-139.32
570.0000	82.9784	-139.98
580.0000	82.9349	-140.39
590.0000	82.9879	-141.28
600.0000	82.9705	-141.94
608.0000	82.9658	-142.07
615.0000	82.8903	-142.99
622.0000	82.8568	-142.89
630.0000	82.8139	-143.60
640.0000	82.7255	-143.51
650.0000	82.8286	-144.31
660.0000	82.8484	-144.40
670.0000	82.8871	-145.20
680.0000	82.7799	-146.10
690.0000	82.8372	-146.27
700.0000	82.7492	-146.67
710.0000	82.7483	-146.84
720.0000	82.7347	-147.04
730.0000	82.7560	-147.72
740.0000	82.7554	-147.89
750.0000	82.7414	-148.34
762.0000	82.6840	-148.20
775.0000	82.7064	-148.87
788.0000	82.7069	-149.05
800.0000	82.7017	-149.29
812.0000	82.7358	-149.61
825.0000	82.7692	-149.95
838.0000	82.7403	-150.02
850.0000	82.7427	-150.34
862.0000	82.7442	-150.32
875.0000	82.7628	-150.61
885.0000	82.7480	-150.47
900.0000	82.8011	-150.73
912.0000	82.7981	-151.13
925.0000	82.8615	-150.87
938.0000	82.8917	-151.28
950.0000	82.9121	-151.09
962.0000	82.9664	-151.03
975.0000	83.0195	-151.35
988.0000	83.1011	-151.65
1000.0000	83.1240	-151.46
1015.0000	83.1955	-151.63
1030.0000	83.2602	-151.63
1044.0000	83.3818	-151.84
1060.0000	83.4608	-152.02
1075.0000	83.5360	-152.31
1090.0000	83.6572	-152.54
1106.0000	83.7535	-152.72
1120.0000	83.8807	-153.00
1138.0000	84.0050	-153.75
1150.0000	84.1284	-154.25
1172.0000	84.2689	-154.64
1180.0000	84.3094	-154.85
1206.0000	84.4630	-155.74
1220.0000	84.5351	-156.14
1241.0000	84.7475	-157.08
1250.0000	84.7975	-157.26
1265.0000	84.8896	-157.87
1280.0000	84.9846	-158.51
1315.0000	85.1858	-160.36
1320.0000	85.2146	-160.32
1340.0000	85.3202	-161.15
1360.0000	85.4685	-161.83
1380.0000	85.5307	-162.75
1400.0000	85.6035	-163.56
1430.0000	85.7246	-164.76
1450.0000	85.7995	-165.64
1475.0000	85.8900	-166.58
1500.0000	85.9556	-167.49
1525.0000	86.0199	-168.28
1550.0000	86.1031	-169.18
1575.0000	86.1506	-169.94
1600.0000	86.2408	-170.80
1625.0000	86.3088	-171.59
1650.0000	86.3464	-172.30
1675.0000	86.4358	-172.99
1700.0000	86.5155	-173.61
1725.0000	86.5942	-174.11
1750.0000	86.6328	-174.79
1775.0000	86.7032	-175.39
1800.0000	86.7456	-176.03
1825.0000	86.8174	-176.51
1850.0000	86.8726	-177.17
1875.0000	86.9745	-177.96
1900.0000	87.0031	-178.48
1925.0000	87.0498	-178.89
1950.0000	87.1242	-179.59
1975.0000	87.1458	179.91
2000.0000	87.1889	179.27
2030.0000	87.2114	178.73
2060.0000	87.2773	177.99
2090.0000	87.3032	177.36
2120.0000	87.3508	176.53
2140.0000	87.3603	176.07
2180.0000	87.4453	175.26
2200.0000	87.4374	174.76
2240.0000	87.4783	173.78
2270.0000	87.4859	173.10
2300.0000	87.4989	172.18
2330.0000	87.5271	171.89
2360.0000	87.4933	171.36
2400.0000	87.4848	170.35
2430.0000	87.4556	169.85
2470.0000	87.4236	169.24
2500.0000	87.4243	168.85
2540.0000	87.3514	168.28
2580.0000	87.3434	167.77
2620.0000	87.2534	167.15
2650.0000	87.2468	166.98
2690.0000	87.1577	166.57
2720.0000	87.1482	166.37
2760.0000	87.0601	166.32
2800.0000	87.0096	166.16
2850.0000	86.9165	165.91
2900.0000	86.8649	165.70
2950.0000	86.8343	165.69
3000.0000	86.7523	165.69
3040.0000	86.7101	165.79
3070.0000	86.6765	165.82
3110.0000	86.6611	165.77
3150.0000	86.6455	166.02
3200.0000	86.6126	166.18
3250.0000	86.5747	166.19
3300.0000	86.5953	166.40
3350.0000	86.5694	166.41
3400.0000	86.5981	166.86
3450.0000	86.6434	166.69
3500.0000	86.6937	166.93
3550.0000	86.7992	167.24
3600.0000	86.8604	167.35
3650.0000	86.9763	167.43
3700.0000	87.0973	167.58
3750.0000	87.2666	167.63
3820.0000	87.4465	167.43
3870.0000	87.6353	167.64
3950.0000	87.9198	166.93
4000.0000	88.1184	166.35
4060.0000	88.3153	165.70
4120.0000	88.5738	164.35
4180.0000	88.7946	162.82
4250.0000	89.0975	160.86
4310.0000	89.3435	159.18
4370.0000	89.5655	156.85
4440.0000	89.8163	154.34
4500.0000	90.0205	151.87
4550.0000	90.2118	149.49
4620.0000	90.4645	145.84
4680.0000	90.7028	141.97
4750.0000	90.8987	136.42
4820.0000	90.9551	129.73
4870.0000	90.8210	124.10
4940.0000	90.2241	115.87
5000.0000	89.3749	110.31
5080.0000	87.8577	105.79
5150.0000	86.4869	105.94
5220.0000	85.4208	109.14
5300.0000	84.6785	114.84
5380.0000	84.3579	119.88
5450.0000	84.3668	123.78
5520.0000	84.3947	126.67
5600.0000	84.5322	129.55
5700.0000	84.8159	132.14
5800.0000	85.0897	133.39
5900.0000	85.4155	134.07
6000.0000	85.7649	134.03
6080.0000	85.9828	133.83
6150.0000	86.1568	132.98
6220.0000	86.2965	132.16
6300.0000	86.4655	130.74
6400.0000	86.5466	129.04
6500.0000	86.4982	127.65
6600.0000	86.4189	126.86
6700.0000	86.3891	127.66
6800.0000	86.6757	128.82
6900.0000	87.0165	128.56
7000.0000	87.5397	127.39
7100.0000	87.9667	124.75
7200.0000	88.2848	121.23
7300.0000	88.2293	117.49
7400.0000	88.1421	114.36
7500.0000	87.9165	112.04
7620.0000	87.5393	110.47
7750.0000	87.0840	109.83
7880.0000	86.6818	110.56
8000.0000	86.3078	112.02
8120.0000	86.2149	113.77
8250.0000	86.1780	115.07
8380.0000	86.1465	116.95
8500.0000	86.2268	117.99
8620.0000	86.2764	118.70
8750.0000	86.4786	120.41
8850.0000	86.6763	120.16
9000.0000	86.8730	119.35
9120.0000	87.0602	119.00
9250.0000	87.1781	116.63
9380.0000	87.2445	113.69
9500.0000	87.1116	109.92
9620.0000	86.9283	106.01
9750.0000	86.2508	102.16
9880.0000	85.4344	98.70
10000.0000	84.5571	97.13
10150.0000	83.4052	97.14
10300.0000	82.3328	97.22
10440.0000	81.0256	100.13
10600.0000	79.8268	103.22
10750.0000	78.8603	107.25
10900.0000	77.8873	112.70
11060.0000	76.9259	117.87
11200.0000	76.2596	124.78
11380.0000	75.4266	131.59
11500.0000	75.0306	137.96
11720.0000	74.3114	149.31
11800.0000	74.0419	152.08
12060.0000	73.7805	166.01
12200.0000	73.3033	170.96
12410.0000	73.0317	-179.19
12500.0000	72.9838	-172.44
12650.0000	73.1178	-165.78
12800.0000	73.3775	-158.04
13150.0000	73.7174	-145.45
13200.0000	73.7922	-143.50
13400.0000	74.0546	-134.51
13600.0000	74.3299	-127.35
13800.0000	74.6749	-119.36
14000.0000	75.2190	-111.74
14300.0000	76.1711	-101.01
14500.0000	77.0999	-94.63
14750.0000	78.0340	-87.31
15000.0000	79.3150	-82.26
15250.0000	80.9068	-79.34
15500.0000	82.4410	-80.92
15750.0000	83.7215	-90.32
16000.0000	83.3725	-102.00
16250.0000	81.9256	-107.26
16500.0000	80.3727	-105.90
16750.0000	79.0961	-98.80
17000.0000	78.5392	-85.92
17250.0000	79.2145	-77.57
17500.0000	80.0590	-74.03
17750.0000	80.7936	-75.53
18000.0000	81.5851	-78.27
18250.0000	81.9950	-88.44
18500.0000	80.9866	-106.97
18750.0000	77.7690	-117.33
19000.0000	74.4843	-118.13
19250.0000	70.7872	-111.73
19500.0000	68.4007	-100.76
19750.0000	65.9414	-87.58
