* Measurement data measured by REW V5.20 Beta 47
* Source: Microphone (Realtek Audio), MICROPHONE (Master Volume), R, volume: 0.250
* Format: 256k Log Swept Sine, 1 sweep at -12.0 dBFS with no timing reference
* Dated: Aug 15, 2020 3:20:11 AM
* REW Settings:
*  C-weighting compensation: Off
*  Target level: 75.0 dB
* Note: ; 
* Measurement: M20 L
* Smoothing: None
* Frequency Step: 1/48 octave
* Start Frequency: 20.000 Hz
*
* Freq(Hz)	SPL(dB)	Phase(degrees)
20.0000	93.4458	-6.81
20.3000	93.4514	-7.31
20.6000	93.4622	-7.88
20.9000	93.4725	-8.48
21.2000	93.4818	-9.12
21.4000	93.4853	-9.56
21.8000	93.4858	-10.43
22.0000	93.4861	-10.85
22.4000	93.4972	-11.63
22.7000	93.5005	-12.19
23.0000	93.4989	-12.71
23.3000	93.4985	-13.14
23.6000	93.5009	-13.49
24.0000	93.5154	-13.82
24.3000	93.5420	-14.00
24.7000	93.5999	-14.27
25.0000	93.6514	-14.58
25.4000	93.7126	-15.13
25.8000	93.7506	-15.78
26.2000	93.7562	-16.44
26.5000	93.7444	-16.86
26.9000	93.7236	-17.32
27.2000	93.7086	-17.63
27.6000	93.6925	-18.04
28.0000	93.6791	-18.47
28.5000	93.6593	-19.07
29.0000	93.6425	-19.63
29.5000	93.6391	-20.27
30.0000	93.6452	-21.00
30.4000	93.6479	-21.67
30.7000	93.6438	-22.19
31.1000	93.6338	-22.84
31.5000	93.6268	-23.42
32.0000	93.6262	-24.12
32.5000	93.6340	-24.81
33.0000	93.6330	-25.50
33.5000	93.6267	-26.06
34.0000	93.6232	-26.48
34.5000	93.6359	-26.85
35.0000	93.6606	-27.28
35.5000	93.6755	-27.81
36.0000	93.6722	-28.37
36.5000	93.6507	-28.87
37.0000	93.6316	-29.32
37.5000	93.6097	-29.77
38.2000	93.5716	-30.49
38.7000	93.5320	-30.95
39.5000	93.4947	-31.56
40.0000	93.4963	-32.06
40.6000	93.4856	-32.93
41.2000	93.4279	-33.75
41.8000	93.3622	-34.25
42.5000	93.3466	-34.65
43.1000	93.3555	-35.26
43.7000	93.3254	-35.97
44.4000	93.2677	-36.46
45.0000	93.2605	-36.71
45.5000	93.2760	-37.13
46.2000	93.2581	-38.00
46.8000	93.1925	-38.60
47.5000	93.1295	-38.96
48.2000	93.1143	-39.40
48.7000	93.1032	-39.91
49.4000	93.0485	-40.72
50.0000	92.9818	-41.23
50.8000	92.9245	-41.69
51.5000	92.9126	-42.23
52.2000	92.8891	-42.98
53.0000	92.8234	-43.78
53.8000	92.7657	-44.31
54.5000	92.7410	-44.80
55.2000	92.7087	-45.42
56.0000	92.6509	-46.03
57.0000	92.6009	-46.66
58.0000	92.5471	-47.45
59.0000	92.4776	-48.08
60.0000	92.4370	-48.73
60.8000	92.3928	-49.35
61.5000	92.3522	-49.84
62.2000	92.3182	-50.39
63.0000	92.2601	-51.07
64.0000	92.1795	-51.70
65.0000	92.1300	-52.34
66.0000	92.0786	-53.02
67.0000	92.0359	-53.73
68.0000	91.9743	-54.44
69.0000	91.9205	-55.01
70.0000	91.8700	-55.59
71.0000	91.8342	-56.27
72.0000	91.7184	-57.06
73.0000	91.6398	-56.71
74.0000	91.8017	-57.27
75.0000	91.7221	-59.14
76.2000	91.5579	-59.19
77.5000	91.5252	-60.05
78.8000	91.3843	-60.45
80.0000	91.2910	-61.03
81.2000	91.1870	-61.88
82.5000	91.1178	-62.74
83.8000	91.0522	-63.95
85.0000	91.1417	-64.60
86.2000	91.0069	-65.10
87.5000	91.2211	-65.15
88.5000	90.6898	-64.23
90.0000	91.9151	-61.11
91.2000	91.2626	-69.33
92.5000	90.7507	-66.09
93.8000	90.5327	-68.57
95.0000	90.4838	-68.62
96.2000	90.3769	-70.57
97.5000	90.3747	-70.75
98.8000	90.4036	-72.00
100.0000	90.2165	-72.50
101.5000	90.1773	-71.98
103.0000	90.0490	-72.72
104.4000	90.0277	-73.20
106.0000	89.9112	-74.51
107.5000	89.8344	-74.79
109.0000	89.7838	-75.93
110.6000	89.7225	-76.03
112.0000	89.6834	-77.08
113.8000	89.5894	-77.84
115.0000	89.6143	-77.96
117.2000	89.4931	-78.49
118.0000	89.5175	-79.11
120.6000	89.3434	-79.97
122.0000	89.2405	-80.69
124.1000	89.1585	-81.60
125.0000	89.1338	-81.85
126.5000	89.0804	-82.48
128.0000	89.0010	-82.88
131.5000	88.8554	-84.12
132.0000	88.8367	-84.40
134.0000	88.7496	-85.17
136.0000	88.6622	-85.80
138.0000	88.5885	-86.57
140.0000	88.4987	-87.16
143.0000	88.3711	-88.18
145.0000	88.2786	-88.81
147.5000	88.2002	-89.72
150.0000	88.0912	-90.34
152.5000	88.0148	-90.99
155.0000	87.9515	-91.64
157.5000	87.8528	-92.43
160.0000	87.7817	-93.22
162.5000	87.7221	-93.91
165.0000	87.6562	-94.72
167.5000	87.6038	-95.41
170.0000	87.5427	-96.11
172.5000	87.4518	-96.72
175.0000	87.3590	-97.30
177.5000	87.2765	-98.07
180.0000	87.1729	-98.69
182.5000	87.1285	-98.99
185.0000	87.0266	-99.72
187.5000	86.9825	-100.21
190.0000	86.8943	-101.15
192.5000	86.8482	-101.49
195.0000	86.7796	-102.30
197.5000	86.6821	-102.90
200.0000	86.6742	-103.72
203.0000	86.5873	-104.38
206.0000	86.5074	-104.89
209.0000	86.3913	-105.39
212.0000	86.3487	-106.09
214.0000	86.2944	-106.53
218.0000	86.2290	-107.33
220.0000	86.2036	-107.85
224.0000	86.0832	-108.46
227.0000	86.0346	-108.98
230.0000	85.9626	-109.65
233.0000	85.9461	-110.29
236.0000	85.8824	-111.02
240.0000	85.8138	-111.45
243.0000	85.7624	-112.06
247.0000	85.6875	-112.73
250.0000	85.6312	-113.60
254.0000	85.5701	-114.15
258.0000	85.5020	-114.95
262.0000	85.4316	-115.54
265.0000	85.3852	-116.10
269.0000	85.3080	-116.61
272.0000	85.2451	-117.06
276.0000	85.2032	-117.77
280.0000	85.1493	-118.34
285.0000	85.0581	-119.05
290.0000	85.0062	-119.90
295.0000	84.9494	-120.55
300.0000	84.8899	-121.29
304.0000	84.8530	-121.78
307.0000	84.8212	-122.19
311.0000	84.7876	-122.72
315.0000	84.7137	-123.19
320.0000	84.6818	-124.01
325.0000	84.6387	-124.64
330.0000	84.6239	-125.31
335.0000	84.5694	-125.94
340.0000	84.5311	-126.45
345.0000	84.4967	-127.14
350.0000	84.4416	-127.80
355.0000	84.4235	-128.19
360.0000	84.3432	-128.59
365.0000	84.3177	-129.49
370.0000	84.2913	-129.86
375.0000	84.2536	-130.33
382.0000	84.1763	-131.21
387.0000	84.1464	-131.65
395.0000	84.1176	-132.41
400.0000	84.0665	-132.85
406.0000	84.0328	-133.46
412.0000	83.9692	-134.03
418.0000	83.9367	-134.57
425.0000	83.9113	-135.10
431.0000	83.8793	-135.78
437.0000	83.8707	-136.36
444.0000	83.8313	-136.96
450.0000	83.8161	-137.49
455.0000	83.8032	-137.83
462.0000	83.7886	-138.37
468.0000	83.7553	-138.93
475.0000	83.7541	-139.37
482.0000	83.6810	-139.89
487.0000	83.6979	-140.25
494.0000	83.6320	-140.84
500.0000	83.6257	-141.17
508.0000	83.6063	-141.72
515.0000	83.5757	-142.22
522.0000	83.5466	-142.72
530.0000	83.5431	-143.32
538.0000	83.5333	-143.78
545.0000	83.4843	-144.33
552.0000	83.4879	-144.52
560.0000	83.4848	-144.89
570.0000	83.4033	-145.68
580.0000	83.3923	-146.23
590.0000	83.3614	-146.69
600.0000	83.3317	-147.35
608.0000	83.3187	-147.75
615.0000	83.3341	-147.95
622.0000	83.3138	-148.39
630.0000	83.2793	-148.79
640.0000	83.2845	-149.28
650.0000	83.2524	-149.85
660.0000	83.2491	-149.98
670.0000	83.2144	-150.77
680.0000	83.2346	-150.75
690.0000	83.2102	-151.18
700.0000	83.2174	-151.67
710.0000	83.2063	-151.87
720.0000	83.1960	-152.20
730.0000	83.1763	-152.33
740.0000	83.1544	-152.81
750.0000	83.1582	-153.18
762.0000	83.1269	-153.08
775.0000	83.0992	-153.36
788.0000	83.1145	-153.89
800.0000	83.1188	-153.93
812.0000	83.1429	-154.17
825.0000	83.1294	-154.21
838.0000	83.1620	-154.64
850.0000	83.1210	-154.57
862.0000	83.1648	-154.90
875.0000	83.1743	-154.89
885.0000	83.1879	-154.98
900.0000	83.1975	-155.03
912.0000	83.2478	-154.87
925.0000	83.2784	-155.10
938.0000	83.2605	-155.22
950.0000	83.3136	-155.22
962.0000	83.3985	-155.23
975.0000	83.3997	-155.35
988.0000	83.4463	-155.36
1000.0000	83.4827	-155.32
1015.0000	83.5799	-155.32
1030.0000	83.6208	-155.50
1044.0000	83.7191	-155.59
1060.0000	83.7969	-155.68
1075.0000	83.9023	-155.93
1090.0000	84.0272	-156.11
1106.0000	84.1310	-156.38
1120.0000	84.2278	-156.66
1138.0000	84.3529	-157.01
1150.0000	84.4246	-156.85
1172.0000	84.6053	-157.67
1180.0000	84.6627	-158.02
1206.0000	84.8106	-158.58
1220.0000	84.9084	-159.07
1241.0000	85.0710	-160.10
1250.0000	85.1337	-160.35
1265.0000	85.2160	-160.86
1280.0000	85.3090	-161.47
1315.0000	85.5092	-162.84
1320.0000	85.5414	-162.85
1340.0000	85.6617	-163.80
1360.0000	85.7812	-164.41
1380.0000	85.8274	-165.33
1400.0000	85.9460	-165.93
1430.0000	86.0117	-167.10
1450.0000	86.1068	-167.83
1475.0000	86.2075	-168.96
1500.0000	86.2869	-169.56
1525.0000	86.3830	-170.57
1550.0000	86.4314	-171.18
1575.0000	86.5388	-171.99
1600.0000	86.5338	-172.55
1625.0000	86.6382	-173.38
1650.0000	86.7354	-173.89
1675.0000	86.7996	-174.38
1700.0000	86.8714	-175.02
1725.0000	86.9419	-175.75
1750.0000	87.0214	-176.26
1775.0000	87.0766	-176.72
1800.0000	87.1469	-177.35
1825.0000	87.2378	-177.94
1850.0000	87.3188	-178.56
1875.0000	87.3720	-178.94
1900.0000	87.4126	-179.41
1925.0000	87.4792	179.99
1950.0000	87.5369	179.51
1975.0000	87.6178	178.67
2000.0000	87.6705	178.14
2030.0000	87.7185	177.48
2060.0000	87.8103	176.63
2090.0000	87.8382	175.90
2120.0000	87.9353	175.02
2140.0000	87.9466	174.81
2180.0000	87.9939	173.57
2200.0000	88.0256	173.19
2240.0000	88.0508	171.99
2270.0000	88.0630	171.34
2300.0000	88.0909	170.22
2330.0000	88.0954	169.72
2360.0000	88.1015	169.11
2400.0000	88.0763	168.14
2430.0000	88.0570	167.55
2470.0000	87.9922	166.64
2500.0000	87.9646	166.20
2540.0000	87.9224	165.66
2580.0000	87.8965	165.06
2620.0000	87.8454	164.67
2650.0000	87.8023	164.32
2690.0000	87.7169	163.87
2720.0000	87.7116	163.51
2760.0000	87.5790	163.09
2800.0000	87.5488	162.91
2850.0000	87.4691	162.63
2900.0000	87.4026	162.48
2950.0000	87.3221	162.43
3000.0000	87.2599	162.40
3040.0000	87.2271	162.23
3070.0000	87.2141	162.49
3110.0000	87.1345	162.08
3150.0000	87.1454	162.25
3200.0000	87.0833	162.34
3250.0000	87.0778	162.56
3300.0000	87.0611	162.85
3350.0000	87.0594	162.80
3400.0000	87.0574	162.97
3450.0000	87.0748	163.39
3500.0000	87.1844	163.43
3550.0000	87.2242	163.68
3600.0000	87.3367	163.60
3650.0000	87.3928	163.71
3700.0000	87.5232	163.70
3750.0000	87.6291	163.77
3820.0000	87.8485	163.17
3870.0000	87.9967	162.95
3950.0000	88.2703	162.50
4000.0000	88.4043	161.83
4060.0000	88.6178	160.39
4120.0000	88.7968	159.94
4180.0000	88.9719	158.57
4250.0000	89.2303	156.74
4310.0000	89.4119	154.97
4370.0000	89.5517	152.74
4440.0000	89.7453	150.93
4500.0000	89.8655	148.77
4550.0000	89.9981	146.67
4620.0000	90.2221	144.31
4680.0000	90.3424	141.44
4750.0000	90.5098	137.66
4820.0000	90.6091	133.39
4870.0000	90.6611	129.58
4940.0000	90.4938	123.63
5000.0000	90.1057	118.61
5080.0000	89.3391	112.80
5150.0000	88.4065	109.28
5220.0000	87.4263	108.38
5300.0000	86.5232	111.02
5380.0000	85.9498	113.46
5450.0000	85.6392	115.98
5520.0000	85.5065	118.80
5600.0000	85.4527	121.23
5700.0000	85.3457	123.71
5800.0000	85.5073	124.50
5900.0000	85.5823	126.69
6000.0000	85.8247	126.15
6080.0000	85.7473	126.35
6150.0000	85.8257	126.19
6220.0000	85.9466	126.52
6300.0000	85.9190	125.59
6400.0000	85.9585	124.69
6500.0000	85.7937	124.44
6600.0000	85.4815	126.90
6700.0000	85.5685	127.67
6800.0000	85.8802	129.81
6900.0000	86.3812	132.61
7000.0000	86.8178	131.94
7100.0000	87.4246	130.01
7200.0000	87.7655	127.40
7300.0000	88.1429	124.88
7400.0000	88.3406	121.67
7500.0000	88.4109	118.08
7620.0000	88.2001	114.72
7750.0000	87.7450	112.61
7880.0000	87.2888	111.88
8000.0000	86.9650	111.74
8120.0000	86.5950	112.92
8250.0000	86.2460	113.87
8380.0000	86.0084	115.87
8500.0000	85.8867	117.09
8620.0000	85.8302	119.21
8750.0000	85.7417	120.93
8850.0000	85.8970	121.90
9000.0000	85.9956	123.22
9120.0000	86.0779	123.46
9250.0000	86.1711	124.41
9380.0000	86.3558	124.01
9500.0000	86.5403	123.28
9620.0000	86.7006	120.82
9750.0000	86.6056	118.43
9880.0000	86.5131	114.61
10000.0000	86.0578	111.45
10150.0000	85.2595	108.02
10300.0000	84.2917	106.77
10440.0000	83.3442	104.72
10600.0000	82.0516	105.67
10750.0000	80.9047	107.51
10900.0000	79.7482	111.57
11060.0000	78.7043	116.79
11200.0000	77.8170	121.25
11380.0000	76.9107	129.08
11500.0000	76.0460	134.06
11720.0000	75.3481	143.22
11800.0000	74.8845	147.79
12060.0000	74.4149	157.88
12200.0000	74.0364	163.85
12410.0000	73.3118	176.53
12500.0000	73.2248	-179.72
12650.0000	73.1834	-172.05
12800.0000	73.1714	-165.55
13150.0000	73.6514	-148.73
13200.0000	73.6577	-148.42
13400.0000	74.0266	-139.69
13600.0000	74.0046	-131.35
13800.0000	74.4432	-122.86
14000.0000	74.8241	-117.15
14300.0000	75.5034	-107.48
14500.0000	76.0947	-101.69
14750.0000	76.6618	-93.55
15000.0000	77.4960	-86.24
15250.0000	78.6894	-79.56
15500.0000	79.7680	-74.20
15750.0000	81.2833	-71.25
16000.0000	82.7993	-75.99
16250.0000	83.2821	-86.08
16500.0000	82.0589	-96.43
16750.0000	79.5583	-89.22
17000.0000	80.0564	-71.19
17250.0000	81.6502	-68.75
17500.0000	82.4098	-70.97
17750.0000	83.0233	-74.57
18000.0000	83.6238	-80.42
18250.0000	83.8350	-95.26
18500.0000	82.1221	-114.45
18750.0000	78.4827	-123.93
19000.0000	74.6999	-122.17
19250.0000	71.3247	-111.05
19500.0000	68.1682	-99.62
19750.0000	66.0488	-85.51
