* Measurement data measured by REW V5.20 Beta 47
* Source: Headset (USB-C to 3.5mm Headphone Jack Adapter), MICROPHONE (Master Volume), L, volume: 0.000
* Format: 256k Log Swept Sine, 1 sweep at -3.0 dBFS with no timing reference
* Dated: Jul 25, 2020 9:09:26 PM
* REW Settings:
*  C-weighting compensation: Off
*  Target level: 75.0 dB
* Note: ; 
* Measurement: AAW A3H L
* Smoothing: None
* Frequency Step: 1/48 octave
* Start Frequency: 20.000 Hz
*
* Freq(Hz)	SPL(dB)	Phase(degrees)
20.0000	84.6123	47.91
20.3000	84.7104	47.54
20.6000	84.8108	47.16
20.9000	84.9038	46.75
21.2000	84.9871	46.35
21.4000	85.0369	46.12
21.8000	85.1334	45.78
22.0000	85.1873	45.65
22.4000	85.3198	45.36
22.7000	85.4332	45.04
23.0000	85.5473	44.55
23.3000	85.6503	43.88
23.6000	85.7297	43.10
24.0000	85.7879	41.98
24.3000	85.7977	41.20
24.7000	85.7758	40.37
25.0000	85.7477	39.97
25.4000	85.7246	39.78
25.8000	85.7493	39.89
26.2000	85.8464	40.05
26.5000	85.9616	40.01
26.9000	86.1415	39.62
27.2000	86.2731	39.10
27.6000	86.4244	38.21
28.0000	86.5474	37.32
28.5000	86.6954	36.28
29.0000	86.8528	35.16
29.5000	86.9887	33.79
30.0000	87.0600	32.41
30.4000	87.0828	31.52
30.7000	87.0974	31.01
31.1000	87.1304	30.42
31.5000	87.1694	29.75
32.0000	87.1793	28.83
32.5000	87.1292	28.20
33.0000	87.0861	28.23
33.5000	87.1428	28.62
34.0000	87.3014	28.61
34.5000	87.4722	27.85
35.0000	87.5720	26.62
35.5000	87.5908	25.40
36.0000	87.5546	24.46
36.5000	87.4864	23.88
37.0000	87.4220	23.83
37.5000	87.4262	24.26
38.2000	87.6045	24.67
38.7000	87.7725	24.18
39.5000	87.8916	22.73
40.0000	87.8977	22.16
40.6000	87.9342	21.77
41.2000	88.0001	21.18
41.8000	88.0324	20.44
42.5000	88.0551	19.88
43.1000	88.1229	19.37
43.7000	88.1828	18.52
44.4000	88.1888	17.62
45.0000	88.2132	17.22
45.5000	88.2727	16.78
46.2000	88.3120	15.82
46.8000	88.2812	15.40
47.5000	88.3358	15.43
48.2000	88.4621	14.75
48.7000	88.4640	13.87
49.4000	88.3704	13.50
50.0000	88.4105	13.80
50.8000	88.5898	12.77
51.5000	88.5475	11.12
52.2000	88.4113	10.63
53.0000	88.4447	10.67
53.8000	88.5451	9.86
54.5000	88.5912	9.03
55.2000	88.6360	8.18
56.0000	88.6228	7.31
57.0000	88.6487	7.26
58.0000	88.8040	6.53
59.0000	88.8115	5.42
60.0000	88.8155	4.71
60.8000	88.7839	3.98
61.5000	88.7416	3.58
62.2000	88.7263	3.20
63.0000	88.6999	2.71
64.0000	88.6953	2.38
65.0000	88.7377	1.80
66.0000	88.7725	1.25
67.0000	88.8441	0.35
68.0000	88.8161	-0.63
69.0000	88.8276	-1.07
70.0000	88.8563	-1.89
71.0000	88.8601	-2.52
72.0000	88.8721	-3.38
73.0000	88.7982	-3.88
74.0000	88.8247	-3.89
75.0000	88.8690	-4.63
76.2000	88.8450	-5.36
77.5000	88.8516	-6.29
78.8000	88.8250	-7.31
80.0000	88.7974	-7.91
81.2000	88.8556	-8.44
82.5000	88.8329	-9.34
83.8000	88.8982	-9.28
85.0000	88.9548	-11.14
86.2000	88.7066	-11.59
87.5000	88.7796	-11.76
88.5000	88.7942	-12.58
90.0000	88.7451	-14.65
91.2000	88.6318	-14.26
92.5000	88.6760	-15.25
93.8000	88.6895	-14.90
95.0000	88.6375	-16.56
96.2000	88.5018	-15.77
97.5000	88.6137	-16.37
98.8000	88.6517	-17.38
100.0000	88.6091	-18.29
101.5000	88.5971	-19.37
103.0000	88.5426	-19.52
104.4000	88.5639	-20.17
106.0000	88.5554	-21.32
107.5000	88.4732	-21.48
109.0000	88.4943	-22.17
110.6000	88.5137	-22.79
112.0000	88.4267	-23.55
113.8000	88.3705	-24.07
115.0000	88.3483	-24.57
117.2000	88.2945	-25.30
118.0000	88.2927	-25.74
120.6000	88.2674	-26.71
122.0000	88.1997	-27.39
124.1000	88.1142	-27.76
125.0000	88.1249	-28.30
126.5000	88.1381	-29.08
128.0000	88.1429	-29.53
131.5000	88.2596	-30.81
132.0000	88.1943	-31.80
134.0000	88.0037	-31.47
136.0000	87.8113	-32.69
138.0000	87.8218	-32.97
140.0000	87.8057	-33.92
143.0000	87.7188	-34.73
145.0000	87.6556	-35.30
147.5000	87.5663	-36.47
150.0000	87.5403	-37.09
152.5000	87.4639	-38.03
155.0000	87.4341	-38.41
157.5000	87.3157	-39.11
160.0000	87.2281	-39.78
162.5000	87.2310	-40.40
165.0000	87.0136	-40.17
167.5000	87.0824	-42.12
170.0000	87.0369	-42.69
172.5000	86.9474	-43.02
175.0000	86.8140	-43.48
177.5000	86.7494	-44.55
180.0000	86.7108	-45.22
182.5000	86.6134	-45.57
185.0000	86.4775	-45.94
187.5000	86.3903	-46.66
190.0000	86.3429	-47.53
192.5000	86.2617	-47.43
195.0000	86.1589	-48.38
197.5000	86.0809	-48.93
200.0000	85.9667	-49.69
203.0000	85.8809	-49.71
206.0000	85.7943	-50.18
209.0000	85.6840	-50.96
212.0000	85.5519	-51.14
214.0000	85.5378	-51.77
218.0000	85.4005	-52.19
220.0000	85.3332	-52.49
224.0000	85.2265	-52.98
227.0000	85.1099	-53.38
230.0000	84.9985	-53.77
233.0000	84.9314	-54.08
236.0000	84.8159	-54.42
240.0000	84.6901	-54.67
243.0000	84.6028	-55.03
247.0000	84.5300	-55.34
250.0000	84.3643	-55.41
254.0000	84.2565	-55.28
258.0000	84.1576	-55.92
262.0000	83.9426	-55.85
265.0000	83.8976	-55.87
269.0000	83.7835	-56.27
272.0000	83.6950	-56.28
276.0000	83.5752	-56.09
280.0000	83.4555	-56.30
285.0000	83.3568	-56.31
290.0000	83.2001	-55.53
295.0000	83.0808	-56.28
300.0000	83.0092	-55.28
304.0000	82.8496	-55.29
307.0000	82.8235	-55.23
311.0000	82.6808	-54.19
315.0000	82.6376	-54.09
320.0000	82.5607	-53.28
325.0000	82.5102	-53.13
330.0000	82.4027	-52.59
335.0000	82.3475	-51.73
340.0000	82.3312	-51.09
345.0000	82.3236	-50.48
350.0000	82.2965	-49.91
355.0000	82.2748	-49.29
360.0000	82.3172	-48.69
365.0000	82.3463	-47.71
370.0000	82.3284	-47.15
375.0000	82.3740	-46.80
382.0000	82.4511	-46.12
387.0000	82.5103	-45.75
395.0000	82.6186	-45.00
400.0000	82.7348	-44.61
406.0000	82.8092	-44.18
412.0000	82.9310	-44.07
418.0000	83.0414	-43.96
425.0000	83.1807	-43.62
431.0000	83.2792	-43.58
437.0000	83.3749	-43.68
444.0000	83.5369	-43.86
450.0000	83.6677	-43.94
455.0000	83.7490	-44.15
462.0000	83.8615	-44.57
468.0000	83.9439	-44.89
475.0000	84.0635	-45.48
482.0000	84.1220	-45.87
487.0000	84.1959	-46.43
494.0000	84.2954	-47.11
500.0000	84.3534	-47.46
508.0000	84.3971	-48.11
515.0000	84.4501	-48.67
522.0000	84.5636	-49.21
530.0000	84.5523	-49.75
538.0000	84.5788	-50.44
545.0000	84.6076	-50.82
552.0000	84.6221	-51.38
560.0000	84.6281	-51.99
570.0000	84.6292	-52.69
580.0000	84.6276	-53.28
590.0000	84.6214	-53.90
600.0000	84.5979	-54.33
608.0000	84.5725	-54.73
615.0000	84.5470	-55.01
622.0000	84.5365	-55.35
630.0000	84.5110	-55.55
640.0000	84.4636	-55.81
650.0000	84.4216	-56.19
660.0000	84.4106	-56.34
670.0000	84.3486	-56.44
680.0000	84.3072	-56.53
690.0000	84.2537	-56.55
700.0000	84.2075	-56.54
710.0000	84.1499	-56.47
720.0000	84.0974	-56.38
730.0000	84.0517	-56.17
740.0000	84.0036	-55.96
750.0000	83.9640	-55.78
762.0000	83.9111	-55.35
775.0000	83.8499	-54.92
788.0000	83.8034	-54.38
800.0000	83.7661	-53.83
812.0000	83.7471	-53.11
825.0000	83.7811	-52.57
838.0000	83.7967	-52.54
850.0000	83.7022	-52.41
862.0000	83.6162	-51.75
875.0000	83.5615	-50.86
885.0000	83.5364	-50.14
900.0000	83.5316	-49.14
912.0000	83.5397	-48.43
925.0000	83.5223	-47.65
938.0000	83.5139	-46.72
950.0000	83.5347	-45.87
962.0000	83.5512	-45.03
975.0000	83.5616	-44.15
988.0000	83.6128	-43.20
1000.0000	83.7099	-42.25
1015.0000	83.6719	-41.48
1030.0000	83.7064	-40.57
1044.0000	83.7549	-39.64
1060.0000	83.8168	-38.69
1075.0000	83.8794	-37.81
1090.0000	83.9598	-36.99
1106.0000	84.0370	-36.10
1120.0000	84.1245	-35.43
1138.0000	84.2211	-34.55
1150.0000	84.2885	-34.03
1172.0000	84.4099	-33.09
1180.0000	84.4533	-32.78
1206.0000	84.5873	-31.79
1220.0000	84.6671	-31.30
1241.0000	84.7678	-30.58
1250.0000	84.8169	-30.26
1265.0000	84.8949	-29.78
1280.0000	84.9595	-29.29
1315.0000	85.1072	-28.18
1320.0000	85.1301	-28.05
1340.0000	85.2027	-27.46
1360.0000	85.2763	-26.81
1380.0000	85.3422	-26.21
1400.0000	85.4003	-25.61
1430.0000	85.4879	-24.57
1450.0000	85.5454	-23.99
1475.0000	85.6123	-23.09
1500.0000	85.6767	-22.30
1525.0000	85.7399	-21.48
1550.0000	85.8056	-20.61
1575.0000	85.8682	-19.71
1600.0000	85.9309	-18.82
1625.0000	85.9953	-17.92
1650.0000	86.0606	-17.06
1675.0000	86.1265	-16.18
1700.0000	86.1868	-15.27
1725.0000	86.2492	-14.43
1750.0000	86.3155	-13.56
1775.0000	86.3810	-12.73
1800.0000	86.4431	-11.91
1825.0000	86.5082	-11.17
1850.0000	86.5750	-10.39
1875.0000	86.6328	-9.67
1900.0000	86.7055	-9.02
1925.0000	86.7569	-8.32
1950.0000	86.8089	-7.70
1975.0000	86.8463	-7.17
2000.0000	86.8351	-6.90
2030.0000	86.9552	-5.95
2060.0000	87.0150	-5.39
2090.0000	87.0568	-4.87
2120.0000	87.0893	-4.42
2140.0000	87.1104	-4.17
2180.0000	87.1342	-3.72
2200.0000	87.1401	-3.46
2240.0000	87.1418	-3.33
2270.0000	87.1216	-3.47
2300.0000	87.0912	-3.84
2330.0000	87.0474	-4.25
2360.0000	86.9972	-4.63
2400.0000	86.9080	-4.94
2430.0000	86.8408	-5.01
2470.0000	86.7171	-4.90
2500.0000	86.6166	-4.81
2540.0000	86.4705	-4.72
2580.0000	86.3011	-4.47
2620.0000	86.1469	-4.23
2650.0000	86.0049	-4.03
2690.0000	85.8315	-3.73
2720.0000	85.7156	-3.42
2760.0000	85.5288	-2.95
2800.0000	85.3529	-2.62
2850.0000	85.1608	-1.93
2900.0000	84.9598	-1.44
2950.0000	84.7914	-0.66
3000.0000	84.6575	0.24
3040.0000	84.6183	0.35
3070.0000	84.5448	0.60
3110.0000	84.5148	1.15
3150.0000	84.5262	1.36
3200.0000	84.5599	1.61
3250.0000	84.6041	1.72
3300.0000	84.7199	1.26
3350.0000	84.9180	1.19
3400.0000	85.1544	0.33
3450.0000	85.4314	-0.62
3500.0000	85.7414	-1.72
3550.0000	86.0799	-3.68
3600.0000	86.5320	-5.32
3650.0000	86.9522	-7.95
3700.0000	87.3708	-10.65
3750.0000	87.8114	-13.45
3820.0000	88.3610	-17.55
3870.0000	88.6420	-21.30
3950.0000	89.1560	-26.89
4000.0000	89.3330	-30.49
4060.0000	89.4799	-33.73
4120.0000	89.6131	-36.86
4180.0000	89.6921	-39.89
4250.0000	89.7792	-42.48
4310.0000	89.8576	-43.48
4370.0000	89.9315	-44.94
4440.0000	89.9380	-45.76
4500.0000	90.0387	-45.56
4550.0000	89.9982	-44.91
4620.0000	90.2211	-44.62
4680.0000	90.2516	-43.49
4750.0000	90.4385	-41.79
4820.0000	90.6928	-40.43
4870.0000	90.9787	-39.11
4940.0000	91.1677	-35.83
5000.0000	91.7318	-34.40
5080.0000	92.2362	-32.20
5150.0000	92.6398	-30.26
5220.0000	93.0719	-29.68
5300.0000	93.6369	-27.57
5380.0000	94.2680	-26.74
5450.0000	94.8460	-26.29
5520.0000	95.4341	-27.11
5600.0000	95.9169	-27.17
5700.0000	96.6082	-29.38
5800.0000	96.8621	-32.64
5900.0000	96.8653	-37.94
6000.0000	96.4579	-40.63
6080.0000	96.0643	-42.40
6150.0000	95.6992	-41.72
6220.0000	95.3200	-40.62
6300.0000	95.0241	-41.38
6400.0000	94.4416	-38.83
6500.0000	93.6678	-33.64
6600.0000	93.4820	-30.94
6700.0000	93.0250	-26.35
6800.0000	92.7780	-20.84
6900.0000	92.2783	-16.35
7000.0000	92.3627	-8.52
7100.0000	92.4284	-3.53
7200.0000	92.3300	0.96
7300.0000	92.7681	5.98
7400.0000	92.7636	10.49
7500.0000	93.0154	14.87
7620.0000	93.8016	19.91
7750.0000	94.7464	25.54
7880.0000	95.2977	26.21
8000.0000	96.1862	24.95
8120.0000	97.2950	21.52
8250.0000	96.9353	11.97
8380.0000	96.0394	2.79
8500.0000	94.9894	-2.37
8620.0000	92.6473	-0.17
8750.0000	90.7122	1.96
8850.0000	89.7550	1.77
9000.0000	87.4806	7.22
9120.0000	86.1650	20.05
9250.0000	84.7699	28.10
9380.0000	83.3245	32.07
9500.0000	82.7680	37.72
9620.0000	81.9339	52.05
9750.0000	80.9096	60.45
9880.0000	79.5904	65.81
10000.0000	79.2444	70.10
10150.0000	79.1584	82.92
10300.0000	78.5203	86.17
10440.0000	76.8739	90.89
10600.0000	75.2880	94.36
10750.0000	72.2196	88.60
10900.0000	65.7324	116.03
11060.0000	65.4209	173.79
11200.0000	67.7162	-164.80
11380.0000	70.5387	-153.96
11500.0000	71.3933	-136.03
11720.0000	71.2986	-126.36
11800.0000	72.8082	-126.67
12060.0000	73.5975	-106.39
12200.0000	72.5523	-105.49
12410.0000	73.0112	-100.22
12500.0000	72.4602	-85.97
12650.0000	74.3183	-75.41
12800.0000	74.7271	-71.31
13150.0000	75.3221	-53.85
13200.0000	73.6058	-66.64
13400.0000	75.4113	-51.98
13600.0000	73.3131	-45.36
13800.0000	72.9961	-33.42
14000.0000	75.0407	-29.53
14300.0000	75.0480	4.48
14500.0000	75.7180	15.23
14750.0000	76.9724	0.54
15000.0000	77.9717	10.27
15250.0000	83.1848	14.21
15500.0000	81.3246	-17.40
15750.0000	81.0861	-27.24
16000.0000	75.4945	-5.48
16250.0000	73.5881	2.06
16500.0000	69.6775	-20.64
16750.0000	71.0387	24.07
17000.0000	69.5720	36.34
17250.0000	66.8691	11.33
17500.0000	68.7234	61.08
17750.0000	68.7354	68.90
18000.0000	68.0399	20.35
18250.0000	71.1458	61.89
18500.0000	73.3437	50.15
18750.0000	67.3570	23.67
19000.0000	74.2032	-5.90
19250.0000	70.8793	-40.11
19500.0000	70.0984	-36.34
19750.0000	67.9085	1.18
