* Measurement data measured by REW V5.20 Beta 60
* Source: In 1-2 (MOTU M Series), LINE_IN (Master Volume), L, volume: 0.250
* Format: 256k Log Swept Sine, 1 sweep at -3.0 dBFS with no timing reference
* Dated: Mar 13, 2022 4:54:59 PM
* REW Settings:
*  C-weighting compensation: Off
*  Target level: 75.0 dB
* Note: ; 
* Measurement: AirB Pro L
* Smoothing: None
* Frequency Step: 1/48 octave
* Start Frequency: 20.000 Hz
*
* Freq(Hz) SPL(dB) Phase(degrees)
20.000000	95.504	25.7442
20.299999	95.558	25.2383
20.600000	95.609	24.7397
20.900000	95.658	24.2581
21.200001	95.710	23.7686
21.400000	95.744	23.4454
21.799999	95.808	22.8255
22.000000	95.838	22.5175
22.400000	95.898	21.8490
22.700001	95.941	21.3681
23.000000	95.981	20.9008
23.299999	96.022	20.4168
23.600000	96.062	19.9392
24.000000	96.110	19.3111
24.299999	96.143	18.8283
24.700001	96.182	18.1870
25.000000	96.207	17.7308
25.400000	96.237	17.1602
25.799999	96.263	16.6301
26.200001	96.292	16.1238
26.500000	96.317	15.7537
26.900000	96.346	15.2740
27.200001	96.366	14.9104
27.600000	96.392	14.4211
28.000000	96.415	13.9499
28.500000	96.441	13.3616
29.000000	96.464	12.7985
29.500000	96.485	12.2296
30.000000	96.501	11.6797
30.400000	96.512	11.2405
30.700001	96.518	10.9277
31.100000	96.528	10.5191
31.500000	96.539	10.1003
32.000000	96.553	9.5728
32.500000	96.564	9.0094
33.000000	96.570	8.4608
33.500000	96.571	7.9317
34.000000	96.573	7.4289
34.500000	96.577	6.9295
35.000000	96.580	6.4272
35.500000	96.582	5.9159
36.000000	96.584	5.4279
36.500000	96.585	4.9470
37.000000	96.585	4.4633
37.500000	96.584	3.9880
38.200001	96.580	3.3738
38.700001	96.581	2.9618
39.500000	96.589	2.2705
40.000000	96.590	1.8223
40.599998	96.587	1.3019
41.200001	96.585	0.8273
41.799999	96.587	0.3494
42.500000	96.587	-0.2238
43.099998	96.584	-0.6857
43.700001	96.584	-1.1323
44.400002	96.589	-1.6726
45.000000	96.589	-2.1598
45.500000	96.585	-2.5571
46.200001	96.578	-3.0781
46.799999	96.573	-3.5078
47.500000	96.566	-3.9947
48.200001	96.559	-4.4683
48.700001	96.554	-4.8078
49.400002	96.545	-5.2873
50.000000	96.536	-5.6713
50.799999	96.529	-6.1729
51.500000	96.524	-6.6451
52.200001	96.511	-7.1182
53.000000	96.493	-7.6025
53.799999	96.480	-8.0592
54.500000	96.468	-8.4700
55.200001	96.455	-8.8701
56.000000	96.438	-9.3082
57.000000	96.420	-9.8220
58.000000	96.410	-10.3356
59.000000	96.402	-10.8686
60.000000	96.397	-11.4330
60.799999	96.385	-11.9105
61.500000	96.370	-12.2921
62.200001	96.358	-12.6450
63.000000	96.347	-13.0656
64.000000	96.326	-13.5784
65.000000	96.306	-14.0795
66.000000	96.274	-14.5990
67.000000	96.233	-14.9903
68.000000	96.209	-15.3015
69.000000	96.199	-15.6916
70.000000	96.178	-16.1460
71.000000	96.149	-16.5361
72.000000	96.128	-16.9009
73.000000	96.103	-17.2896
74.000000	96.076	-17.6411
75.000000	96.055	-17.9986
76.199997	96.029	-18.4723
77.500000	95.993	-19.0171
78.800003	95.951	-19.4971
80.000000	95.917	-19.9106
81.199997	95.878	-20.2884
82.500000	95.840	-20.6358
83.800003	95.802	-20.9780
85.000000	95.770	-21.3159
86.199997	95.722	-21.7057
87.500000	95.675	-22.0419
88.500000	95.642	-22.3942
90.000000	95.583	-22.8189
91.199997	95.541	-23.1430
92.500000	95.497	-23.3873
93.800003	95.460	-23.6409
95.000000	95.422	-23.8814
96.199997	95.381	-24.1316
97.500000	95.337	-24.4217
98.800003	95.293	-24.7554
100.000000	95.246	-25.0563
101.500000	95.196	-25.3981
103.000000	95.131	-25.6704
104.400002	95.081	-25.8597
106.000000	95.028	-26.0183
107.500000	94.974	-26.2958
109.000000	94.926	-26.4926
110.599998	94.861	-26.8068
112.000000	94.820	-26.9915
113.800003	94.752	-27.3467
115.000000	94.715	-27.5711
117.199997	94.636	-27.9229
118.000000	94.616	-28.0937
120.599998	94.535	-28.5338
122.000000	94.489	-28.7228
124.099998	94.430	-28.9993
125.000000	94.395	-29.0719
126.500000	94.362	-29.1737
128.000000	94.311	-29.3177
131.500000	94.220	-29.5982
132.000000	94.206	-29.6391
134.000000	94.145	-29.8367
136.000000	94.084	-29.9464
138.000000	94.016	-30.0869
140.000000	93.957	-30.2704
143.000000	93.861	-30.6483
145.000000	93.807	-30.9112
147.500000	93.741	-31.1862
150.000000	93.685	-31.4413
152.500000	93.642	-31.6816
155.000000	93.595	-31.8200
157.500000	93.543	-32.0139
160.000000	93.504	-32.2704
162.500000	93.483	-32.6075
165.000000	93.478	-32.7600
167.500000	93.482	-32.8372
170.000000	93.505	-32.8224
172.500000	93.497	-32.9732
175.000000	93.406	-33.2484
177.500000	93.257	-33.2869
180.000000	93.128	-33.1582
182.500000	93.044	-33.0348
185.000000	92.960	-32.8097
187.500000	92.905	-32.8854
190.000000	92.848	-33.0936
192.500000	92.809	-33.2324
195.000000	92.746	-33.4951
197.500000	92.675	-33.6261
200.000000	92.632	-33.8197
203.000000	92.579	-34.0688
206.000000	92.534	-34.1737
209.000000	92.482	-34.2186
212.000000	92.433	-34.2882
214.000000	92.399	-34.3711
218.000000	92.352	-34.5255
220.000000	92.321	-34.5554
224.000000	92.261	-34.7449
227.000000	92.217	-34.8380
230.000000	92.187	-34.9421
233.000000	92.155	-35.0154
236.000000	92.130	-35.1054
240.000000	92.093	-35.2126
243.000000	92.060	-35.3152
247.000000	92.014	-35.4453
250.000000	91.983	-35.5060
254.000000	91.932	-35.5796
258.000000	91.880	-35.7247
262.000000	91.830	-35.8311
265.000000	91.791	-35.9138
269.000000	91.745	-36.0134
272.000000	91.710	-36.0969
276.000000	91.668	-36.2215
280.000000	91.631	-36.3411
285.000000	91.581	-36.5412
290.000000	91.535	-36.7096
295.000000	91.484	-36.8568
300.000000	91.445	-37.0735
304.000000	91.413	-37.1931
307.000000	91.387	-37.2972
311.000000	91.344	-37.4270
315.000000	91.308	-37.5669
320.000000	91.262	-37.6974
325.000000	91.210	-37.8851
330.000000	91.160	-38.0451
335.000000	91.112	-38.2257
340.000000	91.071	-38.4208
345.000000	91.022	-38.6112
350.000000	90.977	-38.7754
355.000000	90.934	-38.9913
360.000000	90.889	-39.1998
365.000000	90.849	-39.3915
370.000000	90.799	-39.5862
375.000000	90.760	-39.7468
382.000000	90.699	-40.0334
387.000000	90.652	-40.2421
395.000000	90.587	-40.5239
400.000000	90.547	-40.7126
406.000000	90.496	-40.9700
412.000000	90.435	-41.1907
418.000000	90.395	-41.5355
425.000000	90.330	-41.7808
431.000000	90.273	-42.0347
437.000000	90.229	-42.2575
444.000000	90.151	-42.6124
450.000000	90.088	-42.9908
455.000000	90.002	-43.3146
462.000000	89.835	-43.4558
468.000000	89.745	-42.7620
475.000000	89.742	-42.3109
482.000000	89.794	-42.2397
487.000000	89.801	-42.5696
494.000000	89.757	-42.9948
500.000000	89.716	-43.3097
508.000000	89.641	-43.5686
515.000000	89.582	-43.8483
522.000000	89.516	-44.0414
530.000000	89.448	-44.2968
538.000000	89.374	-44.5122
545.000000	89.317	-44.5770
552.000000	89.218	-44.9020
560.000000	89.183	-44.9516
570.000000	89.079	-45.2689
580.000000	88.996	-45.4271
590.000000	88.897	-45.5920
600.000000	88.805	-45.7240
608.000000	88.733	-45.8615
615.000000	88.673	-45.9587
622.000000	88.615	-46.0215
630.000000	88.549	-46.1017
640.000000	88.465	-46.2007
650.000000	88.385	-46.2851
660.000000	88.297	-46.3597
670.000000	88.228	-46.4076
680.000000	88.138	-46.3971
690.000000	88.064	-46.4173
700.000000	87.972	-46.4164
710.000000	87.899	-46.3674
720.000000	87.816	-46.3026
730.000000	87.739	-46.2853
740.000000	87.659	-46.1556
750.000000	87.580	-46.1223
762.000000	87.497	-46.0166
775.000000	87.399	-45.8484
788.000000	87.307	-45.6950
800.000000	87.224	-45.4920
812.000000	87.150	-45.2588
825.000000	87.063	-45.0196
838.000000	86.987	-44.7819
850.000000	86.915	-44.5741
862.000000	86.854	-44.3181
875.000000	86.784	-44.0032
885.000000	86.741	-43.8402
900.000000	86.672	-43.4771
912.000000	86.622	-43.2081
925.000000	86.575	-42.9439
938.000000	86.542	-42.6131
950.000000	86.505	-42.3190
962.000000	86.489	-42.0949
975.000000	86.445	-41.7431
988.000000	86.422	-41.6032
1000.000000	86.400	-41.2524
1015.000000	86.370	-41.0176
1030.000000	86.357	-40.8883
1044.000000	86.345	-40.5986
1060.000000	86.350	-40.3169
1075.000000	86.355	-40.3944
1090.000000	86.324	-40.2743
1106.000000	86.351	-40.3231
1120.000000	86.366	-40.0249
1138.000000	86.390	-40.5941
1150.000000	86.387	-40.4839
1172.000000	86.320	-40.5213
1180.000000	86.415	-40.2946
1206.000000	86.397	-41.4760
1220.000000	86.340	-40.9756
1241.000000	86.479	-41.3538
1250.000000	86.467	-41.6568
1265.000000	86.409	-41.9546
1280.000000	86.376	-42.2879
1315.000000	86.478	-42.6907
1320.000000	86.413	-42.2827
1340.000000	86.277	-43.1173
1360.000000	86.279	-43.4519
1380.000000	86.191	-44.3152
1400.000000	86.151	-44.0300
1430.000000	86.139	-44.1513
1450.000000	86.001	-43.5542
1475.000000	86.018	-44.8786
1500.000000	85.847	-45.1103
1525.000000	86.015	-44.4882
1550.000000	85.583	-44.8761
1575.000000	85.607	-44.6198
1600.000000	85.547	-44.5546
1625.000000	85.480	-44.4535
1650.000000	85.361	-44.2439
1675.000000	85.469	-44.4916
1700.000000	85.204	-44.6516
1725.000000	85.216	-43.7202
1750.000000	85.101	-42.6391
1775.000000	84.930	-44.0904
1800.000000	85.201	-44.8821
1825.000000	84.791	-44.2068
1850.000000	84.814	-43.0373
1875.000000	84.633	-42.0617
1900.000000	84.491	-42.5348
1925.000000	84.513	-42.8716
1950.000000	84.744	-41.8824
1975.000000	84.359	-41.6805
2000.000000	84.395	-42.0619
2030.000000	84.624	-39.6109
2060.000000	84.275	-40.7015
2090.000000	83.946	-40.5974
2120.000000	84.110	-40.0174
2140.000000	84.121	-39.0950
2180.000000	83.923	-37.5485
2200.000000	83.958	-38.0716
2240.000000	83.994	-36.5958
2270.000000	83.719	-33.9820
2300.000000	83.452	-35.3182
2330.000000	83.677	-31.5113
2360.000000	83.685	-33.2232
2400.000000	83.158	-31.4595
2430.000000	83.565	-29.1690
2470.000000	83.666	-24.1678
2500.000000	83.702	-25.2848
2540.000000	83.419	-24.5882
2580.000000	83.686	-23.3063
2620.000000	83.353	-20.9321
2650.000000	83.589	-21.0083
2690.000000	83.492	-18.5603
2720.000000	83.362	-17.5686
2760.000000	83.460	-18.2545
2800.000000	83.367	-16.7961
2850.000000	83.122	-18.0931
2900.000000	83.325	-12.9708
2950.000000	83.352	-10.5165
3000.000000	83.189	-8.1395
3040.000000	83.317	-7.6140
3070.000000	83.390	-6.1204
3110.000000	83.162	-4.7319
3150.000000	83.518	-4.4129
3200.000000	83.528	-4.6567
3250.000000	83.784	-1.1934
3300.000000	83.449	-0.8555
3350.000000	84.386	-1.0341
3400.000000	84.298	-2.1238
3450.000000	84.769	0.2094
3500.000000	84.317	0.7343
3550.000000	84.576	4.2963
3600.000000	84.303	4.4747
3650.000000	85.236	2.4996
3700.000000	85.474	0.4334
3750.000000	85.599	1.4636
3820.000000	85.885	0.9721
3870.000000	85.783	-1.0034
3950.000000	85.552	3.3276
4000.000000	86.387	1.6685
4060.000000	85.746	0.9299
4120.000000	86.123	-1.3453
4180.000000	86.585	-3.0187
4250.000000	86.098	1.8341
4310.000000	86.765	-2.1771
4370.000000	87.273	0.7228
4440.000000	87.343	-0.4455
4500.000000	87.496	-3.9372
4550.000000	87.588	-4.3092
4620.000000	87.924	-2.4480
4680.000000	87.651	-5.7636
4750.000000	87.940	-8.1665
4820.000000	87.979	-5.8650
4870.000000	88.267	-2.6565
4940.000000	88.699	-6.8638
5000.000000	88.531	-10.6413
5080.000000	88.782	-12.0714
5150.000000	88.957	-10.5949
5220.000000	88.748	-13.3964
5300.000000	89.266	-16.7834
5380.000000	89.595	-15.5740
5450.000000	90.049	-26.6078
5520.000000	90.288	-29.1237
5600.000000	89.454	-31.6859
5700.000000	89.284	-28.5471
5800.000000	89.376	-45.5042
5900.000000	88.722	-47.0807
6000.000000	88.771	-48.6167
6080.000000	89.743	-50.2808
6150.000000	87.611	-46.2589
6220.000000	87.329	-48.4613
6300.000000	86.659	-45.1967
6400.000000	87.457	-48.7363
6500.000000	87.970	-57.0399
6600.000000	86.474	-57.5855
6700.000000	87.709	-53.8945
6800.000000	85.786	-50.5832
6900.000000	87.301	-60.6349
7000.000000	87.782	-55.4489
7100.000000	87.929	-55.5183
7200.000000	86.316	-63.1329
7300.000000	87.296	-44.3039
7400.000000	87.849	-53.3554
7500.000000	89.223	-52.6393
7620.000000	89.274	-46.8355
7750.000000	89.137	-70.8792
7880.000000	90.773	-65.9051
8000.000000	92.130	-67.3067
8120.000000	91.755	-90.2736
8250.000000	89.810	-116.2119
8380.000000	89.665	-105.4639
8500.000000	85.464	-128.7168
8620.000000	85.948	-125.2282
8750.000000	85.096	-126.1032
8850.000000	82.857	-132.2750
9000.000000	81.998	-120.8550
9120.000000	79.654	-131.3085
9250.000000	77.243	-123.8085
9380.000000	76.275	-105.9463
9500.000000	77.308	-106.5963
9620.000000	75.630	-112.8761
9750.000000	74.367	-117.7940
9880.000000	74.001	-93.7534
10000.000000	73.514	-103.7509
10150.000000	73.251	-93.3726
10300.000000	69.074	-85.2082
10440.000000	70.671	-83.5450
10600.000000	70.442	-74.4723
10750.000000	68.217	-72.1045
10900.000000	70.145	-47.6248
11060.000000	68.545	-35.2833
11200.000000	69.858	-34.6795
11380.000000	69.274	-16.9795
11500.000000	68.466	-21.9779
11720.000000	70.544	-25.6341
11800.000000	68.784	1.7839
12060.000000	69.279	3.3775
12200.000000	71.742	-1.2652
12410.000000	70.043	-3.6737
12500.000000	69.613	9.0819
12650.000000	71.682	2.9538
12800.000000	66.121	6.6023
13150.000000	69.594	34.8714
13200.000000	72.451	29.4690
13400.000000	71.501	31.5149
13600.000000	72.893	42.1361
13800.000000	74.482	45.0772
14000.000000	75.286	68.8346
14300.000000	77.692	44.2416
14500.000000	81.073	52.9058
14750.000000	84.268	49.3708
15000.000000	83.904	5.5864
15250.000000	78.835	-3.9870
15500.000000	76.754	-0.8644
15750.000000	74.532	-4.6484
16000.000000	75.820	3.3409
16250.000000	73.773	-6.6802
16500.000000	74.776	21.2057
16750.000000	70.677	22.4665
17000.000000	70.379	24.0223
17250.000000	74.405	54.6283
17500.000000	71.476	33.1508
17750.000000	75.339	30.4676
18000.000000	76.360	72.2235
18250.000000	75.338	53.3490
18500.000000	70.716	24.3268
18750.000000	73.526	41.6736
19000.000000	60.014	69.5423
19250.000000	67.853	96.1674
19500.000000	60.905	116.6325
19750.000000	63.012	55.0696
