* Measurement data measured by REW V5.20 Beta 47
* Source: Headset (USB-C to 3.5mm Headphone Jack Adapter), MICROPHONE (Master Volume), R, volume: 0.000
* Format: 256k Log Swept Sine, 1 sweep at -12.0 dBFS with no timing reference
* Dated: Sep 4, 2020 1:04:58 AM
* REW Settings:
*  C-weighting compensation: Off
*  Target level: 75.0 dB
* Note: ; 
* Measurement: ATH-IEX1 R
* Smoothing: None
* Frequency Step: 1/48 octave
* Start Frequency: 20.000 Hz
*
* Freq(Hz)	SPL(dB)	Phase(degrees)
20.0000	91.7854	161.46
20.3000	91.7670	161.23
20.6000	91.7560	161.08
20.9000	91.7595	160.95
21.2000	91.7810	160.73
21.4000	91.7956	160.49
21.8000	91.8058	159.82
22.0000	91.7941	159.43
22.4000	91.7332	158.69
22.7000	91.6619	158.31
23.0000	91.5907	158.15
23.3000	91.5418	158.13
23.6000	91.5193	158.14
24.0000	91.5194	157.99
24.3000	91.5223	157.70
24.7000	91.5030	157.15
25.0000	91.4654	156.74
25.4000	91.3992	156.31
25.8000	91.3357	156.07
26.2000	91.2910	155.90
26.5000	91.2679	155.75
26.9000	91.2408	155.51
27.2000	91.2221	155.33
27.6000	91.2040	155.07
28.0000	91.1931	154.75
28.5000	91.1747	154.16
29.0000	91.1153	153.50
29.5000	91.0175	153.07
30.0000	90.9329	153.06
30.4000	90.9121	153.15
30.7000	90.9210	153.14
31.1000	90.9394	152.89
31.5000	90.9378	152.44
32.0000	90.8921	151.90
32.5000	90.8312	151.58
33.0000	90.7904	151.39
33.5000	90.7652	151.13
34.0000	90.7280	150.78
34.5000	90.6818	150.50
35.0000	90.6443	150.32
35.5000	90.6265	150.09
36.0000	90.6051	149.69
36.5000	90.5538	149.22
37.0000	90.4773	148.91
37.5000	90.4113	148.83
38.2000	90.3756	148.76
38.7000	90.3676	148.47
39.5000	90.3016	147.78
40.0000	90.2316	147.54
40.6000	90.1695	147.48
41.2000	90.1571	147.36
41.8000	90.1543	146.91
42.5000	90.0930	146.16
43.1000	89.9964	145.75
43.7000	89.9149	145.65
44.4000	89.8735	145.55
45.0000	89.8453	145.22
45.5000	89.7928	144.92
46.2000	89.7130	144.92
46.8000	89.7231	145.07
47.5000	89.7846	144.46
48.2000	89.7165	143.30
48.7000	89.5893	142.88
49.4000	89.4696	143.09
50.0000	89.4554	143.06
50.8000	89.3726	142.40
51.5000	89.2422	142.45
52.2000	89.2234	142.74
53.0000	89.2247	142.16
53.8000	89.0958	141.67
54.5000	89.0222	141.86
55.2000	89.0194	141.70
56.0000	88.9551	141.12
57.0000	88.8338	140.95
58.0000	88.7663	140.64
59.0000	88.6465	140.40
60.0000	88.6014	140.38
60.8000	88.5634	139.91
61.5000	88.4885	139.57
62.2000	88.4257	139.45
63.0000	88.3860	139.26
64.0000	88.3164	138.88
65.0000	88.2349	138.74
66.0000	88.1790	138.62
67.0000	88.1006	138.30
68.0000	87.9937	138.21
69.0000	87.9282	138.04
70.0000	87.8288	137.68
71.0000	87.7587	137.48
72.0000	87.6844	136.93
73.0000	87.5722	136.89
74.0000	87.5823	137.06
75.0000	87.5895	136.40
76.2000	87.4167	135.86
77.5000	87.2619	136.26
78.8000	87.1591	136.47
80.0000	87.1664	136.64
81.2000	87.2383	135.08
82.5000	86.9351	134.03
83.8000	86.8866	134.81
85.0000	86.8086	135.44
86.2000	86.7219	135.62
87.5000	86.6530	137.18
88.5000	86.4645	134.27
90.0000	85.7384	140.77
91.2000	86.5831	136.80
92.5000	85.9420	134.66
93.8000	86.2342	133.84
95.0000	86.1175	132.71
96.2000	86.0454	132.28
97.5000	85.8070	133.63
98.8000	85.8124	134.99
100.0000	85.8053	134.38
101.5000	85.4596	133.36
103.0000	85.2717	133.80
104.4000	85.2684	135.10
106.0000	85.6440	134.73
107.5000	85.6327	133.48
109.0000	85.4196	132.73
110.6000	85.3150	132.99
112.0000	85.3125	132.31
113.8000	85.1942	131.51
115.0000	85.1861	131.73
117.2000	84.9006	131.28
118.0000	84.7924	131.87
120.6000	84.3874	131.08
122.0000	84.3101	131.15
124.1000	84.5640	129.78
125.0000	84.6154	130.60
126.5000	84.6151	130.74
128.0000	84.6885	135.29
131.5000	84.0742	134.54
132.0000	83.7748	135.15
134.0000	83.6001	130.49
136.0000	83.3163	130.09
138.0000	83.8096	129.09
140.0000	83.7872	127.89
143.0000	83.8676	131.71
145.0000	83.4864	130.83
147.5000	83.2635	131.36
150.0000	83.1820	132.36
152.5000	83.0903	133.13
155.0000	82.7765	132.58
157.5000	82.6638	131.29
160.0000	82.7199	131.01
162.5000	82.6391	131.20
165.0000	82.5624	132.77
167.5000	82.3884	133.37
170.0000	82.2885	133.17
172.5000	82.1380	133.39
175.0000	82.0128	133.59
177.5000	81.8426	133.25
180.0000	81.6635	133.04
182.5000	81.6330	132.94
185.0000	81.7256	134.73
187.5000	81.4623	133.92
190.0000	81.3450	133.65
192.5000	81.2971	133.40
195.0000	81.2080	133.96
197.5000	81.0734	134.11
200.0000	81.0235	134.02
203.0000	80.9432	134.70
206.0000	80.8050	134.97
209.0000	80.6225	134.61
212.0000	80.5872	135.04
214.0000	80.5148	135.34
218.0000	80.3928	135.52
220.0000	80.2945	135.60
224.0000	80.1637	135.97
227.0000	80.0657	136.12
230.0000	79.9987	136.32
233.0000	79.9068	136.55
236.0000	79.8484	136.86
240.0000	79.7241	137.25
243.0000	79.5819	137.32
247.0000	79.4961	137.87
250.0000	79.3888	138.18
254.0000	79.2742	138.44
258.0000	79.1717	139.31
262.0000	79.0628	139.00
265.0000	78.9842	139.02
269.0000	78.8712	139.75
272.0000	78.7948	140.13
276.0000	78.7153	140.62
280.0000	78.5746	141.02
285.0000	78.4726	141.45
290.0000	78.3536	141.87
295.0000	78.2554	142.61
300.0000	78.0486	143.34
304.0000	77.9933	143.82
307.0000	77.9367	143.68
311.0000	77.8741	144.34
315.0000	77.7921	144.84
320.0000	77.6701	145.28
325.0000	77.5718	146.07
330.0000	77.4328	147.08
335.0000	77.3863	146.80
340.0000	77.2919	147.71
345.0000	77.1795	148.09
350.0000	77.0946	149.02
355.0000	77.0060	149.35
360.0000	76.9580	150.41
365.0000	76.8240	150.63
370.0000	76.7490	151.67
375.0000	76.6607	152.25
382.0000	76.6112	152.64
387.0000	76.4792	153.13
395.0000	76.3969	154.33
400.0000	76.3128	155.27
406.0000	76.2621	156.32
412.0000	76.1959	157.12
418.0000	76.1302	157.99
425.0000	76.0475	158.88
431.0000	75.9614	159.47
437.0000	75.9539	160.44
444.0000	75.8410	161.55
450.0000	75.8363	162.36
455.0000	75.7922	162.96
462.0000	75.7336	163.85
468.0000	75.7300	164.51
475.0000	75.6604	165.32
482.0000	75.6162	166.38
487.0000	75.5625	167.11
494.0000	75.5673	168.02
500.0000	75.6180	168.97
508.0000	75.5553	169.78
515.0000	75.5305	170.93
522.0000	75.5139	171.87
530.0000	75.5351	173.06
538.0000	75.5068	174.08
545.0000	75.5161	175.14
552.0000	75.5264	175.86
560.0000	75.5450	177.07
570.0000	75.5692	178.49
580.0000	75.6015	179.72
590.0000	75.6450	-178.99
600.0000	75.6709	-177.60
608.0000	75.7354	-176.32
615.0000	75.7828	-175.63
622.0000	75.8447	-174.89
630.0000	75.9226	-173.89
640.0000	75.9906	-172.91
650.0000	76.0905	-171.68
660.0000	76.2209	-170.51
670.0000	76.3292	-169.58
680.0000	76.4704	-168.57
690.0000	76.5916	-167.79
700.0000	76.7224	-167.07
710.0000	76.8474	-166.75
720.0000	76.9093	-166.41
730.0000	76.9540	-166.04
740.0000	76.9442	-165.37
750.0000	76.9665	-164.45
762.0000	76.9809	-163.14
775.0000	77.0751	-161.79
788.0000	77.1645	-160.34
800.0000	77.2408	-158.76
812.0000	77.3969	-157.08
825.0000	77.6009	-155.47
838.0000	77.8212	-154.01
850.0000	78.0386	-152.95
862.0000	78.2492	-152.01
875.0000	78.4667	-151.06
885.0000	78.6358	-150.34
900.0000	78.8806	-149.26
912.0000	79.0757	-148.32
925.0000	79.3148	-147.36
938.0000	79.5835	-146.33
950.0000	79.8224	-145.45
962.0000	80.1103	-144.68
975.0000	80.4121	-144.07
988.0000	80.7488	-143.46
1000.0000	81.0970	-143.11
1015.0000	81.3682	-143.11
1030.0000	81.6902	-143.08
1044.0000	81.9825	-143.22
1060.0000	82.3084	-143.39
1075.0000	82.5791	-143.49
1090.0000	82.8471	-143.61
1106.0000	83.1539	-143.55
1120.0000	83.4311	-143.38
1138.0000	83.8363	-143.24
1150.0000	84.1320	-143.37
1172.0000	84.7037	-143.98
1180.0000	84.8987	-144.34
1206.0000	85.5348	-145.88
1220.0000	85.8520	-146.95
1241.0000	86.2950	-148.66
1250.0000	86.4882	-149.47
1265.0000	86.7824	-150.83
1280.0000	87.0575	-152.31
1315.0000	87.6393	-155.89
1320.0000	87.7121	-156.43
1340.0000	87.9928	-158.60
1360.0000	88.2512	-160.83
1380.0000	88.4744	-163.10
1400.0000	88.6733	-165.38
1430.0000	88.9133	-168.77
1450.0000	89.0414	-171.04
1475.0000	89.1623	-173.74
1500.0000	89.2528	-176.38
1525.0000	89.2888	-178.84
1550.0000	89.3099	178.79
1575.0000	89.3060	176.61
1600.0000	89.2761	174.55
1625.0000	89.2363	172.73
1650.0000	89.1774	171.06
1675.0000	89.1135	169.56
1700.0000	89.0356	168.25
1725.0000	88.9625	167.13
1750.0000	88.8848	166.10
1775.0000	88.8010	165.20
1800.0000	88.7297	164.62
1825.0000	88.6446	163.87
1850.0000	88.5806	163.39
1875.0000	88.5172	163.05
1900.0000	88.4667	162.77
1925.0000	88.4128	162.54
1950.0000	88.3761	162.41
1975.0000	88.3171	162.40
2000.0000	88.2266	162.15
2030.0000	88.2759	162.49
2060.0000	88.2847	162.72
2090.0000	88.3031	162.83
2120.0000	88.3240	162.95
2140.0000	88.3419	163.16
2180.0000	88.3723	163.45
2200.0000	88.3940	163.78
2240.0000	88.4761	164.24
2270.0000	88.5456	164.02
2300.0000	88.6140	164.02
2330.0000	88.7245	163.74
2360.0000	88.8294	163.54
2400.0000	89.0062	163.52
2430.0000	89.1385	163.72
2470.0000	89.3518	163.85
2500.0000	89.5294	163.94
2540.0000	89.7654	164.08
2580.0000	90.0317	163.65
2620.0000	90.2638	163.40
2650.0000	90.4583	163.12
2690.0000	90.7449	162.63
2720.0000	90.9587	162.10
2760.0000	91.2554	161.19
2800.0000	91.5711	160.03
2850.0000	91.9452	158.02
2900.0000	92.3084	155.37
2950.0000	92.6220	152.09
3000.0000	92.8054	148.54
3040.0000	92.8508	145.10
3070.0000	92.8869	142.65
3110.0000	92.7958	139.96
3150.0000	92.6193	137.36
3200.0000	92.5291	134.44
3250.0000	92.3347	132.07
3300.0000	92.1308	128.28
3350.0000	91.8457	126.65
3400.0000	91.6014	123.67
3450.0000	91.2836	121.50
3500.0000	91.0186	119.55
3550.0000	90.6439	117.61
3600.0000	90.2160	115.48
3650.0000	89.8039	114.00
3700.0000	89.3703	112.90
3750.0000	88.9312	112.05
3820.0000	88.2747	111.47
3870.0000	87.8649	111.53
3950.0000	87.1490	111.96
4000.0000	86.7427	112.25
4060.0000	86.3242	113.37
4120.0000	85.9161	114.19
4180.0000	85.4570	114.97
4250.0000	85.0416	116.62
4310.0000	84.7054	117.54
4370.0000	84.3212	118.97
4440.0000	83.9635	120.68
4500.0000	83.4627	121.46
4550.0000	83.2809	123.10
4620.0000	82.9436	125.59
4680.0000	82.7762	127.94
4750.0000	82.4449	129.82
4820.0000	81.9416	132.27
4870.0000	81.7839	134.24
4940.0000	81.4664	136.85
5000.0000	81.4381	138.00
5080.0000	81.0849	140.90
5150.0000	80.8259	144.71
5220.0000	80.7863	147.13
5300.0000	80.6225	150.93
5380.0000	80.3834	154.70
5450.0000	80.4458	157.20
5520.0000	80.1725	160.77
5600.0000	80.0754	164.60
5700.0000	80.1232	169.39
5800.0000	80.1744	173.88
5900.0000	80.3473	179.37
6000.0000	80.4809	-176.75
6080.0000	80.6680	-173.73
6150.0000	80.7496	-171.83
6220.0000	80.9551	-168.71
6300.0000	81.1886	-165.96
6400.0000	81.5241	-162.14
6500.0000	81.9256	-158.28
6600.0000	82.3125	-155.20
6700.0000	82.6935	-151.93
6800.0000	83.3090	-148.92
6900.0000	83.9858	-146.02
7000.0000	84.7267	-143.90
7100.0000	85.4511	-141.57
7200.0000	86.3783	-140.66
7300.0000	87.3241	-139.90
7400.0000	88.4812	-140.39
7500.0000	89.5416	-142.65
7620.0000	90.8954	-146.93
7750.0000	92.1365	-155.93
7880.0000	92.8172	-167.23
8000.0000	92.6554	-178.76
8120.0000	91.9977	171.45
8250.0000	90.9107	164.53
8380.0000	89.7171	160.46
8500.0000	88.7708	159.43
8620.0000	87.8828	158.99
8750.0000	87.0407	160.09
8850.0000	86.6057	161.25
9000.0000	85.8992	163.17
9120.0000	85.5099	164.98
9250.0000	85.1874	166.23
9380.0000	84.9686	167.76
9500.0000	84.8622	168.59
9620.0000	84.7410	169.27
9750.0000	84.6876	169.44
9880.0000	84.6479	168.82
10000.0000	84.5711	166.61
10150.0000	84.4600	163.68
10300.0000	84.0400	160.48
10440.0000	83.5162	157.60
10600.0000	82.6944	154.18
10750.0000	81.8556	152.47
10900.0000	80.9045	152.11
11060.0000	79.9133	152.62
11200.0000	79.0663	153.47
11380.0000	78.1000	155.89
11500.0000	77.5026	157.72
11720.0000	76.6075	162.29
11800.0000	76.3235	163.84
12060.0000	75.6140	169.47
12200.0000	75.2838	172.10
12410.0000	75.1493	176.41
12500.0000	75.1399	177.88
12650.0000	75.2222	-179.87
12800.0000	75.3806	-177.93
13150.0000	75.9911	-178.95
13200.0000	76.1045	-179.95
13400.0000	76.2590	174.74
13600.0000	75.8844	166.12
13800.0000	74.4316	157.47
14000.0000	72.0018	152.91
14300.0000	67.5168	165.54
14500.0000	66.1195	-168.86
14750.0000	68.8479	-146.29
15000.0000	71.5137	-145.54
15250.0000	72.7589	-152.48
15500.0000	72.9833	-157.93
15750.0000	73.1404	-160.43
16000.0000	73.7613	-161.99
16250.0000	75.0856	-164.93
16500.0000	75.0816	-171.80
16750.0000	79.6385	-177.03
17000.0000	84.9064	143.09
17250.0000	83.8908	61.34
17500.0000	75.9671	12.69
17750.0000	68.1490	-11.80
18000.0000	60.8950	-27.74
18250.0000	54.6956	-33.78
18500.0000	49.3976	-50.34
18750.0000	45.4318	-49.50
19000.0000	41.3791	-56.84
19250.0000	39.7824	-70.16
19500.0000	37.0478	-77.73
19750.0000	34.8212	-81.82
