* Measurement data measured by REW V5.20 Beta 47
* Source: Microphone (Realtek Audio), MICROPHONE (Master Volume), R, volume: 0.250
* Format: 256k Log Swept Sine, 1 sweep at -12.0 dBFS with no timing reference
* Dated: Aug 14, 2020 9:03:47 AM
* REW Settings:
*  C-weighting compensation: Off
*  Target level: 75.0 dB
* Note: ; 
* Measurement: ATH-E50 L
* Smoothing: None
* Frequency Step: 1/48 octave
* Start Frequency: 20.000 Hz
*
* Freq(Hz)	SPL(dB)	Phase(degrees)
20.0000	86.9978	-170.90
20.3000	87.0059	-170.68
20.6000	87.0622	-170.64
20.9000	87.1427	-170.94
21.2000	87.2092	-171.64
21.4000	87.2237	-172.23
21.8000	87.1728	-173.40
22.0000	87.1182	-173.79
22.4000	87.0091	-173.91
22.7000	86.9718	-173.48
23.0000	87.0156	-172.89
23.3000	87.1387	-172.46
23.6000	87.3020	-172.42
24.0000	87.5057	-173.04
24.3000	87.6020	-173.76
24.7000	87.6411	-174.64
25.0000	87.6261	-174.99
25.4000	87.5999	-174.92
25.8000	87.6221	-174.45
26.2000	87.6954	-173.98
26.5000	87.7627	-173.75
26.9000	87.8479	-173.56
27.2000	87.9034	-173.45
27.6000	87.9836	-173.28
28.0000	88.0938	-173.22
28.5000	88.2505	-173.77
29.0000	88.3262	-175.11
29.5000	88.2272	-176.74
30.0000	87.9678	-177.55
30.4000	87.7478	-177.17
30.7000	87.6444	-176.34
31.1000	87.6435	-175.10
31.5000	87.7692	-174.41
32.0000	87.9397	-174.81
32.5000	87.9582	-175.91
33.0000	87.8214	-176.32
33.5000	87.7327	-175.37
34.0000	87.8717	-174.22
34.5000	88.1305	-174.44
35.0000	88.2536	-175.99
35.5000	88.1528	-177.22
36.0000	88.0343	-177.10
36.5000	88.1094	-176.70
37.0000	88.2578	-177.86
37.5000	88.1400	179.73
38.2000	87.4257	178.97
38.7000	87.0662	-177.55
39.5000	87.6340	-172.95
40.0000	88.0771	-173.94
40.6000	88.2018	-176.35
41.2000	88.1030	-177.22
41.8000	88.1098	-177.06
42.5000	88.2020	-177.38
43.1000	88.2120	-177.69
43.7000	88.2324	-177.63
44.4000	88.2897	-177.74
45.0000	88.2841	-177.98
45.5000	88.2546	-177.95
46.2000	88.2404	-177.72
46.8000	88.2379	-177.67
47.5000	88.2208	-177.61
48.2000	88.2315	-177.55
48.7000	88.2562	-177.68
49.4000	88.2756	-178.15
50.0000	88.2567	-178.58
50.8000	88.2083	-178.71
51.5000	88.2418	-178.47
52.2000	88.3150	-178.69
53.0000	88.2621	-178.90
53.8000	88.2657	-177.66
54.5000	88.4899	-177.25
55.2000	88.5868	-178.50
56.0000	88.3901	-179.16
57.0000	88.3343	-178.20
58.0000	88.3385	-178.92
59.0000	88.2229	-178.98
60.0000	88.2650	-179.27
60.8000	88.2321	-179.71
61.5000	88.2264	-179.56
62.2000	88.2891	-179.49
63.0000	88.3339	-179.70
64.0000	88.3381	-179.56
65.0000	88.3746	-179.33
66.0000	88.3967	-179.26
67.0000	88.4412	-179.76
68.0000	88.3218	179.28
69.0000	88.2317	179.37
70.0000	88.1760	178.74
71.0000	88.0609	179.96
72.0000	88.4339	-179.58
73.0000	88.4449	178.34
74.0000	88.2748	179.25
75.0000	88.4006	179.87
76.2000	88.4020	179.95
77.5000	88.4039	179.73
78.8000	88.3238	179.80
80.0000	88.3199	179.67
81.2000	88.3201	179.50
82.5000	88.3427	179.42
83.8000	88.3743	179.20
85.0000	88.3740	179.34
86.2000	88.3574	179.26
87.5000	88.3675	179.52
88.5000	88.2797	178.77
90.0000	88.2164	-179.33
91.2000	88.4099	179.29
92.5000	88.2935	179.01
93.8000	88.3220	178.52
95.0000	88.3155	178.79
96.2000	88.3864	178.35
97.5000	88.3258	178.29
98.8000	88.3637	178.42
100.0000	88.3008	178.26
101.5000	88.3437	178.83
103.0000	88.3211	178.43
104.4000	88.2765	178.50
106.0000	88.3120	178.79
107.5000	88.2578	178.40
109.0000	88.3663	178.43
110.6000	88.2557	177.67
112.0000	88.3463	177.82
113.8000	88.2116	177.76
115.0000	88.3275	178.07
117.2000	88.2919	178.01
118.0000	88.3429	177.70
120.6000	88.2762	177.80
122.0000	88.2762	177.31
124.1000	88.2555	177.32
125.0000	88.2706	177.30
126.5000	88.2161	177.01
128.0000	88.2047	177.46
131.5000	88.1870	176.99
132.0000	88.1765	176.97
134.0000	88.1990	176.93
136.0000	88.1761	176.96
138.0000	88.1486	176.75
140.0000	88.0754	177.01
143.0000	88.0304	176.81
145.0000	88.0275	176.62
147.5000	88.0788	176.68
150.0000	88.0264	176.43
152.5000	88.0227	176.52
155.0000	87.9876	176.28
157.5000	88.0101	176.25
160.0000	88.0046	176.10
162.5000	87.9720	176.11
165.0000	87.9565	176.48
167.5000	87.9722	175.81
170.0000	87.9764	175.83
172.5000	87.9354	176.18
175.0000	87.7107	176.28
177.5000	87.8464	175.81
180.0000	87.8497	175.75
182.5000	87.8324	175.89
185.0000	87.7733	175.96
187.5000	87.7714	175.72
190.0000	87.7644	175.71
192.5000	87.7308	175.52
195.0000	87.7093	175.60
197.5000	87.6903	175.24
200.0000	87.6689	175.33
203.0000	87.6272	175.18
206.0000	87.5916	174.92
209.0000	87.5882	175.00
212.0000	87.5455	175.11
214.0000	87.5117	175.02
218.0000	87.4930	174.86
220.0000	87.4982	174.88
224.0000	87.4093	175.02
227.0000	87.4086	175.03
230.0000	87.3916	174.84
233.0000	87.4008	174.92
236.0000	87.3624	174.80
240.0000	87.3282	174.77
243.0000	87.2985	174.80
247.0000	87.2607	174.98
250.0000	87.2259	174.88
254.0000	87.1959	174.75
258.0000	87.1736	174.57
262.0000	87.1079	174.62
265.0000	87.0695	174.67
269.0000	87.0192	174.66
272.0000	86.9936	174.77
276.0000	86.9390	174.77
280.0000	86.9300	174.82
285.0000	86.8589	174.85
290.0000	86.8099	174.70
295.0000	86.7806	174.85
300.0000	86.7325	174.88
304.0000	86.6923	175.00
307.0000	86.6698	174.99
311.0000	86.6115	174.95
315.0000	86.5604	174.98
320.0000	86.5539	175.10
325.0000	86.5330	175.05
330.0000	86.4987	175.17
335.0000	86.4577	175.27
340.0000	86.4310	175.35
345.0000	86.3512	175.40
350.0000	86.3516	175.41
355.0000	86.2580	175.68
360.0000	86.2389	175.65
365.0000	86.1803	175.83
370.0000	86.1390	175.93
375.0000	86.0603	176.01
382.0000	86.0277	176.09
387.0000	85.9413	176.32
395.0000	85.8950	176.42
400.0000	85.8351	176.63
406.0000	85.7838	176.70
412.0000	85.7387	176.89
418.0000	85.6748	177.04
425.0000	85.6282	177.57
431.0000	85.5980	177.53
437.0000	85.5437	177.62
444.0000	85.5334	177.86
450.0000	85.4541	177.98
455.0000	85.4345	178.36
462.0000	85.3576	178.50
468.0000	85.2617	178.66
475.0000	85.2738	178.70
482.0000	85.2051	179.26
487.0000	85.2011	179.40
494.0000	85.1037	179.80
500.0000	85.0741	179.92
508.0000	85.0138	-179.87
515.0000	84.9657	-179.47
522.0000	84.9243	-179.27
530.0000	84.8517	-179.17
538.0000	84.8157	-178.69
545.0000	84.7224	-178.55
552.0000	84.7274	-178.62
560.0000	84.6301	-178.04
570.0000	84.5517	-177.18
580.0000	84.5010	-176.78
590.0000	84.4164	-176.33
600.0000	84.3485	-175.83
608.0000	84.2925	-175.38
615.0000	84.2772	-175.09
622.0000	84.2404	-174.70
630.0000	84.1794	-174.04
640.0000	84.1752	-173.58
650.0000	84.1114	-173.24
660.0000	84.0449	-172.84
670.0000	84.0051	-172.24
680.0000	83.9936	-171.68
690.0000	83.9112	-171.02
700.0000	83.8991	-170.38
710.0000	83.8122	-169.87
720.0000	83.8089	-169.44
730.0000	83.7658	-168.74
740.0000	83.7073	-168.09
750.0000	83.6696	-167.48
762.0000	83.6367	-166.78
775.0000	83.5801	-165.58
788.0000	83.5564	-165.03
800.0000	83.5201	-164.45
812.0000	83.5051	-163.60
825.0000	83.5246	-162.67
838.0000	83.4967	-161.88
850.0000	83.4554	-160.93
862.0000	83.4273	-160.18
875.0000	83.4196	-159.24
885.0000	83.4082	-158.81
900.0000	83.3835	-157.65
912.0000	83.3972	-156.79
925.0000	83.4623	-155.98
938.0000	83.4496	-155.44
950.0000	83.4934	-154.50
962.0000	83.4967	-153.83
975.0000	83.5238	-152.91
988.0000	83.5361	-152.19
1000.0000	83.5931	-151.48
1015.0000	83.6113	-150.73
1030.0000	83.6970	-149.84
1044.0000	83.7684	-149.33
1060.0000	83.8058	-148.44
1075.0000	83.8948	-147.79
1090.0000	83.9771	-147.35
1106.0000	84.0362	-146.53
1120.0000	84.1395	-146.22
1138.0000	84.1971	-145.69
1150.0000	84.3128	-145.13
1172.0000	84.3949	-144.95
1180.0000	84.4323	-144.87
1206.0000	84.5546	-144.45
1220.0000	84.5773	-144.23
1241.0000	84.7175	-143.67
1250.0000	84.7534	-143.78
1265.0000	84.8060	-143.73
1280.0000	84.8679	-143.50
1315.0000	85.0269	-143.51
1320.0000	85.0446	-143.07
1340.0000	85.1004	-143.21
1360.0000	85.1397	-143.09
1380.0000	85.1627	-142.82
1400.0000	85.1976	-142.54
1430.0000	85.2859	-142.43
1450.0000	85.3257	-142.02
1475.0000	85.3766	-142.13
1500.0000	85.4226	-141.52
1525.0000	85.4716	-141.57
1550.0000	85.5096	-140.90
1575.0000	85.5444	-140.59
1600.0000	85.6241	-140.19
1625.0000	85.6663	-140.00
1650.0000	85.7512	-139.61
1675.0000	85.8073	-139.35
1700.0000	85.8565	-139.06
1725.0000	85.9239	-138.70
1750.0000	86.0012	-138.52
1775.0000	86.0507	-138.07
1800.0000	86.0961	-137.73
1825.0000	86.1517	-137.55
1850.0000	86.2538	-137.22
1875.0000	86.3201	-137.10
1900.0000	86.3510	-136.61
1925.0000	86.4456	-136.61
1950.0000	86.5215	-136.48
1975.0000	86.5350	-136.33
2000.0000	86.5866	-136.23
2030.0000	86.6303	-136.28
2060.0000	86.6861	-136.14
2090.0000	86.7034	-136.15
2120.0000	86.7931	-135.95
2140.0000	86.7316	-135.92
2180.0000	86.7701	-135.53
2200.0000	86.7971	-135.32
2240.0000	86.8438	-135.00
2270.0000	86.8801	-134.36
2300.0000	86.9011	-133.75
2330.0000	87.0115	-133.05
2360.0000	87.1251	-132.52
2400.0000	87.2864	-131.97
2430.0000	87.4190	-131.68
2470.0000	87.5806	-131.29
2500.0000	87.7236	-131.30
2540.0000	87.9404	-131.20
2580.0000	88.1424	-131.71
2620.0000	88.2955	-132.01
2650.0000	88.4422	-132.35
2690.0000	88.6103	-133.06
2720.0000	88.7520	-133.53
2760.0000	88.8812	-134.41
2800.0000	88.9661	-135.41
2850.0000	89.0787	-136.82
2900.0000	89.1603	-138.20
2950.0000	89.2350	-139.64
3000.0000	89.2911	-141.08
3040.0000	89.2831	-142.11
3070.0000	89.2905	-142.92
3110.0000	89.2996	-143.96
3150.0000	89.3067	-145.38
3200.0000	89.2656	-147.08
3250.0000	89.1795	-148.73
3300.0000	89.0663	-150.18
3350.0000	88.9041	-151.52
3400.0000	88.7715	-152.81
3450.0000	88.6406	-153.98
3500.0000	88.4987	-154.82
3550.0000	88.3506	-155.68
3600.0000	88.2305	-156.34
3650.0000	88.0590	-157.19
3700.0000	87.9654	-157.55
3750.0000	87.8345	-157.86
3820.0000	87.6680	-158.46
3870.0000	87.5871	-158.77
3950.0000	87.3674	-159.46
4000.0000	87.2430	-159.97
4060.0000	87.1248	-160.13
4120.0000	86.8857	-160.67
4180.0000	86.8240	-160.77
4250.0000	86.6754	-161.01
4310.0000	86.5677	-160.91
4370.0000	86.4373	-161.14
4440.0000	86.3365	-161.08
4500.0000	86.2825	-161.42
4550.0000	86.2624	-161.32
4620.0000	86.1940	-161.50
4680.0000	86.1604	-161.74
4750.0000	86.0964	-162.05
4820.0000	86.0291	-162.61
4870.0000	85.9830	-163.07
4940.0000	85.9507	-163.45
5000.0000	85.9323	-163.89
5080.0000	85.8247	-164.40
5150.0000	85.7033	-165.01
5220.0000	85.5977	-165.31
5300.0000	85.5024	-166.28
5380.0000	85.3446	-166.46
5450.0000	85.3520	-166.77
5520.0000	85.2505	-166.88
5600.0000	85.1095	-167.29
5700.0000	84.8818	-167.78
5800.0000	84.7479	-168.24
5900.0000	84.5779	-168.40
6000.0000	84.4116	-168.83
6080.0000	84.2710	-169.33
6150.0000	84.1563	-169.37
6220.0000	84.0591	-168.50
6300.0000	83.9077	-168.61
6400.0000	83.7427	-168.15
6500.0000	83.6441	-167.76
6600.0000	83.6889	-167.41
6700.0000	83.6409	-166.80
6800.0000	83.7970	-165.84
6900.0000	83.8729	-165.35
7000.0000	84.0785	-165.00
7100.0000	84.5058	-164.53
7200.0000	84.6887	-164.65
7300.0000	85.1435	-163.87
7400.0000	85.8600	-164.19
7500.0000	86.4182	-165.65
7620.0000	87.2479	-167.78
7750.0000	88.2663	-172.96
7880.0000	89.2859	-178.61
8000.0000	90.2307	171.48
8120.0000	90.7615	158.55
8250.0000	90.6192	143.09
8380.0000	89.7677	127.09
8500.0000	88.4044	116.37
8620.0000	86.8664	108.59
8750.0000	85.1289	102.86
8850.0000	84.0478	100.45
9000.0000	82.3181	97.65
9120.0000	81.0668	96.56
9250.0000	79.9407	95.79
9380.0000	78.8578	95.47
9500.0000	78.1099	94.90
9620.0000	77.3528	94.32
9750.0000	76.1169	94.06
9880.0000	75.2098	94.29
10000.0000	74.5163	95.72
10150.0000	73.5375	94.57
10300.0000	73.1055	96.76
10440.0000	71.9397	98.53
10600.0000	70.9490	97.87
10750.0000	69.9053	98.41
10900.0000	69.0964	100.89
11060.0000	68.3686	102.12
11200.0000	67.4477	103.57
11380.0000	66.6218	103.03
11500.0000	66.6823	106.98
11720.0000	65.1640	113.68
11800.0000	64.5336	116.01
12060.0000	63.6038	122.24
12200.0000	63.9008	117.79
12410.0000	63.7669	132.80
12500.0000	63.3323	129.64
12650.0000	62.4858	134.88
12800.0000	62.8408	141.70
13150.0000	62.5088	147.47
13200.0000	62.5770	148.37
13400.0000	63.8448	149.98
13600.0000	64.3660	158.40
13800.0000	64.9700	162.60
14000.0000	65.3865	164.40
14300.0000	67.6806	164.93
14500.0000	69.4079	163.12
14750.0000	71.2879	159.15
15000.0000	73.2652	145.08
15250.0000	74.2994	127.26
15500.0000	73.8973	108.40
15750.0000	73.6571	94.73
16000.0000	73.5211	78.97
16250.0000	72.2238	55.81
16500.0000	69.5823	34.37
16750.0000	66.4707	25.94
17000.0000	63.4302	26.08
17250.0000	59.8551	23.29
17500.0000	60.0316	32.29
17750.0000	55.6627	31.95
18000.0000	53.8476	34.28
18250.0000	55.8113	51.12
18500.0000	52.0780	37.83
18750.0000	46.2096	30.36
19000.0000	40.6552	-17.76
19250.0000	38.1219	24.41
19500.0000	45.1944	47.12
19750.0000	31.9095	21.78
