* Measurement data measured by REW V5.20 Beta 60
* Source: Headset (USB-C to 3.5mm Headphone Jack Adapter), MICROPHONE (Master Volume), R, volume: 0.258
* Format: 256k Log Swept Sine, 1 sweep at -10.0 dBFS with no timing reference
* Dated: Dec 19, 2021 5:31:57 PM
* REW Settings:
*  C-weighting compensation: Off
*  Target level: 75.0 dB
* Note: ; 
* Measurement: 82 Ohm R
* Smoothing: None
* Frequency Step: 1/48 octave
* Start Frequency: 20.000 Hz
*
* Freq(Hz)	SPL(dB)	Phase(degrees)
20.000000	80.824127	3.0422
20.299999	80.924995	3.8512
20.600000	81.104218	4.1459
20.900000	81.301941	3.8046
21.200001	81.465775	2.9375
21.400000	81.537140	2.2323
21.799999	81.588158	0.8476
22.000000	81.576729	0.3223
22.400000	81.521355	-0.1874
22.700001	81.488205	-0.0637
23.000000	81.495605	0.3370
23.299999	81.547241	0.7570
23.600000	81.618576	1.0471
24.000000	81.692017	1.1967
24.299999	81.703629	1.3304
24.700001	81.678162	1.9442
25.000000	81.685684	2.8327
25.400000	81.818954	4.1704
25.799999	82.089790	4.6454
26.200001	82.347519	3.4464
26.500000	82.404678	1.5873
26.900000	82.183212	-1.2859
27.200001	81.783676	-2.7627
27.600000	81.061470	-2.4200
28.000000	80.491142	1.3165
28.500000	80.589966	7.6736
29.000000	81.350426	9.9216
29.500000	81.983978	7.3438
30.000000	82.116425	3.2179
30.400000	81.940804	0.8377
30.700001	81.759949	0.1015
31.100000	81.618095	0.2054
31.500000	81.650116	0.5684
32.000000	81.802727	0.1905
32.500000	81.870621	-0.8222
33.000000	81.833946	-1.1835
33.500000	81.862427	-0.6238
34.000000	82.033859	-0.3318
34.500000	82.179863	-1.2125
35.000000	82.107086	-2.4874
35.500000	81.856934	-2.5642
36.000000	81.698677	-1.0606
36.500000	81.796936	0.3551
37.000000	81.968155	0.0812
37.500000	81.954994	-1.3583
38.200001	81.628143	-2.3287
38.700001	81.450951	-1.6865
39.500000	81.444946	-1.1434
40.000000	81.436127	-1.3494
40.599998	81.429726	-1.3104
41.200001	81.517456	-1.5289
41.799999	81.528175	-2.4519
42.500000	81.329773	-2.3429
43.099998	81.329330	-0.5238
43.700001	81.566254	0.2908
44.400002	81.640640	-0.4301
45.000000	81.503120	0.3567
45.500000	81.592926	1.9555
46.200001	81.984840	1.8213
46.799999	82.012634	-0.6373
47.500000	81.602859	-1.5989
48.200001	81.453934	0.2530
48.700001	81.599174	0.6469
49.400002	81.665817	-0.5976
50.000000	81.570374	-0.9286
50.799999	81.687866	-0.8727
51.500000	81.767166	-2.7391
52.200001	81.467392	-4.0742
53.000000	81.183151	-2.0359
53.799999	81.414742	-0.1888
54.500000	81.617355	-0.6643
55.200001	81.662369	-1.5750
56.000000	81.600708	-2.6860
57.000000	81.298286	-3.1027
58.000000	81.237518	-1.4384
59.000000	81.402489	-1.7452
60.000000	81.375877	-1.9763
60.799999	81.481873	-2.0298
61.500000	81.499184	-2.9949
62.200001	81.339340	-3.2347
63.000000	81.284843	-1.9957
64.000000	81.438667	-1.9706
65.000000	81.290848	-2.3898
66.000000	81.231628	-1.1103
67.000000	81.330750	-0.7959
68.000000	81.346825	-0.5709
69.000000	81.509232	-0.2068
70.000000	81.647079	-1.5383
71.000000	81.466354	-2.3266
72.000000	81.450722	-1.5544
73.000000	81.433701	-2.4140
74.000000	81.198540	-1.9241
75.000000	81.236488	-1.1919
76.199997	81.161880	-1.3900
77.500000	81.147110	-1.5329
78.800003	81.091866	-0.7020
80.000000	81.311096	-1.4976
81.199997	81.140114	-2.0533
82.500000	81.177261	-0.7060
83.800003	81.362320	-1.4042
85.000000	81.089005	-1.4667
86.199997	81.222961	-0.0153
87.500000	81.182213	-0.9926
88.500000	81.087173	-0.7897
90.000000	81.078194	0.0205
91.199997	81.103004	-0.7631
92.500000	81.085594	-1.1256
93.800003	80.809074	-2.2606
95.000000	80.728027	-0.9034
96.199997	80.663422	-0.4036
97.500000	80.924179	0.6177
98.800003	81.090469	-0.7712
100.000000	80.895355	-2.3325
101.500000	80.797264	0.9954
103.000000	81.026215	0.1751
104.400002	81.014168	-0.2485
106.000000	80.793900	0.3923
107.500000	80.882950	0.4365
109.000000	80.797829	0.3095
110.599998	80.791336	0.3429
112.000000	80.805527	0.4015
113.800003	80.812080	0.8244
115.000000	80.937523	-0.0655
117.199997	80.815788	1.1342
118.000000	80.807808	0.3974
120.599998	80.716423	1.4066
122.000000	80.733154	2.1679
124.099998	80.685661	1.3381
125.000000	80.770752	1.7065
126.500000	80.694901	1.3679
128.000000	80.885284	1.6738
131.500000	80.716576	0.7876
132.000000	80.654617	0.6141
134.000000	80.671417	0.6862
136.000000	80.480682	2.3361
138.000000	80.516960	1.7702
140.000000	80.516235	2.7825
143.000000	80.709480	3.2033
145.000000	80.559982	2.9266
147.500000	80.666542	3.4814
150.000000	80.736107	4.2332
152.500000	80.514244	3.9998
155.000000	80.467659	4.2245
157.500000	80.573219	4.5273
160.000000	80.452835	3.9834
162.500000	80.447197	4.0319
165.000000	80.335083	5.8445
167.500000	80.387932	4.4725
170.000000	80.447205	4.6588
172.500000	80.341560	4.4414
175.000000	80.344978	5.6429
177.500000	80.120934	5.5561
180.000000	80.225311	6.5117
182.500000	80.208923	6.0929
185.000000	80.212677	7.1085
187.500000	80.306534	6.0226
190.000000	80.221779	6.9702
192.500000	80.294762	7.6021
195.000000	80.014984	6.9468
197.500000	80.035339	7.6085
200.000000	80.204903	7.4368
203.000000	80.109245	7.9749
206.000000	80.055573	8.8600
209.000000	79.992867	8.7924
212.000000	79.856453	8.7437
214.000000	79.913879	10.1349
218.000000	79.997635	9.3688
220.000000	79.859024	8.4351
224.000000	79.840530	9.4067
227.000000	80.072342	10.7834
230.000000	79.982643	11.5098
233.000000	79.823341	9.9030
236.000000	79.964630	9.7394
240.000000	79.906288	12.0646
243.000000	79.653412	12.1304
247.000000	79.858688	11.7509
250.000000	79.897263	13.5285
254.000000	79.748077	12.9788
258.000000	79.903282	13.0084
262.000000	79.929291	13.6048
265.000000	79.709618	14.2317
269.000000	79.859512	14.8274
272.000000	79.671555	14.3847
276.000000	79.752960	15.8446
280.000000	79.550430	15.2487
285.000000	79.707039	15.2255
290.000000	79.693527	15.8350
295.000000	79.811325	16.8185
300.000000	79.474068	17.5998
304.000000	79.722862	17.2081
307.000000	79.806496	17.3214
311.000000	79.502106	18.4172
315.000000	79.563858	18.6299
320.000000	79.712692	19.2068
325.000000	79.531662	18.7519
330.000000	79.483078	20.3671
335.000000	79.547264	21.0605
340.000000	79.606407	21.5478
345.000000	79.607613	21.4199
350.000000	79.606918	21.4418
355.000000	79.560089	21.8781
360.000000	79.521866	22.3957
365.000000	79.512047	22.9212
370.000000	79.534485	23.6804
375.000000	79.507050	24.4676
382.000000	79.463020	25.4558
387.000000	79.366653	25.9086
395.000000	79.390923	25.6846
400.000000	79.508141	26.4251
406.000000	79.423218	27.7390
412.000000	79.391739	27.3678
418.000000	79.477280	28.6111
425.000000	79.366348	28.3366
431.000000	79.398514	30.2275
437.000000	79.410126	29.5336
444.000000	79.337975	30.8090
450.000000	79.479706	31.7049
455.000000	79.415817	31.6896
462.000000	79.398445	32.8246
468.000000	79.380013	32.2619
475.000000	79.418808	33.2328
482.000000	79.414368	34.6853
487.000000	79.428665	35.6274
494.000000	78.993385	36.3286
500.000000	79.880402	36.5162
508.000000	79.679993	35.0969
515.000000	79.323151	38.2236
522.000000	79.367523	37.1606
530.000000	79.384842	39.1790
538.000000	79.389542	40.1238
545.000000	79.304825	40.4316
552.000000	79.381218	39.3549
560.000000	79.374855	40.9364
570.000000	79.437347	42.4707
580.000000	79.419662	43.7638
590.000000	79.366066	44.2363
600.000000	79.432297	46.1801
608.000000	79.283150	46.5685
615.000000	79.472420	48.9217
622.000000	79.529465	49.7127
630.000000	79.818535	47.8912
640.000000	79.542770	50.2823
650.000000	79.631920	50.1523
660.000000	79.509308	51.2118
670.000000	79.560043	52.4896
680.000000	79.529892	53.2900
690.000000	79.530312	54.2111
700.000000	79.567520	53.6571
710.000000	79.608498	55.9692
720.000000	79.564369	56.4754
730.000000	79.688217	58.4703
740.000000	79.643867	60.3964
750.000000	79.657303	62.5638
762.000000	79.815125	60.7666
775.000000	79.752823	62.0514
788.000000	79.907539	63.1129
800.000000	79.737579	65.1647
812.000000	79.959846	66.7435
825.000000	79.923187	67.2063
838.000000	80.042526	69.0356
850.000000	80.114777	70.9117
862.000000	80.176468	72.0697
875.000000	80.186798	72.2346
885.000000	80.194138	73.3586
900.000000	80.285461	75.2120
912.000000	80.463837	76.0103
925.000000	80.596375	77.6286
938.000000	80.632416	78.7690
950.000000	80.802551	79.9509
962.000000	80.849930	80.9565
975.000000	80.954903	82.2809
988.000000	81.113945	83.3442
1000.000000	81.282539	84.4929
1015.000000	81.326294	85.6907
1030.000000	81.453278	86.6189
1044.000000	81.599213	87.7434
1060.000000	81.750076	88.9504
1075.000000	81.902252	90.0758
1090.000000	82.062935	91.2578
1106.000000	82.254700	91.8984
1120.000000	82.294029	92.5729
1138.000000	82.590080	93.2501
1150.000000	82.594147	93.9135
1172.000000	82.946533	95.1555
1180.000000	83.066116	95.7472
1206.000000	83.218208	96.9545
1220.000000	83.332153	97.3493
1241.000000	83.592819	98.8752
1250.000000	83.817215	96.6416
1265.000000	83.864059	98.3819
1280.000000	83.900314	99.4958
1315.000000	84.243752	100.2559
1320.000000	84.232559	100.6964
1340.000000	84.484741	101.6252
1360.000000	84.654900	101.6439
1380.000000	84.846199	102.1200
1400.000000	84.803810	102.3149
1430.000000	85.227432	104.2462
1450.000000	85.480148	105.2321
1475.000000	85.388542	105.3505
1500.000000	85.600365	107.4133
1525.000000	85.825462	107.7860
1550.000000	85.896011	108.4066
1575.000000	86.209457	108.6690
1600.000000	86.286240	110.2270
1625.000000	86.577484	110.8084
1650.000000	86.847107	111.7719
1675.000000	86.936508	112.4352
1700.000000	87.016693	112.5319
1725.000000	87.352638	113.6368
1750.000000	87.502342	113.7357
1775.000000	87.682739	114.9650
1800.000000	87.869576	115.4545
1825.000000	88.109901	116.6186
1850.000000	88.280899	117.7004
1875.000000	88.562180	118.1289
1900.000000	88.776360	118.7352
1925.000000	89.070358	119.3788
1950.000000	89.344948	119.6310
1975.000000	89.625107	119.6569
2000.000000	89.820602	119.2836
2030.000000	90.174438	119.3682
2060.000000	90.456512	119.0524
2090.000000	90.697983	118.6825
2120.000000	90.932739	118.1384
2140.000000	91.101036	117.8140
2180.000000	91.379265	116.9253
2200.000000	91.531631	116.6998
2240.000000	91.758698	115.2831
2270.000000	91.891876	114.1246
2300.000000	92.046555	112.1397
2330.000000	92.119400	110.7972
2360.000000	92.230942	109.1830
2400.000000	92.275635	106.9278
2430.000000	92.328522	106.0057
2470.000000	92.314453	104.5604
2500.000000	92.230911	103.3884
2540.000000	92.150948	102.4270
2580.000000	92.025116	101.3115
2620.000000	91.884453	100.3724
2650.000000	91.745377	100.0981
2690.000000	91.586067	99.4354
2720.000000	91.441490	99.0876
2760.000000	91.200027	98.8871
2800.000000	90.985306	98.9565
2850.000000	90.694229	99.1430
2900.000000	90.394691	99.5603
2950.000000	90.123825	100.5312
3000.000000	89.835625	101.7910
3040.000000	89.648941	102.4617
3070.000000	89.511780	103.1662
3110.000000	89.337166	104.3247
3150.000000	89.168709	105.3868
3200.000000	89.011948	106.9878
3250.000000	88.834900	108.2756
3300.000000	88.708458	110.1818
3350.000000	88.532318	111.6289
3400.000000	88.407173	113.2342
3450.000000	88.388641	115.4016
3500.000000	88.262581	116.9251
3550.000000	88.228043	118.6524
3600.000000	88.230553	120.9705
3650.000000	88.240974	122.3390
3700.000000	88.208511	124.3581
3750.000000	88.154037	125.7785
3820.000000	88.199326	128.3917
3870.000000	88.248566	129.9722
3950.000000	88.234299	132.5501
4000.000000	88.261383	134.1594
4060.000000	88.363556	136.2691
4120.000000	88.411804	138.4158
4180.000000	88.470825	140.1854
4250.000000	88.657654	142.8989
4310.000000	88.751289	144.4347
4370.000000	88.898430	146.1376
4440.000000	89.153847	148.1730
4500.000000	89.316406	149.9104
4550.000000	89.594589	150.8588
4620.000000	89.886742	152.5495
4680.000000	90.181480	153.6735
4750.000000	90.571259	153.9013
4820.000000	90.917908	154.3304
4870.000000	91.165802	154.2309
4940.000000	91.506691	153.2981
5000.000000	91.761818	152.1923
5080.000000	92.069038	150.4453
5150.000000	92.225006	148.2529
5220.000000	92.293114	146.0179
5300.000000	92.191780	143.2294
5380.000000	92.032150	140.6400
5450.000000	91.735886	138.7910
5520.000000	91.380577	137.2422
5600.000000	90.885124	136.4363
5700.000000	90.303925	136.1299
5800.000000	89.628777	136.1133
5900.000000	88.975914	137.7758
6000.000000	88.391754	139.6819
6080.000000	87.970459	141.7935
6150.000000	87.663063	143.7881
6220.000000	87.321327	146.0630
6300.000000	87.119034	148.5511
6400.000000	86.670212	152.4014
6500.000000	86.615982	156.0302
6600.000000	86.487091	160.5379
6700.000000	86.392029	164.3732
6800.000000	86.279678	169.4082
6900.000000	86.577454	173.0184
7000.000000	86.821655	176.8596
7100.000000	87.187637	-179.2516
7200.000000	87.674812	-176.3586
7300.000000	88.300995	-173.2990
7400.000000	89.015602	-171.3785
7500.000000	89.732208	-169.8561
7620.000000	90.973961	-170.6818
7750.000000	92.231293	-175.2127
7880.000000	93.156342	174.7389
8000.000000	93.247864	162.5457
8120.000000	92.376366	151.5071
8250.000000	90.801613	143.7290
8380.000000	89.177277	140.3102
8500.000000	87.760880	140.3018
8620.000000	86.357964	141.7531
8750.000000	84.994057	145.4031
8850.000000	84.139069	148.2052
9000.000000	82.959343	153.3446
9120.000000	82.130295	157.9477
9250.000000	81.346619	162.5223
9380.000000	80.539619	168.9761
9500.000000	79.833878	175.3358
9620.000000	79.551231	-178.7437
9750.000000	79.159492	-171.1402
9880.000000	78.958206	-165.5785
10000.000000	78.875809	-159.7219
10150.000000	78.941177	-152.8433
10300.000000	79.148102	-145.5002
10440.000000	79.279015	-139.2714
10600.000000	79.659081	-131.9292
10750.000000	80.372734	-127.2419
10900.000000	81.187721	-121.6169
11060.000000	82.286331	-117.7770
11200.000000	83.413696	-115.7670
11380.000000	85.126114	-117.2041
11500.000000	86.264038	-120.7598
11720.000000	87.671570	-135.9530
11800.000000	87.740685	-142.6212
12060.000000	86.317986	-159.1802
12200.000000	85.205536	-162.6331
12410.000000	83.948105	-163.6552
12500.000000	83.537849	-163.2143
12650.000000	83.005363	-159.9805
12800.000000	82.902443	-157.8090
13150.000000	83.725708	-152.9161
13200.000000	83.999954	-152.6387
13400.000000	85.495499	-155.3192
13600.000000	87.262009	-168.4845
13800.000000	87.609131	165.4895
14000.000000	84.973602	142.8119
14300.000000	80.132645	132.4122
14500.000000	77.518036	133.5399
14750.000000	74.933937	139.1424
15000.000000	72.835709	144.6598
15250.000000	71.186028	151.6432
15500.000000	70.241058	155.9850
15750.000000	69.153648	162.2746
16000.000000	68.410858	164.6612
16250.000000	67.917259	162.1847
16500.000000	66.922897	161.8701
16750.000000	63.883598	155.3619
17000.000000	57.646599	167.3819
17250.000000	58.499474	-118.9258
17500.000000	65.652588	-103.8029
17750.000000	71.693390	-114.6824
18000.000000	76.006393	-143.3559
18250.000000	78.439293	176.8476
18500.000000	78.720688	134.2519
18750.000000	76.819305	93.7533
19000.000000	72.786079	63.8054
19250.000000	68.606216	50.4649
19500.000000	64.120270	43.6002
19750.000000	60.947304	44.4721
