* Measurement data measured by REW V5.20 Beta 47
* Source: Headset (USB-C to 3.5mm Headphone Jack Adapter), MICROPHONE (Master Volume), L, volume: 0.000
* Format: 256k Log Swept Sine, 1 sweep at -3.0 dBFS with no timing reference
* Dated: Aug 11, 2020 9:26:50 AM
* REW Settings:
*  C-weighting compensation: Off
*  Target level: 75.0 dB
* Note: ; 
* Measurement: AYA Silver R
* Smoothing: None
* Frequency Step: 1/48 octave
* Start Frequency: 20.000 Hz
*
* Freq(Hz)	SPL(dB)	Phase(degrees)
20.0000	88.1905	24.14
20.3000	88.2279	23.75
20.6000	88.2605	23.37
20.9000	88.2875	23.01
21.2000	88.3132	22.66
21.4000	88.3276	22.43
21.8000	88.3500	22.01
22.0000	88.3600	21.83
22.4000	88.3844	21.48
22.7000	88.4059	21.27
23.0000	88.4339	21.08
23.3000	88.4705	20.86
23.6000	88.5099	20.59
24.0000	88.5571	20.17
24.3000	88.5834	19.81
24.7000	88.6044	19.38
25.0000	88.6156	19.13
25.4000	88.6411	18.89
25.8000	88.6870	18.68
26.2000	88.7488	18.32
26.5000	88.7915	17.93
26.9000	88.8218	17.29
27.2000	88.8196	16.84
27.6000	88.7936	16.42
28.0000	88.7663	16.26
28.5000	88.7748	16.28
29.0000	88.8295	16.17
29.5000	88.8849	15.76
30.0000	88.8955	15.27
30.4000	88.8813	15.05
30.7000	88.8727	15.02
31.1000	88.8853	15.10
31.5000	88.9309	15.12
32.0000	89.0073	14.89
32.5000	89.0623	14.34
33.0000	89.0672	13.74
33.5000	89.0353	13.33
34.0000	89.0036	13.20
34.5000	89.0083	13.19
35.0000	89.0429	13.06
35.5000	89.0758	12.71
36.0000	89.0740	12.27
36.5000	89.0390	11.98
37.0000	89.0125	12.01
37.5000	89.0367	12.17
38.2000	89.1293	12.01
38.7000	89.1728	11.57
39.5000	89.1783	11.06
40.0000	89.1955	10.96
40.6000	89.2378	10.68
41.2000	89.2422	10.23
41.8000	89.2092	10.10
42.5000	89.2289	10.35
43.1000	89.3031	10.19
43.7000	89.3225	9.63
44.4000	89.2609	9.36
45.0000	89.2565	9.63
45.5000	89.3134	9.63
46.2000	89.3639	9.02
46.8000	89.3191	8.55
47.5000	89.2719	8.63
48.2000	89.3128	8.78
48.7000	89.3594	8.58
49.4000	89.3837	8.09
50.0000	89.3655	7.78
50.8000	89.3435	7.66
51.5000	89.3659	7.69
52.2000	89.4115	7.42
53.0000	89.3982	6.80
53.8000	89.3191	6.68
54.5000	89.3112	7.01
55.2000	89.3807	7.01
56.0000	89.4293	6.41
57.0000	89.3837	5.84
58.0000	89.3700	5.74
59.0000	89.3757	5.55
60.0000	89.3923	5.47
60.8000	89.4075	5.24
61.5000	89.4005	5.04
62.2000	89.3898	4.90
63.0000	89.3753	4.74
64.0000	89.3643	4.65
65.0000	89.3958	4.38
66.0000	89.3769	3.90
67.0000	89.3596	3.89
68.0000	89.4017	3.72
69.0000	89.3827	3.35
70.0000	89.3466	3.49
71.0000	89.3749	3.44
72.0000	89.3450	3.05
73.0000	89.3120	3.00
74.0000	89.3406	2.74
75.0000	89.3331	2.35
76.2000	89.3733	2.24
77.5000	89.3781	1.91
78.8000	89.3782	2.21
80.0000	89.3845	2.15
81.2000	89.3181	1.78
82.5000	89.2964	1.56
83.8000	89.2391	0.91
85.0000	89.3949	0.56
86.2000	89.3270	0.75
87.5000	89.6389	0.61
88.5000	89.2319	3.26
90.0000	90.7491	3.84
91.2000	89.7297	-2.79
92.5000	89.4834	2.19
93.8000	89.2515	0.40
95.0000	89.2494	0.82
96.2000	89.1657	-0.26
97.5000	89.2350	-0.33
98.8000	89.2293	-0.76
100.0000	89.2297	-0.12
101.5000	89.2912	-0.57
103.0000	89.1925	-0.58
104.4000	89.1538	-1.03
106.0000	89.1632	-1.27
107.5000	89.1757	-1.52
109.0000	89.1838	-1.50
110.6000	89.1580	-1.48
112.0000	89.1538	-1.63
113.8000	89.1036	-1.85
115.0000	89.1138	-2.09
117.2000	89.1025	-2.38
118.0000	89.0939	-2.38
120.6000	89.0701	-2.48
122.0000	89.0584	-2.60
124.1000	89.0311	-2.72
125.0000	89.0350	-2.92
126.5000	89.0082	-3.01
128.0000	88.9991	-3.06
131.5000	88.9651	-3.31
132.0000	88.9571	-3.34
134.0000	88.9387	-3.52
136.0000	88.9032	-3.56
138.0000	88.8879	-3.73
140.0000	88.8671	-3.93
143.0000	88.8340	-4.07
145.0000	88.8095	-4.21
147.5000	88.7826	-4.40
150.0000	88.7579	-4.52
152.5000	88.7362	-4.68
155.0000	88.7086	-4.77
157.5000	88.6874	-4.85
160.0000	88.6639	-4.96
162.5000	88.6428	-5.12
165.0000	88.6307	-5.25
167.5000	88.6056	-5.36
170.0000	88.5887	-5.47
172.5000	88.5402	-5.53
175.0000	88.5155	-5.65
177.5000	88.4792	-5.74
180.0000	88.4330	-5.94
182.5000	88.4037	-5.92
185.0000	88.3632	-6.03
187.5000	88.3259	-6.08
190.0000	88.2906	-6.14
192.5000	88.2501	-6.23
195.0000	88.2243	-6.30
197.5000	88.1851	-6.29
200.0000	88.1176	-6.07
203.0000	88.1073	-6.45
206.0000	88.0577	-6.58
209.0000	88.0245	-6.58
212.0000	87.9592	-6.76
214.0000	87.9513	-6.79
218.0000	87.9130	-6.90
220.0000	87.9045	-6.85
224.0000	87.8717	-6.98
227.0000	87.8314	-7.00
230.0000	87.7894	-7.06
233.0000	87.7644	-7.09
236.0000	87.7237	-7.09
240.0000	87.6853	-7.10
243.0000	87.6425	-7.12
247.0000	87.6002	-7.19
250.0000	87.5912	-7.28
254.0000	87.5093	-7.21
258.0000	87.4762	-7.13
262.0000	87.4252	-7.16
265.0000	87.3819	-7.18
269.0000	87.3427	-7.14
272.0000	87.2924	-7.20
276.0000	87.2498	-7.16
280.0000	87.2121	-7.14
285.0000	87.1530	-7.11
290.0000	87.0921	-7.04
295.0000	87.0288	-7.03
300.0000	86.9495	-6.80
304.0000	86.9274	-6.87
307.0000	86.8975	-6.85
311.0000	86.8562	-6.77
315.0000	86.8161	-6.71
320.0000	86.7507	-6.64
325.0000	86.6999	-6.54
330.0000	86.6421	-6.44
335.0000	86.5884	-6.36
340.0000	86.5355	-6.18
345.0000	86.4845	-6.14
350.0000	86.4079	-5.93
355.0000	86.3774	-5.82
360.0000	86.3180	-5.65
365.0000	86.2610	-5.42
370.0000	86.2138	-5.33
375.0000	86.1664	-5.28
382.0000	86.1010	-5.02
387.0000	86.0549	-4.86
395.0000	85.9893	-4.54
400.0000	85.9246	-4.62
406.0000	85.8837	-4.25
412.0000	85.8288	-3.98
418.0000	85.7801	-3.74
425.0000	85.7163	-3.53
431.0000	85.6606	-3.27
437.0000	85.6183	-3.00
444.0000	85.5622	-2.73
450.0000	85.5180	-2.41
455.0000	85.4853	-2.33
462.0000	85.4368	-2.11
468.0000	85.3913	-1.92
475.0000	85.3282	-1.68
482.0000	85.2741	-1.40
487.0000	85.2366	-1.30
494.0000	85.1915	-1.05
500.0000	85.1385	-0.76
508.0000	85.0941	-0.39
515.0000	85.0404	-0.06
522.0000	84.9903	0.30
530.0000	84.9406	0.66
538.0000	84.8784	0.98
545.0000	84.8278	1.35
552.0000	84.7919	1.97
560.0000	84.7337	2.11
570.0000	84.6652	2.67
580.0000	84.6054	3.20
590.0000	84.5468	3.71
600.0000	84.4869	4.25
608.0000	84.4346	4.69
615.0000	84.4011	5.11
622.0000	84.3662	5.48
630.0000	84.3320	5.93
640.0000	84.2803	6.54
650.0000	84.2378	7.09
660.0000	84.1946	7.67
670.0000	84.1493	8.26
680.0000	84.1151	8.86
690.0000	84.0693	9.50
700.0000	84.0318	10.10
710.0000	83.9944	10.74
720.0000	83.9561	11.41
730.0000	83.9296	12.02
740.0000	83.8968	12.68
750.0000	83.8663	13.30
762.0000	83.8344	14.09
775.0000	83.8043	14.97
788.0000	83.7700	15.83
800.0000	83.7501	16.58
812.0000	83.7196	17.47
825.0000	83.7025	18.32
838.0000	83.6857	19.19
850.0000	83.6721	20.07
862.0000	83.6702	20.88
875.0000	83.6715	21.81
885.0000	83.6694	22.47
900.0000	83.6765	23.47
912.0000	83.6947	24.29
925.0000	83.7108	25.25
938.0000	83.7420	26.11
950.0000	83.7744	26.95
962.0000	83.7952	27.68
975.0000	83.8337	28.55
988.0000	83.9024	29.42
1000.0000	84.0072	30.27
1015.0000	83.9836	30.98
1030.0000	84.0367	31.80
1044.0000	84.0934	32.49
1060.0000	84.1681	33.28
1075.0000	84.2461	34.01
1090.0000	84.3269	34.63
1106.0000	84.4227	35.21
1120.0000	84.5072	35.77
1138.0000	84.6118	36.32
1150.0000	84.6751	36.68
1172.0000	84.7988	37.26
1180.0000	84.8516	37.50
1206.0000	84.9866	38.07
1220.0000	85.0681	38.26
1241.0000	85.1811	38.64
1250.0000	85.2199	38.78
1265.0000	85.2972	38.97
1280.0000	85.3636	39.19
1315.0000	85.5183	39.63
1320.0000	85.5351	39.67
1340.0000	85.6051	39.88
1360.0000	85.6857	40.18
1380.0000	85.7482	40.35
1400.0000	85.8147	40.64
1430.0000	85.9030	41.01
1450.0000	85.9612	41.37
1475.0000	86.0381	41.66
1500.0000	86.1101	42.02
1525.0000	86.1784	42.40
1550.0000	86.2546	42.84
1575.0000	86.3289	43.20
1600.0000	86.4061	43.70
1625.0000	86.4862	44.13
1650.0000	86.5648	44.57
1675.0000	86.6559	44.99
1700.0000	86.7319	45.47
1725.0000	86.8334	45.94
1750.0000	86.9303	46.36
1775.0000	87.0301	46.82
1800.0000	87.1289	47.25
1825.0000	87.2323	47.63
1850.0000	87.3450	48.05
1875.0000	87.4587	48.42
1900.0000	87.5800	48.77
1925.0000	87.6959	49.11
1950.0000	87.8212	49.41
1975.0000	87.9226	49.58
2000.0000	87.9963	49.59
2030.0000	88.2166	50.12
2060.0000	88.3935	50.34
2090.0000	88.5560	50.52
2120.0000	88.7202	50.60
2140.0000	88.8442	50.63
2180.0000	89.0698	50.63
2200.0000	89.1909	50.61
2240.0000	89.4470	50.21
2270.0000	89.6256	49.48
2300.0000	89.8008	48.49
2330.0000	89.9867	47.36
2360.0000	90.1372	46.10
2400.0000	90.3374	44.59
2430.0000	90.4875	43.58
2470.0000	90.6530	42.26
2500.0000	90.7700	41.19
2540.0000	90.8931	39.64
2580.0000	90.9886	37.90
2620.0000	91.0578	36.15
2650.0000	91.0849	34.75
2690.0000	91.1037	32.83
2720.0000	91.0928	31.35
2760.0000	91.0267	29.38
2800.0000	90.9211	27.43
2850.0000	90.7212	25.07
2900.0000	90.4508	23.05
2950.0000	90.1368	21.58
3000.0000	89.8301	21.06
3040.0000	89.5953	20.31
3070.0000	89.4374	19.96
3110.0000	89.2607	19.73
3150.0000	89.0710	19.47
3200.0000	88.8512	19.25
3250.0000	88.6406	19.08
3300.0000	88.4373	19.00
3350.0000	88.2428	19.01
3400.0000	88.0525	19.07
3450.0000	87.8774	19.18
3500.0000	87.7345	19.41
3550.0000	87.5955	19.72
3600.0000	87.4689	20.02
3650.0000	87.3470	20.45
3700.0000	87.2467	20.80
3750.0000	87.1566	21.27
3820.0000	87.0375	22.01
3870.0000	86.9596	22.52
3950.0000	86.8442	23.45
4000.0000	86.7744	23.91
4060.0000	86.7755	24.89
4120.0000	86.7850	25.60
4180.0000	86.8247	26.23
4250.0000	86.8859	26.87
4310.0000	86.9633	27.07
4370.0000	87.0399	27.23
4440.0000	87.1403	27.35
4500.0000	87.2265	27.40
4550.0000	87.2860	27.26
4620.0000	87.3915	27.11
4680.0000	87.5023	26.87
4750.0000	87.6404	26.53
4820.0000	87.7998	26.00
4870.0000	87.9337	25.45
4940.0000	88.1025	24.39
5000.0000	88.2420	23.26
5080.0000	88.4197	21.73
5150.0000	88.5664	20.03
5220.0000	88.6738	18.05
5300.0000	88.7625	15.49
5380.0000	88.8148	12.73
5450.0000	88.7767	10.09
5520.0000	88.6533	7.52
5600.0000	88.4241	4.55
5700.0000	88.0604	1.20
5800.0000	87.6178	-1.68
5900.0000	87.1025	-3.86
6000.0000	86.5641	-5.42
6080.0000	86.1348	-6.21
6150.0000	85.8000	-6.49
6220.0000	85.4520	-6.51
6300.0000	85.1218	-6.32
6400.0000	84.7233	-5.80
6500.0000	84.3801	-4.88
6600.0000	84.1062	-3.81
6700.0000	83.8931	-2.54
6800.0000	83.7709	-1.16
6900.0000	83.7078	0.88
7000.0000	83.7645	1.66
7100.0000	83.8920	3.85
7200.0000	84.0860	4.82
7300.0000	84.3837	6.66
7400.0000	84.7858	7.78
7500.0000	85.2682	8.21
7620.0000	85.9883	8.25
7750.0000	86.8670	6.92
7880.0000	87.8101	3.35
8000.0000	88.6438	-2.30
8120.0000	89.3062	-9.96
8250.0000	89.6254	-19.88
8380.0000	89.5002	-29.90
8500.0000	89.1320	-38.23
8620.0000	88.6129	-45.62
8750.0000	87.9215	-53.01
8850.0000	87.2896	-58.27
9000.0000	86.2056	-65.48
9120.0000	85.2280	-70.21
9250.0000	84.1330	-74.16
9380.0000	83.0014	-77.06
9500.0000	81.9612	-78.84
9620.0000	81.0238	-79.76
9750.0000	79.9992	-80.23
9880.0000	79.1148	-79.90
10000.0000	78.3075	-79.29
10150.0000	77.4738	-78.01
10300.0000	76.7391	-76.52
10440.0000	76.0921	-75.16
10600.0000	75.5493	-73.07
10750.0000	75.0897	-71.05
10900.0000	74.7246	-69.21
11060.0000	74.4418	-67.50
11200.0000	74.2294	-65.65
11380.0000	74.1049	-63.87
11500.0000	74.0505	-62.49
11720.0000	74.1194	-60.57
11800.0000	74.1970	-59.86
12060.0000	74.6480	-58.27
12200.0000	74.8891	-57.96
12410.0000	75.5355	-58.09
12500.0000	75.8751	-58.00
12650.0000	76.5461	-58.44
12800.0000	77.2837	-59.95
13150.0000	79.3844	-66.05
13200.0000	79.7568	-67.44
13400.0000	81.1743	-74.79
13600.0000	82.5694	-85.46
13800.0000	83.6326	-99.67
14000.0000	84.0824	-115.47
14300.0000	83.8170	-137.01
14500.0000	83.3984	-147.84
14750.0000	83.1972	-158.42
15000.0000	83.5658	-167.74
15250.0000	84.8628	-178.29
15500.0000	87.2061	163.76
15750.0000	90.1466	131.85
16000.0000	91.6780	67.94
16250.0000	85.2523	12.36
16500.0000	79.1828	-10.62
16750.0000	74.3194	-26.46
17000.0000	69.7156	-39.23
17250.0000	65.0265	-48.56
17500.0000	59.5358	-47.61
17750.0000	56.9923	-21.45
18000.0000	61.5732	-21.39
18250.0000	63.2400	-68.22
18500.0000	59.6548	-110.03
18750.0000	55.7224	-133.87
19000.0000	51.4641	-152.77
19250.0000	48.7139	-165.60
19500.0000	44.9555	-169.74
19750.0000	37.8737	-159.61
