* Measurement data measured by REW V5.20 Beta 60
* Source: Headset (USB-C to 3.5mm Headphone Jack Adapter), MICROPHONE (Master Volume), R, volume: 0.258
* Format: 256k Log Swept Sine, 1 sweep at -12.0 dBFS with no timing reference
* Dated: Dec 25, 2020 12:56:13 PM
* REW Settings:
*  C-weighting compensation: Off
*  Target level: 75.0 dB
* Note: ; 
* Measurement: BLON BL-01 R
* Smoothing: None
* Frequency Step: 1/48 octave
* Start Frequency: 20.000 Hz
*
* Freq(Hz)	SPL(dB)	Phase(degrees)
20.000000	92.543121	-170.3338
20.299999	92.487587	-171.2198
20.600000	92.414810	-171.7790
20.900000	92.352715	-172.0316
21.200001	92.325783	-172.1305
21.400000	92.325111	-172.2034
21.799999	92.348053	-172.4507
22.000000	92.362915	-172.6482
22.400000	92.385086	-173.1591
22.700001	92.388588	-173.5258
23.000000	92.387932	-173.8214
23.299999	92.393921	-174.0688
23.600000	92.407074	-174.2996
24.000000	92.430664	-174.6463
24.299999	92.445915	-174.9579
24.700001	92.453308	-175.3891
25.000000	92.448898	-175.6691
25.400000	92.440475	-175.9505
25.799999	92.438019	-176.1228
26.200001	92.449356	-176.2746
26.500000	92.465134	-176.4243
26.900000	92.486450	-176.6808
27.200001	92.498955	-176.9161
27.600000	92.508270	-177.2611
28.000000	92.505676	-177.6052
28.500000	92.492401	-178.0054
29.000000	92.475670	-178.3280
29.500000	92.466385	-178.6093
30.000000	92.462334	-178.8914
30.400000	92.461296	-179.1480
30.700001	92.458801	-179.3433
31.100000	92.453880	-179.5996
31.500000	92.449577	-179.8509
32.000000	92.445000	179.8521
32.500000	92.442528	179.5491
33.000000	92.437866	179.2628
33.500000	92.431625	178.9986
34.000000	92.425850	178.7605
34.500000	92.425606	178.5121
35.000000	92.422592	178.2600
35.500000	92.415939	178.0202
36.000000	92.407860	177.8113
36.500000	92.401161	177.5968
37.000000	92.394104	177.3671
37.500000	92.384956	177.1234
38.200001	92.364990	176.8152
38.700001	92.351646	176.6245
39.500000	92.343315	176.3236
40.000000	92.340271	176.1092
40.599998	92.331688	175.8218
41.200001	92.320435	175.5576
41.799999	92.311623	175.3198
42.500000	92.302437	175.0550
43.099998	92.294968	174.8247
43.700001	92.286194	174.5905
44.400002	92.270706	174.3311
45.000000	92.257675	174.1440
45.500000	92.251259	173.9837
46.200001	92.239380	173.7209
46.799999	92.220169	173.4995
47.500000	92.201103	173.3008
48.200001	92.190369	173.0647
48.700001	92.177269	172.8356
49.400002	92.144928	172.5844
50.000000	92.121803	172.4818
50.799999	92.117134	172.2562
51.500000	92.105110	171.9845
52.200001	92.083755	171.7812
53.000000	92.072350	171.5779
53.799999	92.058159	171.3001
54.500000	92.034973	171.1055
55.200001	92.021629	170.9535
56.000000	92.008545	170.7014
57.000000	91.971420	170.4189
58.000000	91.947212	170.2354
59.000000	91.924767	169.9881
60.000000	91.909668	169.7592
60.799999	91.887901	169.4801
61.500000	91.857208	169.3051
62.200001	91.837982	169.2087
63.000000	91.827568	169.0042
64.000000	91.792610	168.6809
65.000000	91.759727	168.4690
66.000000	91.726295	168.2072
67.000000	91.692665	168.0241
68.000000	91.670135	167.7854
69.000000	91.637939	167.5585
70.000000	91.616638	167.3869
71.000000	91.592377	167.0872
72.000000	91.549072	166.9021
73.000000	91.527275	166.7886
74.000000	91.506836	166.5604
75.000000	91.475052	166.3707
76.199997	91.448090	166.1862
77.500000	91.412521	165.9159
78.800003	91.375587	165.7530
80.000000	91.348831	165.5252
81.199997	91.313240	165.3246
82.500000	91.274551	165.1175
83.800003	91.244370	164.9480
85.000000	91.212868	164.7411
86.199997	91.172272	164.5796
87.500000	91.136490	164.4265
88.500000	91.091690	164.2396
90.000000	91.049133	164.2812
91.199997	91.025421	163.9120
92.500000	90.968025	163.7520
93.800003	90.933372	163.4997
95.000000	90.893639	163.3382
96.199997	90.854675	163.1519
97.500000	90.816322	163.0608
98.800003	90.776993	162.8735
100.000000	90.737617	162.7767
101.500000	90.691544	162.5493
103.000000	90.641777	162.3868
104.400002	90.596214	162.1995
106.000000	90.551781	162.0681
107.500000	90.509750	161.8936
109.000000	90.466209	161.8051
110.599998	90.420982	161.6088
112.000000	90.384514	161.5205
113.800003	90.318016	161.3332
115.000000	90.292999	161.2802
117.199997	90.238892	161.1823
118.000000	90.217514	161.0271
120.599998	90.124344	160.8641
122.000000	90.086716	160.7699
124.099998	90.008583	160.6352
125.000000	89.993187	160.5988
126.500000	89.942780	160.4304
128.000000	89.895416	160.3961
131.500000	89.790527	160.2057
132.000000	89.774567	160.1933
134.000000	89.709999	160.0891
136.000000	89.652725	159.9816
138.000000	89.586845	159.9832
140.000000	89.531456	159.8269
143.000000	89.436363	159.7764
145.000000	89.384247	159.6495
147.500000	89.312218	159.6406
150.000000	89.240662	159.6689
152.500000	89.157463	159.5749
155.000000	89.091187	159.4806
157.500000	89.036110	159.3784
160.000000	88.971016	159.4012
162.500000	88.901077	159.3661
165.000000	88.833176	159.3756
167.500000	88.780838	159.3859
170.000000	88.723587	159.3806
172.500000	88.632599	159.4483
175.000000	88.560974	159.5460
177.500000	88.468208	159.4000
180.000000	88.419792	159.3384
182.500000	88.349754	159.4630
185.000000	88.259666	159.5509
187.500000	88.177910	159.5446
190.000000	88.115929	159.5459
192.500000	88.049217	159.6877
195.000000	87.984215	159.7739
197.500000	87.897095	159.7912
200.000000	87.854576	159.8260
203.000000	87.757607	160.0111
206.000000	87.655350	160.2205
209.000000	87.571541	160.1715
212.000000	87.501953	160.2927
214.000000	87.444626	160.3694
218.000000	87.335579	160.4012
220.000000	87.329628	160.4916
224.000000	87.210762	161.0110
227.000000	87.133743	161.1392
230.000000	87.091599	160.7965
233.000000	87.047668	161.2500
236.000000	86.973175	161.3944
240.000000	86.896576	161.8024
243.000000	86.803574	161.5743
247.000000	86.711105	161.8812
250.000000	86.637184	161.9887
254.000000	86.579941	162.5748
258.000000	86.506920	162.8107
262.000000	86.380768	163.0134
265.000000	86.318619	163.2453
269.000000	86.239273	163.3729
272.000000	86.170212	163.6393
276.000000	86.095558	163.9479
280.000000	85.997871	164.2094
285.000000	85.905945	164.5779
290.000000	85.798546	164.9710
295.000000	85.701111	165.3385
300.000000	85.612480	165.7280
304.000000	85.533287	166.0987
307.000000	85.485870	166.3667
311.000000	85.412849	166.6542
315.000000	85.338173	167.0514
320.000000	85.234421	167.4018
325.000000	85.149551	167.8627
330.000000	85.065666	168.3463
335.000000	84.976379	168.8561
340.000000	84.883881	169.2600
345.000000	84.797340	169.6985
350.000000	84.725517	170.1879
355.000000	84.638161	170.6301
360.000000	84.551956	171.1285
365.000000	84.460968	171.6899
370.000000	84.400513	172.1153
375.000000	84.332466	172.6245
382.000000	84.227303	173.2507
387.000000	84.154366	173.7049
395.000000	84.027107	174.4800
400.000000	83.969627	175.1166
406.000000	83.896713	175.6404
412.000000	83.804840	176.2914
418.000000	83.732216	176.8531
425.000000	83.646149	177.6508
431.000000	83.558029	178.2867
437.000000	83.484535	178.9293
444.000000	83.421204	179.6288
450.000000	83.381943	-179.5554
455.000000	83.306412	-179.1235
462.000000	83.229675	-178.5048
468.000000	83.165482	-177.9193
475.000000	83.092682	-177.2827
482.000000	83.016708	-176.6400
487.000000	82.971863	-176.0808
494.000000	82.893776	-175.4359
500.000000	82.844307	-174.5940
508.000000	82.757675	-173.9324
515.000000	82.683708	-173.0746
522.000000	82.630432	-172.3001
530.000000	82.542114	-171.5127
538.000000	82.459152	-170.5859
545.000000	82.383026	-169.7706
552.000000	82.349335	-168.8977
560.000000	82.277016	-167.9443
570.000000	82.199097	-166.9191
580.000000	82.118423	-165.7028
590.000000	82.049019	-164.5169
600.000000	81.998245	-163.4363
608.000000	81.931587	-162.4918
615.000000	81.877640	-161.6399
622.000000	81.837128	-160.8199
630.000000	81.796494	-159.7971
640.000000	81.741104	-158.6759
650.000000	81.682388	-157.4672
660.000000	81.641541	-156.3870
670.000000	81.602867	-155.1529
680.000000	81.548134	-154.0222
690.000000	81.508911	-152.8083
700.000000	81.482498	-151.8127
710.000000	81.420433	-150.4162
720.000000	81.383530	-149.2116
730.000000	81.343658	-148.0336
740.000000	81.328079	-146.7606
750.000000	81.285027	-145.5829
762.000000	81.269104	-144.0842
775.000000	81.238449	-142.4982
788.000000	81.209991	-140.9221
800.000000	81.189690	-139.5345
812.000000	81.170845	-137.9748
825.000000	81.141388	-136.3151
838.000000	81.143951	-134.8363
850.000000	81.149254	-133.2732
862.000000	81.155594	-131.8105
875.000000	81.172867	-130.1998
885.000000	81.175674	-129.0757
900.000000	81.226021	-127.3097
912.000000	81.226723	-125.8542
925.000000	81.243797	-124.0934
938.000000	81.302139	-122.6323
950.000000	81.347488	-121.1996
962.000000	81.393974	-119.8826
975.000000	81.461746	-118.5072
988.000000	81.519508	-116.9565
1000.000000	81.661873	-115.5214
1015.000000	81.652863	-114.0811
1030.000000	81.726334	-112.5396
1044.000000	81.803398	-111.1181
1060.000000	81.901039	-109.5540
1075.000000	81.999069	-108.2598
1090.000000	82.101089	-106.7812
1106.000000	82.221527	-105.3664
1120.000000	82.329414	-104.1432
1138.000000	82.464386	-102.7531
1150.000000	82.564507	-101.7407
1172.000000	82.728836	-100.2270
1180.000000	82.796272	-99.6257
1206.000000	82.984467	-97.8514
1220.000000	83.100571	-96.8855
1241.000000	83.263306	-95.6630
1250.000000	83.328537	-95.1905
1265.000000	83.444427	-94.2457
1280.000000	83.551949	-93.3483
1315.000000	83.795685	-91.4551
1320.000000	83.832291	-91.1946
1340.000000	83.972466	-90.0982
1360.000000	84.108444	-89.0992
1380.000000	84.232521	-88.0735
1400.000000	84.362602	-86.9750
1430.000000	84.547760	-85.5106
1450.000000	84.676262	-84.5717
1475.000000	84.822006	-83.3291
1500.000000	84.982246	-82.1423
1525.000000	85.124443	-80.8853
1550.000000	85.275230	-79.7130
1575.000000	85.437370	-78.6192
1600.000000	85.592430	-77.3909
1625.000000	85.742661	-76.3628
1650.000000	85.892746	-75.1631
1675.000000	86.061073	-74.0795
1700.000000	86.212654	-73.0065
1725.000000	86.377502	-71.8848
1750.000000	86.535538	-70.8787
1775.000000	86.696426	-69.8917
1800.000000	86.853966	-68.8661
1825.000000	87.017929	-67.9391
1850.000000	87.198120	-67.0069
1875.000000	87.361557	-66.1420
1900.000000	87.521004	-65.3012
1925.000000	87.695419	-64.4785
1950.000000	87.859016	-63.7315
1975.000000	88.012421	-63.0212
2000.000000	88.120789	-62.6060
2030.000000	88.389542	-61.4974
2060.000000	88.601440	-60.7314
2090.000000	88.796692	-60.0505
2120.000000	88.994576	-59.4700
2140.000000	89.125137	-59.0875
2180.000000	89.375725	-58.4333
2200.000000	89.502655	-58.1463
2240.000000	89.744064	-57.7992
2270.000000	89.908211	-57.9138
2300.000000	90.066513	-58.1969
2330.000000	90.220154	-58.5822
2360.000000	90.364403	-58.9994
2400.000000	90.540230	-59.4192
2430.000000	90.669907	-59.5468
2470.000000	90.815048	-59.5815
2500.000000	90.914970	-59.6659
2540.000000	91.018799	-59.7999
2580.000000	91.100632	-60.0049
2620.000000	91.172943	-60.1416
2650.000000	91.213440	-60.2393
2690.000000	91.252029	-60.4062
2720.000000	91.274445	-60.4633
2760.000000	91.271935	-60.5119
2800.000000	91.258011	-60.5103
2850.000000	91.221985	-60.4183
2900.000000	91.174019	-60.2419
2950.000000	91.120102	-59.9492
3000.000000	91.051620	-59.2459
3040.000000	90.993080	-59.1011
3070.000000	90.944565	-58.8122
3110.000000	90.879669	-58.3181
3150.000000	90.820312	-57.7712
3200.000000	90.745171	-56.9187
3250.000000	90.670929	-56.0040
3300.000000	90.601929	-55.0209
3350.000000	90.548904	-53.9032
3400.000000	90.506287	-52.8239
3450.000000	90.489624	-51.6423
3500.000000	90.493286	-50.4711
3550.000000	90.497421	-49.3237
3600.000000	90.516327	-48.1168
3650.000000	90.539368	-46.8517
3700.000000	90.568405	-45.5312
3750.000000	90.629448	-44.1302
3820.000000	90.761795	-42.0800
3870.000000	90.894272	-40.7648
3950.000000	91.146805	-39.1649
4000.000000	91.294167	-38.6074
4060.000000	91.510956	-37.8097
4120.000000	91.687119	-37.4308
4180.000000	91.850357	-37.1905
4250.000000	92.043930	-36.9437
4310.000000	92.198982	-36.9666
4370.000000	92.352028	-37.1574
4440.000000	92.525452	-37.5780
4500.000000	92.663589	-38.1439
4550.000000	92.757736	-38.7635
4620.000000	92.866562	-39.8650
4680.000000	92.925339	-41.0087
4750.000000	92.968369	-42.5507
4820.000000	92.936516	-44.2724
4870.000000	92.876419	-45.5520
4940.000000	92.732590	-47.3757
5000.000000	92.550529	-48.9648
5080.000000	92.228668	-50.4745
5150.000000	91.920471	-51.5821
5220.000000	91.561584	-52.3805
5300.000000	91.107689	-52.9246
5380.000000	90.623222	-52.9144
5450.000000	90.223511	-52.6296
5520.000000	89.764175	-51.9253
5600.000000	89.251221	-50.8434
5700.000000	88.648834	-48.9560
5800.000000	88.085754	-46.6353
5900.000000	87.559113	-43.9415
6000.000000	87.079277	-40.9305
6080.000000	86.749100	-38.2919
6150.000000	86.498161	-35.9019
6220.000000	86.281197	-33.4212
6300.000000	86.062584	-30.5205
6400.000000	85.848221	-26.8126
6500.000000	85.681976	-22.9851
6600.000000	85.592552	-19.1299
6700.000000	85.551506	-15.3953
6800.000000	85.576134	-11.6302
6900.000000	85.682747	-7.8586
7000.000000	85.880341	-4.2234
7100.000000	86.149521	-0.7300
7200.000000	86.500282	2.6472
7300.000000	86.994324	5.6477
7400.000000	87.569572	8.2463
7500.000000	88.268646	9.9782
7620.000000	89.259415	10.5463
7750.000000	90.432495	8.5101
7880.000000	91.554382	2.4876
8000.000000	92.209610	-7.3224
8120.000000	92.100769	-19.2844
8250.000000	91.034645	-30.8991
8380.000000	89.400673	-38.1121
8500.000000	87.790009	-40.9831
8620.000000	86.258499	-41.1999
8750.000000	84.732475	-39.4046
8850.000000	83.657387	-37.0238
9000.000000	82.228043	-32.4295
9120.000000	81.227150	-28.2510
9250.000000	80.305840	-22.9303
9380.000000	79.489952	-17.5876
9500.000000	78.836716	-12.7268
9620.000000	78.271576	-7.4866
9750.000000	77.672546	-1.7545
9880.000000	77.240913	4.1459
10000.000000	76.881889	9.3545
10150.000000	76.542900	16.1234
10300.000000	76.302086	23.0881
10440.000000	76.215988	28.9806
10600.000000	76.259178	36.1094
10750.000000	76.386467	42.4111
10900.000000	76.623772	48.2845
11060.000000	77.050621	54.3049
11200.000000	77.586746	58.5945
11380.000000	78.491867	63.5748
11500.000000	79.176422	66.0575
11720.000000	80.823792	66.9535
11800.000000	81.479164	65.9105
12060.000000	83.381210	54.8011
12200.000000	83.742020	43.9523
12410.000000	82.916862	28.5880
12500.000000	82.211227	24.0380
12650.000000	80.870865	19.5621
12800.000000	79.591866	18.3905
13150.000000	77.277382	22.7381
13200.000000	77.010277	23.5565
13400.000000	76.226891	28.7029
13600.000000	75.796577	33.4968
13800.000000	75.625252	38.3092
14000.000000	75.777817	41.7633
14300.000000	76.106506	39.2156
14500.000000	71.637520	34.9195
14750.000000	78.070946	82.4332
15000.000000	83.426453	61.7176
15250.000000	84.940887	10.4836
15500.000000	80.058838	-18.9011
15750.000000	75.993813	-23.9261
16000.000000	73.245682	-21.2925
16250.000000	71.382835	-18.2756
16500.000000	70.255959	-14.2949
16750.000000	69.806305	-11.2168
17000.000000	70.298157	-12.4494
17250.000000	71.399384	-21.9641
17500.000000	71.805534	-46.7310
17750.000000	69.015274	-78.7752
18000.000000	64.554794	-97.0212
18250.000000	60.681255	-108.7242
18500.000000	57.312836	-111.4017
18750.000000	54.833431	-112.2210
19000.000000	53.077503	-112.7758
19250.000000	50.158176	-114.5150
19500.000000	47.427406	-121.8194
19750.000000	46.956684	-133.0374
