* Measurement data measured by REW V5.20 Beta 60
* Source: Headset (USB-C to 3.5mm Headphone Jack Adapter), MICROPHONE (Master Volume), R, volume: 0.258
* Format: 256k Log Swept Sine, 1 sweep at -12.0 dBFS with no timing reference
* Dated: Mar 3, 2021 5:04:55 PM
* REW Settings:
*  C-weighting compensation: Off
*  Target level: 75.0 dB
* Note: ; 
* Measurement: Campfire Ara L
* Smoothing: None
* Frequency Step: 1/48 octave
* Start Frequency: 20.000 Hz
*
* Freq(Hz)	SPL(dB)	Phase(degrees)
20.000000	86.003006	-4.3690
20.299999	86.070282	-3.7145
20.600000	86.288422	-2.8154
20.900000	86.615959	-2.3606
21.200001	86.955864	-2.7765
21.400000	87.128319	-3.4161
21.799999	87.298462	-4.9782
22.000000	87.294853	-5.5834
22.400000	87.172134	-5.8966
22.700001	87.060181	-5.2551
23.000000	86.998688	-4.1805
23.299999	86.984756	-3.1385
23.600000	86.974724	-2.3135
24.000000	86.898819	-1.4597
24.299999	86.782303	-0.6823
24.700001	86.599876	0.8662
25.000000	86.498245	2.3076
25.400000	86.441620	4.1066
25.799999	86.418839	5.3560
26.200001	86.365845	6.1803
26.500000	86.311943	6.7637
26.900000	86.269730	7.5797
27.200001	86.287659	7.9827
27.600000	86.353210	7.8335
28.000000	86.368866	6.8518
28.500000	86.222809	5.3801
29.000000	85.996178	5.0459
29.500000	85.937958	5.8102
30.000000	86.108101	6.0696
30.400000	86.265625	5.3131
30.700001	86.322037	4.4517
31.100000	86.306511	3.5486
31.500000	86.254662	3.3181
32.000000	86.264572	3.7536
32.500000	86.373230	4.0511
33.000000	86.459061	3.8551
33.500000	86.458443	3.6627
34.000000	86.425781	3.8883
34.500000	86.430107	4.2416
35.000000	86.446014	4.3378
35.500000	86.424103	4.2282
36.000000	86.369934	4.2188
36.500000	86.327835	4.3237
37.000000	86.313583	4.3318
37.500000	86.305283	4.1488
38.200001	86.277985	3.8618
38.700001	86.271156	3.7571
39.500000	86.309395	3.5474
40.000000	86.339417	3.3294
40.599998	86.363312	3.0499
41.200001	86.374115	2.8350
41.799999	86.370926	2.7257
42.500000	86.358025	2.8031
43.099998	86.361221	2.9548
43.700001	86.372604	3.0167
44.400002	86.372375	2.9932
45.000000	86.370056	2.9877
45.500000	86.376183	2.9263
46.200001	86.371796	2.7207
46.799999	86.347565	2.6384
47.500000	86.345840	2.7601
48.200001	86.380829	2.7647
48.700001	86.396568	2.6390
49.400002	86.395897	2.5674
50.000000	86.399536	2.6029
50.799999	86.402657	2.5232
51.500000	86.384308	2.5707
52.200001	86.385277	2.6665
53.000000	86.376419	2.5166
53.799999	86.329094	2.6125
54.500000	86.351440	2.9185
55.200001	86.422371	2.7487
56.000000	86.435310	2.1726
57.000000	86.399681	1.9025
58.000000	86.383476	1.7184
59.000000	86.331390	1.7481
60.000000	86.314247	2.1401
60.799999	86.336754	2.4092
61.500000	86.375328	2.4539
62.200001	86.399506	2.3068
63.000000	86.404427	2.1780
64.000000	86.429314	2.0126
65.000000	86.428192	1.6692
66.000000	86.405708	1.5415
67.000000	86.381302	1.4298
68.000000	86.343674	1.6210
69.000000	86.372063	1.7949
70.000000	86.376472	1.5900
71.000000	86.351173	1.5240
72.000000	86.343315	1.5672
73.000000	86.359314	1.4984
74.000000	86.345985	1.3049
75.000000	86.332085	1.4418
76.199997	86.369614	1.4246
77.500000	86.366302	1.2685
78.800003	86.370659	1.2817
80.000000	86.359985	1.1393
81.199997	86.347321	1.3900
82.500000	86.332336	1.3985
83.800003	86.380585	2.0546
85.000000	86.393318	1.4808
86.199997	86.363396	1.8574
87.500000	86.334000	1.3609
88.500000	86.318741	1.6681
90.000000	86.267166	0.9975
91.199997	86.318710	1.3661
92.500000	86.254272	0.5526
93.800003	86.334534	1.2119
95.000000	86.296097	0.5733
96.199997	86.357147	1.2664
97.500000	86.286217	0.5487
98.800003	86.301682	1.6084
100.000000	86.291786	0.8241
101.500000	86.249062	1.3653
103.000000	86.241463	0.6872
104.400002	86.231194	1.0063
106.000000	86.234756	0.6446
107.500000	86.243553	1.1490
109.000000	86.192207	0.8825
110.599998	86.172615	1.3082
112.000000	86.198975	1.0222
113.800003	86.119415	0.4825
115.000000	86.156189	0.8255
117.199997	86.065086	0.8887
118.000000	86.144226	1.7132
120.599998	86.046799	0.8007
122.000000	86.055153	1.1528
124.099998	85.968414	1.0338
125.000000	85.975082	1.0866
126.500000	85.969971	1.2458
128.000000	86.055161	1.1263
131.500000	85.920006	1.8908
132.000000	85.941750	1.9491
134.000000	85.789589	1.2354
136.000000	85.956879	3.6881
138.000000	85.947464	2.6693
140.000000	85.804070	6.0008
143.000000	85.974396	4.5359
145.000000	85.825462	5.4140
147.500000	86.440224	5.0726
150.000000	86.314606	3.8170
152.500000	86.489029	3.9011
155.000000	86.438759	2.9362
157.500000	86.401596	2.2823
160.000000	86.465233	2.4753
162.500000	86.490997	1.6816
165.000000	86.436859	1.4168
167.500000	86.408302	1.2383
170.000000	86.416145	1.3030
172.500000	86.380844	1.1954
175.000000	86.326263	1.0460
177.500000	86.314255	0.8742
180.000000	86.283524	0.7615
182.500000	86.237518	0.8382
185.000000	86.191246	1.0121
187.500000	86.157829	0.9866
190.000000	86.122688	0.9807
192.500000	86.098335	0.8538
195.000000	86.067863	0.7501
197.500000	86.043022	0.7935
200.000000	86.013985	0.7648
203.000000	85.987892	0.9163
206.000000	85.946182	0.8127
209.000000	85.906693	0.9584
212.000000	85.867821	0.9662
214.000000	85.845863	1.1706
218.000000	85.903419	0.8666
220.000000	85.871506	1.1829
224.000000	85.845558	1.0490
227.000000	85.808456	1.4680
230.000000	85.763756	1.6616
233.000000	85.670708	1.7175
236.000000	85.701164	0.9351
240.000000	85.740692	0.7442
243.000000	85.741348	1.1304
247.000000	85.685028	1.2777
250.000000	85.662079	1.2835
254.000000	85.641136	1.6496
258.000000	85.582855	1.5821
262.000000	85.555290	1.3865
265.000000	85.608383	1.4750
269.000000	85.551773	1.9083
272.000000	85.474449	1.5739
276.000000	85.423088	1.9863
280.000000	85.431206	2.0556
285.000000	85.398491	1.9716
290.000000	85.329254	2.1585
295.000000	85.288483	2.3134
300.000000	85.222763	2.6531
304.000000	85.192909	2.9330
307.000000	85.175354	3.2370
311.000000	85.151855	3.6316
315.000000	85.159584	4.0484
320.000000	85.208282	4.3546
325.000000	85.249123	4.3032
330.000000	85.253296	4.0921
335.000000	85.227608	3.9440
340.000000	85.188026	3.8277
345.000000	85.142899	3.7894
350.000000	85.088867	3.7799
355.000000	85.041290	3.9486
360.000000	84.987282	4.0411
365.000000	84.947639	4.2477
370.000000	84.905594	4.3603
375.000000	84.869568	4.4789
382.000000	84.803017	4.5722
387.000000	84.767059	4.8199
395.000000	84.695999	5.1058
400.000000	84.665382	5.3244
406.000000	84.622726	5.5654
412.000000	84.571342	5.7569
418.000000	84.520493	5.8882
425.000000	84.477982	6.2008
431.000000	84.434692	6.4375
437.000000	84.391197	6.7382
444.000000	84.346512	7.0987
450.000000	84.316750	7.3539
455.000000	84.283028	7.4666
462.000000	84.231949	7.6095
468.000000	84.179855	7.8701
475.000000	84.120499	8.1866
482.000000	84.070145	8.4944
487.000000	84.034035	8.8016
494.000000	83.988167	9.0246
500.000000	83.961121	9.4305
508.000000	83.900391	9.7587
515.000000	83.854828	10.1448
522.000000	83.811714	10.5214
530.000000	83.747963	11.0620
538.000000	83.700768	11.4381
545.000000	83.665161	11.8247
552.000000	83.609909	12.2641
560.000000	83.562782	12.7204
570.000000	83.502312	13.3793
580.000000	83.445557	14.0499
590.000000	83.379448	14.6822
600.000000	83.337448	15.3047
608.000000	83.280731	15.8629
615.000000	83.244438	16.3525
622.000000	83.216080	16.8001
630.000000	83.183731	17.3895
640.000000	83.131287	18.0945
650.000000	83.095459	18.7993
660.000000	83.055267	19.5304
670.000000	83.011673	20.2527
680.000000	82.983589	21.0516
690.000000	82.939301	21.7973
700.000000	82.911659	22.6239
710.000000	82.868729	23.3679
720.000000	82.833664	24.2038
730.000000	82.807846	25.0358
740.000000	82.779152	25.8426
750.000000	82.758003	26.6803
762.000000	82.733170	27.7080
775.000000	82.703621	28.8307
788.000000	82.688042	29.9670
800.000000	82.659401	31.0521
812.000000	82.664131	32.0825
825.000000	82.664566	33.2931
838.000000	82.674271	34.3988
850.000000	82.680641	35.5083
862.000000	82.697960	36.6173
875.000000	82.717850	37.8312
885.000000	82.735786	38.7568
900.000000	82.799942	40.1341
912.000000	82.837341	41.2252
925.000000	82.890160	42.3666
938.000000	82.957382	43.5084
950.000000	83.021179	44.5444
962.000000	83.086609	45.6134
975.000000	83.167892	46.7292
988.000000	83.276703	47.8300
1000.000000	83.439735	49.0045
1015.000000	83.473244	49.8600
1030.000000	83.590866	50.8695
1044.000000	83.711929	51.8655
1060.000000	83.861954	52.8557
1075.000000	84.006210	53.7696
1090.000000	84.169228	54.5780
1106.000000	84.347092	55.3813
1120.000000	84.507278	55.9599
1138.000000	84.716629	56.7108
1150.000000	84.850945	57.1247
1172.000000	85.099861	57.8534
1180.000000	85.193634	58.0561
1206.000000	85.508064	58.6461
1220.000000	85.679817	58.9157
1241.000000	85.939789	59.1434
1250.000000	86.049530	59.2131
1265.000000	86.234695	59.3081
1280.000000	86.411324	59.3916
1315.000000	86.836769	59.3456
1320.000000	86.899544	59.2961
1340.000000	87.142685	59.0747
1360.000000	87.389481	58.8075
1380.000000	87.635910	58.4283
1400.000000	87.881638	57.9172
1430.000000	88.242607	57.0289
1450.000000	88.485306	56.2586
1475.000000	88.780594	55.0755
1500.000000	89.076523	53.6967
1525.000000	89.344292	52.0168
1550.000000	89.605110	50.0724
1575.000000	89.834991	47.8992
1600.000000	90.036049	45.5106
1625.000000	90.188614	42.9404
1650.000000	90.300705	40.1284
1675.000000	90.358948	37.2194
1700.000000	90.355080	34.2056
1725.000000	90.299011	31.2614
1750.000000	90.172997	28.3514
1775.000000	90.000526	25.6513
1800.000000	89.772514	23.0877
1825.000000	89.527489	20.7071
1850.000000	89.245499	18.5713
1875.000000	88.941467	16.7674
1900.000000	88.626160	15.2085
1925.000000	88.278458	13.9428
1950.000000	87.933586	12.9114
1975.000000	87.573036	12.0297
2000.000000	87.186302	11.1284
2030.000000	86.873283	10.9160
2060.000000	86.515877	10.7201
2090.000000	86.152054	10.6752
2120.000000	85.804680	10.8228
2140.000000	85.594208	10.9788
2180.000000	85.190804	11.5598
2200.000000	85.017494	11.8394
2240.000000	84.685432	12.4559
2270.000000	84.450935	12.7744
2300.000000	84.233177	13.0125
2330.000000	84.032440	13.2560
2360.000000	83.851883	13.5105
2400.000000	83.657471	14.0748
2430.000000	83.559479	14.7886
2470.000000	83.432533	15.9064
2500.000000	83.363480	16.6283
2540.000000	83.294952	17.6362
2580.000000	83.262459	18.6199
2620.000000	83.256622	19.4430
2650.000000	83.296577	19.9754
2690.000000	83.368858	20.6446
2720.000000	83.440750	21.0482
2760.000000	83.566383	21.4330
2800.000000	83.712440	21.6107
2850.000000	83.924103	21.5066
2900.000000	84.188354	21.0651
2950.000000	84.483429	20.1512
3000.000000	84.792007	19.1410
3040.000000	85.031876	17.3684
3070.000000	85.219864	15.9728
3110.000000	85.437286	14.0154
3150.000000	85.629211	11.8201
3200.000000	85.832298	8.7565
3250.000000	85.969894	5.7010
3300.000000	86.079147	2.5858
3350.000000	86.171417	-0.5819
3400.000000	86.243080	-3.8779
3450.000000	86.293037	-7.2508
3500.000000	86.288727	-10.8281
3550.000000	86.213760	-14.4357
3600.000000	86.037422	-17.7471
3650.000000	85.797882	-20.5935
3700.000000	85.525200	-22.7759
3750.000000	85.241867	-24.4615
3820.000000	84.847656	-25.7264
3870.000000	84.595703	-26.0554
3950.000000	84.258453	-25.8363
4000.000000	84.064240	-25.5989
4060.000000	84.002701	-24.2423
4120.000000	83.957977	-23.0336
4180.000000	83.981186	-21.6322
4250.000000	84.097977	-19.7790
4310.000000	84.269699	-18.1282
4370.000000	84.521187	-16.5291
4440.000000	84.918915	-14.9451
4500.000000	85.329849	-13.8512
4550.000000	85.712494	-13.2583
4620.000000	86.275162	-12.9925
4680.000000	86.773308	-13.2447
4750.000000	87.354553	-14.1809
4820.000000	87.914696	-15.7745
4870.000000	88.298904	-17.2565
4940.000000	88.779495	-19.9979
5000.000000	89.113602	-22.8848
5080.000000	89.428696	-26.8570
5150.000000	89.544777	-30.7357
5220.000000	89.508484	-34.4601
5300.000000	89.303902	-38.2487
5380.000000	88.958412	-41.2009
5450.000000	88.585785	-42.9917
5520.000000	88.136398	-43.9912
5600.000000	87.609825	-44.4005
5700.000000	86.988632	-43.5605
5800.000000	86.427742	-41.8856
5900.000000	85.955132	-39.4389
6000.000000	85.555794	-36.4972
6080.000000	85.315491	-33.8638
6150.000000	85.121429	-31.3469
6220.000000	84.964264	-28.6316
6300.000000	84.823021	-25.4474
6400.000000	84.698059	-20.9617
6500.000000	84.633850	-16.0691
6600.000000	84.699089	-10.6049
6700.000000	84.914383	-4.4814
6800.000000	85.385651	1.7470
6900.000000	86.150284	7.3094
7000.000000	87.153633	11.2468
7100.000000	88.198921	12.8493
7200.000000	89.093048	13.0997
7300.000000	89.845848	13.1108
7400.000000	90.598007	13.1924
7500.000000	91.404236	12.9971
7620.000000	92.473465	11.7477
7750.000000	93.689636	8.2259
7880.000000	94.788460	1.2924
8000.000000	95.405670	-8.1701
8120.000000	95.357994	-18.7936
8250.000000	94.607597	-28.4458
8380.000000	93.490135	-34.4414
8500.000000	92.416489	-37.0589
8620.000000	91.458282	-37.5741
8750.000000	90.563240	-36.6517
8850.000000	90.015862	-35.3249
9000.000000	89.409660	-32.8613
9120.000000	89.107307	-31.0406
9250.000000	88.942795	-29.6768
9380.000000	88.929726	-29.1590
9500.000000	89.013977	-29.9848
9620.000000	89.102966	-32.4780
9750.000000	89.079185	-37.3015
9880.000000	88.738548	-43.9353
10000.000000	87.988342	-50.5695
10150.000000	86.546288	-57.5736
10300.000000	84.736458	-61.6935
10440.000000	82.978127	-62.7244
10600.000000	81.004852	-61.4921
10750.000000	79.288391	-58.5076
10900.000000	77.706627	-54.3793
11060.000000	76.178398	-48.9371
11200.000000	74.984558	-43.2971
11380.000000	73.524612	-36.0967
11500.000000	72.694008	-30.8703
11720.000000	71.407463	-21.3975
11800.000000	70.871956	-17.5384
12060.000000	69.528854	-5.7516
12200.000000	69.068153	1.2628
12410.000000	68.342285	10.6489
12500.000000	68.190018	15.0948
12650.000000	67.843361	22.2778
12800.000000	67.575386	29.1990
13150.000000	67.404396	45.9232
13200.000000	67.526161	48.5313
13400.000000	67.731705	56.6735
13600.000000	68.177116	63.6226
13800.000000	68.681747	69.3411
14000.000000	69.151230	74.5191
14300.000000	69.961014	80.9117
14500.000000	70.615509	85.2330
14750.000000	71.603203	88.4652
15000.000000	72.986382	88.7365
15250.000000	74.407036	85.6730
15500.000000	75.680809	78.3151
15750.000000	76.628456	67.5602
16000.000000	76.994774	55.6258
16250.000000	77.312408	42.9676
16500.000000	77.813324	27.8114
16750.000000	77.916641	5.8649
17000.000000	76.656387	-20.9165
17250.000000	73.762329	-43.7891
17500.000000	70.264717	-57.1436
17750.000000	67.137764	-66.8342
18000.000000	64.282440	-76.1225
18250.000000	61.953377	-84.5988
18500.000000	60.026012	-91.3542
18750.000000	58.512558	-95.8538
19000.000000	56.778282	-102.4400
19250.000000	56.201977	-107.7863
19500.000000	56.242592	-119.6625
19750.000000	55.510361	-133.5269
