* Measurement data measured by REW V5.20 Beta 60
* Source: Headset (USB-C to 3.5mm Headphone Jack Adapter), MICROPHONE (Master Volume), R, volume: 0.258
* Format: 256k Log Swept Sine, 1 sweep at -6.0 dBFS with no timing reference
* Dated: Oct 16, 2021 5:20:45 PM
* REW Settings:
*  C-weighting compensation: Off
*  Target level: 75.0 dB
* Note: ; 
* Measurement: Clariar i640 R
* Smoothing: None
* Frequency Step: 1/48 octave
* Start Frequency: 20.000 Hz
*
* Freq(Hz)	SPL(dB)	Phase(degrees)
20.000000	89.170883	-38.6649
20.299999	89.197556	-39.6064
20.600000	89.173798	-40.7430
20.900000	89.087730	-41.8540
21.200001	88.954193	-42.7204
21.400000	88.855133	-43.0789
21.799999	88.672501	-43.3108
22.000000	88.607025	-43.2695
22.400000	88.547134	-43.1843
22.700001	88.542328	-43.3013
23.000000	88.542648	-43.6551
23.299999	88.528847	-44.1745
23.600000	88.492554	-44.7306
24.000000	88.417160	-45.3585
24.299999	88.360275	-45.7013
24.700001	88.303970	-46.0544
25.000000	88.278191	-46.3440
25.400000	88.254822	-46.8716
25.799999	88.218903	-47.5180
26.200001	88.162888	-48.1795
26.500000	88.113182	-48.6298
26.900000	88.044632	-49.1442
27.200001	87.996651	-49.5063
27.600000	87.935013	-50.0072
28.000000	87.862610	-50.5261
28.500000	87.752678	-51.1001
29.000000	87.639091	-51.4371
29.500000	87.555222	-51.6030
30.000000	87.505867	-51.8078
30.400000	87.478287	-52.1184
30.700001	87.453423	-52.4237
31.100000	87.408707	-52.8745
31.500000	87.353180	-53.3172
32.000000	87.277832	-53.7892
32.500000	87.210320	-54.2132
33.000000	87.149742	-54.6455
33.500000	87.087860	-55.1179
34.000000	87.018730	-55.5748
34.500000	86.953033	-55.9801
35.000000	86.894897	-56.3348
35.500000	86.846581	-56.7068
36.000000	86.799248	-57.1265
36.500000	86.744553	-57.5862
37.000000	86.681366	-58.0195
37.500000	86.615494	-58.4048
38.200001	86.520958	-58.8510
38.700001	86.457550	-59.1102
39.500000	86.379936	-59.5197
40.000000	86.334091	-59.8649
40.599998	86.259583	-60.3362
41.200001	86.172806	-60.6782
41.799999	86.104134	-60.9112
42.500000	86.045227	-61.2935
43.099998	85.983673	-61.7303
43.700001	85.913170	-62.0985
44.400002	85.845337	-62.4676
45.000000	85.795807	-62.8657
45.500000	85.747704	-63.2298
46.200001	85.674026	-63.6617
46.799999	85.619377	-64.0106
47.500000	85.552849	-64.4852
48.200001	85.470451	-64.8671
48.700001	85.421295	-65.0477
49.400002	85.379593	-65.3622
50.000000	85.334595	-65.8044
50.799999	85.236565	-66.3474
51.500000	85.160645	-66.5114
52.200001	85.124329	-66.7197
53.000000	85.078896	-67.2223
53.799999	85.004219	-67.7135
54.500000	84.930504	-68.0643
55.200001	84.855583	-68.3129
56.000000	84.797806	-68.4888
57.000000	84.747818	-69.0921
58.000000	84.628708	-69.6420
59.000000	84.569801	-69.8513
60.000000	84.519104	-70.5279
60.799999	84.446762	-70.8333
61.500000	84.430672	-71.0887
62.200001	84.398415	-71.6677
63.000000	84.295090	-72.0741
64.000000	84.239304	-72.0486
65.000000	84.214828	-72.5657
66.000000	84.145744	-72.9808
67.000000	84.097168	-73.6076
68.000000	83.965584	-74.1477
69.000000	83.894287	-74.0077
70.000000	83.939606	-74.3339
71.000000	83.906952	-75.5473
72.000000	83.716682	-75.9686
73.000000	83.690422	-75.3997
74.000000	83.744576	-76.0867
75.000000	83.613876	-76.6818
76.199997	83.606590	-76.4429
77.500000	83.583565	-77.8926
78.800003	83.392281	-78.1175
80.000000	83.387909	-78.2738
81.199997	83.345383	-78.7661
82.500000	83.296310	-79.2483
83.800003	83.247284	-79.5235
85.000000	83.233521	-80.0971
86.199997	83.141579	-80.6436
87.500000	83.109436	-80.9565
88.500000	83.062881	-81.4640
90.000000	83.018288	-81.9446
91.199997	82.964684	-82.2533
92.500000	82.970238	-82.8416
93.800003	82.886993	-83.3739
95.000000	82.820427	-83.8297
96.199997	82.783157	-83.8556
97.500000	82.749733	-84.6069
98.800003	82.722145	-84.7319
100.000000	82.677238	-85.4786
101.500000	82.669250	-85.4635
103.000000	82.576744	-86.5868
104.400002	82.563499	-85.9279
106.000000	82.532478	-87.4321
107.500000	82.479355	-87.0259
109.000000	82.516800	-87.9396
110.599998	82.414642	-88.8997
112.000000	82.343712	-88.7544
113.800003	82.437202	-88.9353
115.000000	82.429039	-89.7631
117.199997	82.298798	-90.3137
118.000000	82.267487	-90.3851
120.599998	82.229134	-90.9585
122.000000	82.160149	-91.5021
124.099998	82.162910	-92.1376
125.000000	82.123550	-92.4816
126.500000	82.117310	-92.5543
128.000000	82.094193	-93.3976
131.500000	82.048035	-93.6662
132.000000	82.085236	-93.9865
134.000000	81.945122	-95.2060
136.000000	81.945602	-94.6490
138.000000	82.014977	-95.4108
140.000000	82.002419	-96.1391
143.000000	81.889160	-97.1784
145.000000	81.868263	-97.2826
147.500000	81.763992	-97.6222
150.000000	81.757530	-98.3691
152.500000	81.727798	-98.9741
155.000000	81.702644	-99.4183
157.500000	81.718925	-100.2619
160.000000	81.701637	-100.7947
162.500000	81.654083	-101.0736
165.000000	81.611511	-101.4859
167.500000	81.635651	-102.1015
170.000000	81.652428	-102.8351
172.500000	81.605682	-103.0563
175.000000	81.541245	-103.6171
177.500000	81.510635	-103.9900
180.000000	81.507812	-104.6228
182.500000	81.496864	-105.0803
185.000000	81.451653	-105.2934
187.500000	81.422417	-105.6918
190.000000	81.434959	-106.1647
192.500000	81.403778	-106.7137
195.000000	81.341637	-107.0114
197.500000	81.333122	-107.3451
200.000000	81.269066	-107.8475
203.000000	81.309891	-108.1517
206.000000	81.229362	-108.1926
209.000000	81.185516	-108.1112
212.000000	81.131760	-109.6151
214.000000	81.109818	-109.9688
218.000000	81.239944	-110.5295
220.000000	81.191177	-110.2734
224.000000	81.158752	-111.0463
227.000000	81.152710	-111.4326
230.000000	81.141129	-111.5811
233.000000	81.106461	-111.9842
236.000000	81.099915	-112.4401
240.000000	81.080734	-112.8653
243.000000	81.056610	-113.1873
247.000000	81.040619	-113.4666
250.000000	81.038727	-113.7648
254.000000	81.013649	-114.1528
258.000000	80.977173	-114.6447
262.000000	80.964935	-114.9916
265.000000	80.969887	-115.1442
269.000000	80.932953	-115.3601
272.000000	80.902596	-115.6365
276.000000	80.908981	-116.0311
280.000000	80.879944	-116.1254
285.000000	80.856445	-116.4790
290.000000	80.837692	-116.7720
295.000000	80.806885	-117.1158
300.000000	80.790154	-117.4174
304.000000	80.781929	-117.6271
307.000000	80.767540	-117.6833
311.000000	80.729034	-117.8411
315.000000	80.735695	-118.0575
320.000000	80.737022	-118.2158
325.000000	80.684753	-118.3125
330.000000	80.651901	-118.6144
335.000000	80.661919	-118.8178
340.000000	80.629608	-118.7227
345.000000	80.621605	-118.9978
350.000000	80.594566	-119.0233
355.000000	80.573433	-119.1853
360.000000	80.539978	-119.2460
365.000000	80.511040	-119.3566
370.000000	80.518982	-119.2297
375.000000	80.488625	-119.5146
382.000000	80.484131	-119.5559
387.000000	80.453995	-119.4461
395.000000	80.437622	-119.6204
400.000000	80.424362	-119.5887
406.000000	80.420135	-119.5367
412.000000	80.441612	-119.1848
418.000000	80.308609	-119.6813
425.000000	80.359329	-119.1704
431.000000	80.366600	-119.1133
437.000000	80.356575	-119.0592
444.000000	80.328941	-118.6707
450.000000	80.293007	-118.7517
455.000000	80.257538	-118.7150
462.000000	80.279327	-118.7012
468.000000	80.286819	-118.6394
475.000000	80.246223	-118.4093
482.000000	80.233864	-118.2029
487.000000	80.219666	-118.1306
494.000000	80.211151	-118.0223
500.000000	80.203140	-117.7177
508.000000	80.197556	-117.3881
515.000000	80.189087	-117.1592
522.000000	80.178139	-116.9401
530.000000	80.167809	-116.5612
538.000000	80.156487	-116.1697
545.000000	80.165009	-115.8434
552.000000	80.149635	-115.5413
560.000000	80.141441	-115.0735
570.000000	80.125153	-114.5236
580.000000	80.126419	-114.0352
590.000000	80.126007	-113.5697
600.000000	80.136223	-113.0659
608.000000	80.129990	-112.4642
615.000000	80.134720	-112.1258
622.000000	80.130646	-111.7856
630.000000	80.154465	-111.1825
640.000000	80.167549	-110.7502
650.000000	80.167221	-110.0327
660.000000	80.168388	-109.3819
670.000000	80.185509	-108.7647
680.000000	80.206093	-108.0909
690.000000	80.222580	-107.3537
700.000000	80.258453	-106.7561
710.000000	80.269791	-106.0372
720.000000	80.285942	-105.2802
730.000000	80.320488	-104.5420
740.000000	80.347229	-103.8219
750.000000	80.379654	-103.0695
762.000000	80.406891	-102.2167
775.000000	80.444618	-101.2307
788.000000	80.474564	-100.2120
800.000000	80.535934	-99.2817
812.000000	80.572357	-98.4062
825.000000	80.630707	-97.3346
838.000000	80.691643	-96.3388
850.000000	80.755966	-95.3645
862.000000	80.812866	-94.4944
875.000000	80.895363	-93.4463
885.000000	80.958344	-92.6390
900.000000	81.051559	-91.5201
912.000000	81.132141	-90.5223
925.000000	81.230957	-89.5508
938.000000	81.328598	-88.6008
950.000000	81.425293	-87.6581
962.000000	81.520676	-86.7798
975.000000	81.635475	-85.9056
988.000000	81.769821	-84.9472
1000.000000	81.950714	-84.0300
1015.000000	82.010078	-83.2642
1030.000000	82.133293	-82.3214
1044.000000	82.267548	-81.5585
1060.000000	82.427094	-80.6927
1075.000000	82.585144	-79.9368
1090.000000	82.743607	-79.2025
1106.000000	82.923248	-78.5419
1120.000000	83.076691	-77.9462
1138.000000	83.266495	-77.3172
1150.000000	83.397903	-76.8930
1172.000000	83.626938	-76.1995
1180.000000	83.704521	-75.9864
1206.000000	83.956604	-75.3416
1220.000000	84.093750	-75.0035
1241.000000	84.306053	-74.6043
1250.000000	84.393951	-74.4005
1265.000000	84.544403	-74.1061
1280.000000	84.680176	-73.9085
1315.000000	84.985405	-73.3232
1320.000000	85.022041	-73.2482
1340.000000	85.190567	-72.9536
1360.000000	85.337631	-72.6046
1380.000000	85.486259	-72.3464
1400.000000	85.631805	-72.0645
1430.000000	85.845665	-71.5545
1450.000000	85.992928	-71.2552
1475.000000	86.172256	-70.9048
1500.000000	86.348236	-70.5366
1525.000000	86.511086	-70.1467
1550.000000	86.684448	-69.7561
1575.000000	86.848610	-69.3888
1600.000000	87.010017	-68.9848
1625.000000	87.169815	-68.5980
1650.000000	87.329002	-68.2469
1675.000000	87.497673	-67.8553
1700.000000	87.664032	-67.5064
1725.000000	87.836838	-67.2009
1750.000000	88.009315	-66.9093
1775.000000	88.180389	-66.6036
1800.000000	88.340897	-66.3140
1825.000000	88.503525	-66.0992
1850.000000	88.657562	-65.8559
1875.000000	88.822517	-65.6780
1900.000000	88.980606	-65.5037
1925.000000	89.138397	-65.3963
1950.000000	89.291267	-65.2801
1975.000000	89.432419	-65.2914
2000.000000	89.525391	-65.5289
2030.000000	89.774170	-65.2303
2060.000000	89.963058	-65.2485
2090.000000	90.130096	-65.3610
2120.000000	90.287346	-65.5378
2140.000000	90.386658	-65.6606
2180.000000	90.568390	-65.9474
2200.000000	90.653297	-66.1023
2240.000000	90.812454	-66.5993
2270.000000	90.915810	-67.2245
2300.000000	91.010773	-68.0582
2330.000000	91.110886	-68.8956
2360.000000	91.188583	-69.7391
2400.000000	91.285248	-70.6355
2430.000000	91.363022	-71.0607
2470.000000	91.435349	-71.4822
2500.000000	91.477875	-71.8033
2540.000000	91.522202	-72.1999
2580.000000	91.553787	-72.5823
2620.000000	91.579010	-72.9199
2650.000000	91.592728	-73.1890
2690.000000	91.601868	-73.4976
2720.000000	91.610733	-73.6816
2760.000000	91.597961	-73.8937
2800.000000	91.580849	-74.0485
2850.000000	91.550354	-74.2023
2900.000000	91.521240	-74.2493
2950.000000	91.490982	-74.1752
3000.000000	91.479591	-73.6648
3040.000000	91.483894	-73.8778
3070.000000	91.491470	-73.8945
3110.000000	91.512085	-73.9315
3150.000000	91.536377	-74.1132
3200.000000	91.541786	-74.4918
3250.000000	91.517021	-74.9356
3300.000000	91.475471	-75.2887
3350.000000	91.428085	-75.6118
3400.000000	91.376244	-75.9761
3450.000000	91.325508	-76.3637
3500.000000	91.273315	-76.8244
3550.000000	91.200729	-77.2529
3600.000000	91.101364	-77.6927
3650.000000	90.976418	-78.0293
3700.000000	90.840645	-78.2531
3750.000000	90.688393	-78.3082
3820.000000	90.483459	-78.1148
3870.000000	90.338310	-77.8199
3950.000000	90.122482	-77.3053
4000.000000	89.989204	-77.2012
4060.000000	89.897583	-76.8718
4120.000000	89.772255	-77.0855
4180.000000	89.601204	-77.5733
4250.000000	89.294495	-78.3444
4310.000000	88.902527	-78.9297
4370.000000	88.401970	-79.0606
4440.000000	87.695641	-78.0382
4500.000000	87.057991	-75.8994
4550.000000	86.552231	-73.0436
4620.000000	85.978828	-67.5428
4680.000000	85.692642	-61.7368
4750.000000	85.703911	-54.5679
4820.000000	86.085358	-47.9386
4870.000000	86.542992	-44.1402
4940.000000	87.339127	-40.6948
5000.000000	88.043427	-39.7211
5080.000000	88.876534	-40.3744
5150.000000	89.384041	-42.5975
5220.000000	89.634270	-45.4618
5300.000000	89.654877	-48.6214
5380.000000	89.469803	-51.0419
5450.000000	89.199036	-52.3892
5520.000000	88.850304	-53.0599
5600.000000	88.452766	-53.1562
5700.000000	87.986168	-52.4892
5800.000000	87.580132	-51.3082
5900.000000	87.213669	-50.0541
6000.000000	86.866898	-49.0820
6080.000000	86.576881	-48.4996
6150.000000	86.258659	-48.1507
6220.000000	85.839554	-47.8409
6300.000000	85.206146	-47.0083
6400.000000	84.214973	-43.9767
6500.000000	83.221222	-37.4273
6600.000000	82.580200	-27.8055
6700.000000	82.546341	-16.8222
6800.000000	83.053726	-7.0607
6900.000000	83.907356	0.7318
7000.000000	84.977661	6.2011
7100.000000	86.092178	9.4330
7200.000000	87.150574	10.5015
7300.000000	88.018265	10.1614
7400.000000	88.735100	9.8946
7500.000000	89.552109	9.3690
7620.000000	90.497658	5.9814
7750.000000	91.073814	0.6644
7880.000000	91.270844	-4.4480
8000.000000	91.272781	-8.8462
8120.000000	91.139725	-13.2284
8250.000000	90.776749	-17.9428
8380.000000	90.137695	-22.0355
8500.000000	89.344437	-24.4364
8620.000000	88.464096	-25.3099
8750.000000	87.455032	-24.5626
8850.000000	86.737328	-22.9674
9000.000000	85.808426	-19.5390
9120.000000	85.137024	-16.3955
9250.000000	84.470917	-12.1545
9380.000000	83.958488	-7.2542
9500.000000	83.593063	-2.5740
9620.000000	83.347389	2.1388
9750.000000	83.205986	7.2360
9880.000000	83.176620	12.0900
10000.000000	83.214584	16.2812
10150.000000	83.414131	21.2265
10300.000000	83.711937	25.5546
10440.000000	84.104813	28.9008
10600.000000	84.630966	31.6143
10750.000000	85.197403	32.8991
10900.000000	85.776794	32.9082
11060.000000	86.326317	31.1968
11200.000000	86.668594	28.3049
11380.000000	86.852821	23.3513
11500.000000	86.760925	19.7765
11720.000000	86.199326	13.5862
11800.000000	85.869743	11.8458
12060.000000	84.598221	8.2949
12200.000000	83.951630	8.0200
12410.000000	83.112907	8.3323
12500.000000	82.754974	8.4838
12650.000000	82.149078	8.7694
12800.000000	81.497032	9.9360
13150.000000	80.176414	14.8344
13200.000000	80.019775	15.5493
13400.000000	79.398903	19.0327
13600.000000	78.825470	22.7375
13800.000000	78.316887	26.6000
14000.000000	77.914001	30.5270
14300.000000	77.379913	36.8320
14500.000000	77.072594	40.9544
14750.000000	76.820183	45.8939
15000.000000	76.579338	51.2231
15250.000000	76.520912	57.5455
15500.000000	77.112480	65.4890
15750.000000	78.889938	65.7926
16000.000000	79.473930	52.9797
16250.000000	78.244522	44.5492
16500.000000	76.964180	42.5249
16750.000000	75.859024	44.5231
17000.000000	75.140266	47.1553
17250.000000	74.597656	49.1770
17500.000000	74.113991	50.7250
17750.000000	73.622948	51.4649
18000.000000	73.157722	49.1151
18250.000000	72.714592	48.0715
18500.000000	72.463631	50.4752
18750.000000	73.074104	57.6479
19000.000000	75.055107	61.4993
19250.000000	76.960915	55.8905
19500.000000	78.158417	47.3254
19750.000000	79.211182	36.8081
