* Measurement data measured by REW V5.20 Beta 47
* Source: Microphone (Realtek Audio), MICROPHONE (Master Volume), R, volume: 0.250
* Format: 256k Log Swept Sine, 1 sweep at -12.0 dBFS with no timing reference
* Dated: Aug 12, 2020 8:58:47 AM
* REW Settings:
*  C-weighting compensation: Off
*  Target level: 75.0 dB
* Note: ; 
* Measurement: DUNU DN-2000 R
* Smoothing: None
* Frequency Step: 1/48 octave
* Start Frequency: 20.000 Hz
*
* Freq(Hz)	SPL(dB)	Phase(degrees)
20.0000	91.3857	159.05
20.3000	91.3395	159.00
20.6000	91.3097	158.95
20.9000	91.2977	158.86
21.2000	91.3025	158.65
21.4000	91.3060	158.42
21.8000	91.2967	157.74
22.0000	91.2799	157.35
22.4000	91.2269	156.66
22.7000	91.1674	156.28
23.0000	91.1100	156.07
23.3000	91.0745	155.98
23.6000	91.0599	155.88
24.0000	91.0537	155.58
24.3000	91.0344	155.25
24.7000	90.9644	154.81
25.0000	90.8817	154.68
25.4000	90.7669	154.97
25.8000	90.7116	155.66
26.2000	90.7387	156.30
26.5000	90.7878	156.47
26.9000	90.8388	156.24
27.2000	90.8307	155.87
27.6000	90.7513	155.46
28.0000	90.6386	155.48
28.5000	90.5445	155.99
29.0000	90.5396	156.43
29.5000	90.5580	156.33
30.0000	90.5304	155.98
30.4000	90.4825	155.78
30.7000	90.4474	155.73
31.1000	90.4154	155.68
31.5000	90.3945	155.57
32.0000	90.3559	155.34
32.5000	90.3040	155.25
33.0000	90.2634	155.32
33.5000	90.2555	155.43
34.0000	90.2547	155.41
34.5000	90.2390	155.35
35.0000	90.2142	155.35
35.5000	90.1927	155.41
36.0000	90.1740	155.41
36.5000	90.1343	155.37
37.0000	90.0784	155.41
37.5000	90.0169	155.60
38.2000	89.9587	155.88
38.7000	89.9144	155.96
39.5000	89.8108	156.17
40.0000	89.7600	156.49
40.6000	89.7480	156.79
41.2000	89.7531	156.70
41.8000	89.7149	156.34
42.5000	89.6110	156.13
43.1000	89.5304	156.31
43.7000	89.4938	156.59
44.4000	89.4829	156.72
45.0000	89.4618	156.66
45.5000	89.4245	156.62
46.2000	89.3540	156.76
46.8000	89.3082	157.06
47.5000	89.2901	157.35
48.2000	89.2675	157.36
48.7000	89.2257	157.33
49.4000	89.1514	157.44
50.0000	89.1051	157.61
50.8000	89.0551	157.71
51.5000	88.9989	157.79
52.2000	88.9584	158.00
53.0000	88.9396	158.10
53.8000	88.8967	158.10
54.5000	88.8564	158.33
55.2000	88.8520	158.53
56.0000	88.8353	158.47
57.0000	88.7418	158.58
58.0000	88.6856	159.04
59.0000	88.6472	159.18
60.0000	88.5776	159.38
60.8000	88.5453	159.61
61.5000	88.5271	159.68
62.2000	88.4971	159.71
63.0000	88.4581	159.83
64.0000	88.4288	160.05
65.0000	88.4050	160.18
66.0000	88.3608	160.29
67.0000	88.3120	160.56
68.0000	88.2868	160.75
69.0000	88.2352	160.84
70.0000	88.1902	161.13
71.0000	88.1723	161.30
72.0000	88.1456	161.43
73.0000	88.1302	161.56
74.0000	88.1046	161.63
75.0000	88.0716	161.87
76.2000	88.0573	162.13
77.5000	88.0132	162.32
78.8000	87.9666	162.61
80.0000	87.9220	162.91
81.2000	87.9034	163.13
82.5000	87.8531	163.10
83.8000	87.8003	163.53
85.0000	87.8285	163.68
86.2000	87.8015	163.68
87.5000	87.7868	163.88
88.5000	87.7608	164.07
90.0000	87.7646	164.41
91.2000	87.7366	164.42
92.5000	87.6912	164.63
93.8000	87.6489	164.75
95.0000	87.6111	165.04
96.2000	87.6017	165.20
97.5000	87.5722	165.37
98.8000	87.5390	165.57
100.0000	87.5121	165.89
101.5000	87.5021	166.10
103.0000	87.4661	166.30
104.4000	87.4540	166.52
106.0000	87.4347	166.65
107.5000	87.4114	166.83
109.0000	87.3881	167.03
110.6000	87.3538	167.19
112.0000	87.3274	167.44
113.8000	87.3035	167.70
115.0000	87.3277	167.80
117.2000	87.3158	167.77
118.0000	87.2935	167.83
120.6000	87.2745	168.19
122.0000	87.2583	168.39
124.1000	87.2246	168.66
125.0000	87.2072	168.69
126.5000	87.2014	168.90
128.0000	87.1582	168.85
131.5000	87.1416	169.40
132.0000	87.1390	169.46
134.0000	87.1155	169.62
136.0000	87.1026	169.80
138.0000	87.0770	169.93
140.0000	87.0444	170.46
143.0000	87.0154	170.72
145.0000	86.9841	170.67
147.5000	86.9562	170.82
150.0000	86.9368	171.03
152.5000	86.9306	171.39
155.0000	86.9297	171.70
157.5000	86.9209	171.83
160.0000	86.8988	171.99
162.5000	86.9048	172.21
165.0000	86.8862	172.34
167.5000	86.9202	172.42
170.0000	86.8884	172.51
172.5000	86.8658	172.67
175.0000	86.8504	172.94
177.5000	86.8074	173.23
180.0000	86.7835	173.49
182.5000	86.7629	173.51
185.0000	86.7553	173.87
187.5000	86.7514	173.99
190.0000	86.7278	174.21
192.5000	86.7208	174.34
195.0000	86.6859	174.35
197.5000	86.6888	174.44
200.0000	86.6714	174.50
203.0000	86.6535	174.62
206.0000	86.6184	174.85
209.0000	86.6023	175.12
212.0000	86.5747	175.37
214.0000	86.5605	175.48
218.0000	86.5541	175.76
220.0000	86.5433	175.79
224.0000	86.5382	176.04
227.0000	86.5287	176.05
230.0000	86.5319	176.24
233.0000	86.5109	176.46
236.0000	86.5149	176.57
240.0000	86.5041	176.76
243.0000	86.4747	176.95
247.0000	86.4673	177.21
250.0000	86.4529	177.25
254.0000	86.4330	177.28
258.0000	86.4222	177.51
262.0000	86.4034	177.62
265.0000	86.3834	177.80
269.0000	86.3624	178.05
272.0000	86.3421	178.25
276.0000	86.3107	178.40
280.0000	86.3114	178.56
285.0000	86.2899	178.75
290.0000	86.2772	178.98
295.0000	86.2558	179.08
300.0000	86.2333	179.28
304.0000	86.2194	179.32
307.0000	86.2161	179.48
311.0000	86.2197	179.76
315.0000	86.1928	179.85
320.0000	86.2005	-179.93
325.0000	86.2002	-179.75
330.0000	86.1806	-179.70
335.0000	86.1650	-179.52
340.0000	86.1544	-179.34
345.0000	86.1488	-179.13
350.0000	86.1335	-178.94
355.0000	86.1105	-178.73
360.0000	86.0925	-178.62
365.0000	86.0773	-178.56
370.0000	86.0636	-178.40
375.0000	86.0469	-178.18
382.0000	85.9996	-177.98
387.0000	85.9758	-177.76
395.0000	85.9610	-177.56
400.0000	85.9301	-177.44
406.0000	85.9090	-177.20
412.0000	85.8680	-177.00
418.0000	85.8558	-176.89
425.0000	85.8404	-176.56
431.0000	85.8265	-176.36
437.0000	85.8077	-176.22
444.0000	85.7926	-176.10
450.0000	85.7957	-176.04
455.0000	85.8002	-175.73
462.0000	85.7584	-175.58
468.0000	85.7239	-175.47
475.0000	85.7312	-175.28
482.0000	85.7054	-174.89
487.0000	85.6706	-174.76
494.0000	85.6658	-174.48
500.0000	85.6260	-174.41
508.0000	85.6025	-174.07
515.0000	85.5676	-173.96
522.0000	85.5519	-173.90
530.0000	85.5297	-173.63
538.0000	85.5150	-173.37
545.0000	85.4818	-173.17
552.0000	85.4634	-172.85
560.0000	85.4090	-172.64
570.0000	85.3838	-172.16
580.0000	85.3517	-171.94
590.0000	85.3255	-171.72
600.0000	85.2707	-171.44
608.0000	85.2824	-171.06
615.0000	85.2381	-170.92
622.0000	85.2260	-170.52
630.0000	85.1883	-170.29
640.0000	85.1560	-170.05
650.0000	85.1589	-169.70
660.0000	85.0891	-169.41
670.0000	85.0838	-169.00
680.0000	85.0798	-168.46
690.0000	85.0425	-168.23
700.0000	85.0454	-167.86
710.0000	85.0177	-167.58
720.0000	84.9817	-167.30
730.0000	84.9683	-166.70
740.0000	84.9483	-166.33
750.0000	84.9184	-165.89
762.0000	84.9111	-165.50
775.0000	84.9172	-165.21
788.0000	84.8972	-164.60
800.0000	84.9022	-164.30
812.0000	84.8750	-163.93
825.0000	84.8884	-163.55
838.0000	84.8401	-163.07
850.0000	84.8268	-162.84
862.0000	84.8290	-162.69
875.0000	84.7808	-162.56
885.0000	84.7386	-162.39
900.0000	84.6575	-162.05
912.0000	84.5558	-161.46
925.0000	84.5185	-160.81
938.0000	84.4758	-160.35
950.0000	84.4335	-159.46
962.0000	84.3913	-158.45
975.0000	84.3984	-157.96
988.0000	84.3909	-157.03
1000.0000	84.4136	-156.36
1015.0000	84.4285	-155.59
1030.0000	84.4353	-155.01
1044.0000	84.4637	-154.43
1060.0000	84.5192	-153.94
1075.0000	84.5494	-153.29
1090.0000	84.6263	-152.89
1106.0000	84.6511	-152.57
1120.0000	84.7431	-152.06
1138.0000	84.7755	-151.65
1150.0000	84.8101	-151.50
1172.0000	84.8631	-150.91
1180.0000	84.9085	-150.98
1206.0000	84.9651	-150.71
1220.0000	85.0301	-150.43
1241.0000	85.0287	-150.46
1250.0000	85.0609	-150.40
1265.0000	85.1066	-150.08
1280.0000	85.1479	-150.17
1315.0000	85.2038	-150.18
1320.0000	85.2113	-150.02
1340.0000	85.2544	-150.12
1360.0000	85.2464	-149.71
1380.0000	85.2603	-149.60
1400.0000	85.2438	-149.77
1430.0000	85.2578	-149.42
1450.0000	85.2318	-149.49
1475.0000	85.2067	-149.30
1500.0000	85.2307	-149.05
1525.0000	85.1935	-149.19
1550.0000	85.1777	-148.36
1575.0000	85.2010	-148.27
1600.0000	85.1667	-148.04
1625.0000	85.1036	-147.48
1650.0000	85.0910	-147.24
1675.0000	85.0963	-146.86
1700.0000	85.0591	-146.39
1725.0000	85.0478	-145.84
1750.0000	85.0552	-145.39
1775.0000	84.9970	-144.99
1800.0000	85.0219	-144.29
1825.0000	84.9720	-143.83
1850.0000	84.9527	-143.38
1875.0000	84.9639	-142.75
1900.0000	84.9967	-142.11
1925.0000	84.9668	-141.23
1950.0000	84.9309	-140.58
1975.0000	84.9535	-140.11
2000.0000	84.9183	-139.36
2030.0000	84.9365	-138.41
2060.0000	84.9366	-137.63
2090.0000	84.9813	-136.78
2120.0000	84.9836	-135.61
2140.0000	84.9938	-135.10
2180.0000	85.0880	-134.10
2200.0000	85.0867	-133.24
2240.0000	85.2211	-132.03
2270.0000	85.3247	-131.13
2300.0000	85.4103	-129.82
2330.0000	85.4974	-129.37
2360.0000	85.6233	-128.56
2400.0000	85.8070	-127.66
2430.0000	85.9593	-126.90
2470.0000	86.1885	-126.31
2500.0000	86.3247	-126.10
2540.0000	86.5705	-125.76
2580.0000	86.8103	-125.88
2620.0000	86.9687	-126.08
2650.0000	87.0887	-126.42
2690.0000	87.2552	-127.02
2720.0000	87.3220	-127.36
2760.0000	87.4083	-127.87
2800.0000	87.4733	-128.47
2850.0000	87.5218	-129.25
2900.0000	87.5241	-129.76
2950.0000	87.5508	-130.33
3000.0000	87.5348	-130.52
3040.0000	87.5269	-130.86
3070.0000	87.5691	-130.53
3110.0000	87.5526	-131.00
3150.0000	87.5237	-130.96
3200.0000	87.5447	-130.95
3250.0000	87.5703	-130.96
3300.0000	87.5561	-130.43
3350.0000	87.5737	-130.81
3400.0000	87.5915	-130.61
3450.0000	87.6753	-130.56
3500.0000	87.7657	-130.45
3550.0000	87.8516	-129.96
3600.0000	87.9405	-130.44
3650.0000	87.9972	-130.18
3700.0000	88.1299	-130.30
3750.0000	88.2447	-130.31
3820.0000	88.4687	-130.80
3870.0000	88.5490	-130.63
3950.0000	88.7498	-131.54
4000.0000	88.8725	-131.70
4060.0000	89.0820	-131.87
4120.0000	89.2721	-132.57
4180.0000	89.3770	-133.27
4250.0000	89.5934	-134.38
4310.0000	89.8451	-136.09
4370.0000	89.9617	-137.59
4440.0000	90.1646	-138.88
4500.0000	90.3373	-141.38
4550.0000	90.5458	-142.91
4620.0000	90.5584	-145.81
4680.0000	90.6501	-148.01
4750.0000	90.6548	-151.31
4820.0000	90.5137	-153.94
4870.0000	90.3441	-156.51
4940.0000	90.2581	-159.06
5000.0000	89.9270	-161.29
5080.0000	89.5888	-163.88
5150.0000	89.3503	-165.14
5220.0000	88.8827	-165.22
5300.0000	88.5772	-164.92
5380.0000	88.5088	-165.46
5450.0000	88.2762	-166.01
5520.0000	87.9070	-166.41
5600.0000	87.7607	-166.78
5700.0000	87.4048	-167.30
5800.0000	87.1555	-166.25
5900.0000	86.7719	-165.40
6000.0000	86.6635	-164.03
6080.0000	86.5051	-163.11
6150.0000	86.5552	-162.92
6220.0000	86.4229	-163.36
6300.0000	86.1144	-161.51
6400.0000	86.1630	-161.17
6500.0000	86.3097	-160.47
6600.0000	86.1309	-159.21
6700.0000	86.1563	-157.92
6800.0000	86.5162	-158.28
6900.0000	86.8966	-155.16
7000.0000	87.0939	-156.05
7100.0000	87.5478	-154.83
7200.0000	87.9428	-152.83
7300.0000	88.2007	-154.33
7400.0000	88.9397	-151.99
7500.0000	89.8288	-152.71
7620.0000	90.7935	-153.48
7750.0000	91.9788	-161.25
7880.0000	93.4427	-165.72
8000.0000	94.4710	-176.41
8120.0000	95.2682	166.88
8250.0000	94.9584	153.00
8380.0000	93.8981	138.24
8500.0000	92.4828	126.70
8620.0000	91.6435	120.72
8750.0000	90.1680	112.79
8850.0000	88.6270	112.36
9000.0000	87.4153	112.31
9120.0000	86.9437	107.16
9250.0000	86.1096	106.93
9380.0000	85.4701	110.92
9500.0000	84.4436	110.12
9620.0000	84.5338	106.47
9750.0000	84.1573	102.82
9880.0000	83.5891	105.28
10000.0000	83.2323	105.67
10150.0000	82.7091	97.10
10300.0000	81.6476	95.76
10440.0000	82.3469	96.98
10600.0000	81.8157	84.91
10750.0000	79.7784	80.15
10900.0000	79.1315	78.93
11060.0000	79.2252	78.72
11200.0000	78.3350	74.17
11380.0000	75.4784	69.00
11500.0000	75.7289	63.77
11720.0000	74.9457	65.27
11800.0000	72.8004	64.68
12060.0000	72.3430	62.47
12200.0000	71.2862	76.13
12410.0000	70.6181	72.17
12500.0000	71.3857	72.92
12650.0000	70.4989	59.08
12800.0000	69.7094	64.21
13150.0000	68.9689	63.61
13200.0000	69.2706	79.73
13400.0000	67.8112	67.94
13600.0000	69.8796	80.43
13800.0000	70.3788	76.32
14000.0000	68.3863	74.64
14300.0000	71.0548	48.38
14500.0000	71.5199	44.36
14750.0000	69.1798	40.66
15000.0000	69.5041	32.38
15250.0000	66.5308	3.90
15500.0000	65.3739	12.28
15750.0000	62.2675	-7.61
16000.0000	66.2541	-12.78
16250.0000	65.7373	-30.74
16500.0000	63.4604	-9.85
16750.0000	63.5094	-42.23
17000.0000	63.1625	-56.77
17250.0000	60.7603	-39.30
17500.0000	61.0976	-64.57
17750.0000	60.3165	-78.09
18000.0000	54.6688	-42.71
18250.0000	56.3744	-95.75
18500.0000	55.7333	-99.00
18750.0000	55.7225	-66.97
19000.0000	47.6697	-92.97
19250.0000	39.4168	-65.05
19500.0000	41.2410	-120.82
19750.0000	51.3054	-106.29
