* Measurement data measured by REW V5.20 Beta 60
* Source: In 1-2 (MOTU M Series), LINE_IN (Master Volume), L, volume: 0.250
* Format: 256k Log Swept Sine, 1 sweep at -10.0 dBFS with no timing reference
* Dated: Sep 17, 2022 10:09:54 PM
* REW Settings:
*  C-weighting compensation: Off
*  Target level: 75.0 dB
* Note: ; 
* Measurement: Elysian Annihilator R
* Smoothing: None
* Frequency Step: 1/48 octave
* Start Frequency: 20.000 Hz
*
* Freq(Hz)	SPL(dB)	Phase(degrees)
20.000000	91.960	168.6295
20.299999	91.970	167.9631
20.600000	91.978	167.2834
20.900000	91.980	166.6136
21.200001	91.982	165.9490
21.400000	91.983	165.5231
21.799999	91.983	164.7250
22.000000	91.984	164.3338
22.400000	91.989	163.4862
22.700001	91.992	162.8477
23.000000	91.991	162.2057
23.299999	91.987	161.5472
23.600000	91.979	160.9112
24.000000	91.965	160.1098
24.299999	91.953	159.5193
24.700001	91.939	158.7396
25.000000	91.929	158.1689
25.400000	91.913	157.4280
25.799999	91.893	156.7239
26.200001	91.880	156.0529
26.500000	91.875	155.5591
26.900000	91.871	154.8934
27.200001	91.868	154.3628
27.600000	91.861	153.6182
28.000000	91.844	152.8876
28.500000	91.815	152.0318
29.000000	91.790	151.2817
29.500000	91.776	150.5457
30.000000	91.768	149.7702
30.400000	91.759	149.0947
30.700001	91.748	148.5851
31.100000	91.728	147.9153
31.500000	91.706	147.2599
32.000000	91.676	146.4884
32.500000	91.647	145.7295
33.000000	91.622	144.9993
33.500000	91.599	144.2613
34.000000	91.577	143.4990
34.500000	91.552	142.7119
35.000000	91.518	141.9438
35.500000	91.483	141.2223
36.000000	91.455	140.5592
36.500000	91.434	139.8862
37.000000	91.416	139.1588
37.500000	91.393	138.3990
38.200001	91.347	137.3847
38.700001	91.315	136.7188
39.500000	91.271	135.6776
40.000000	91.244	135.0227
40.599998	91.208	134.2495
41.200001	91.175	133.5286
41.799999	91.150	132.8130
42.500000	91.125	131.9094
43.099998	91.092	131.0965
43.700001	91.050	130.3375
44.400002	91.010	129.5524
45.000000	90.989	128.8292
45.500000	90.965	128.1422
46.200001	90.908	127.2110
46.799999	90.855	126.5676
47.500000	90.816	125.8690
48.200001	90.785	125.0645
48.700001	90.757	124.4608
49.400002	90.719	123.6067
50.000000	90.682	122.8323
50.799999	90.615	121.8133
51.500000	90.556	121.0323
52.200001	90.503	120.2519
53.000000	90.431	119.3915
53.799999	90.373	118.6981
54.500000	90.347	118.0084
55.200001	90.309	117.1755
56.000000	90.244	116.2811
57.000000	90.167	115.2708
58.000000	90.095	114.3630
59.000000	90.054	113.4294
60.000000	90.002	112.3077
60.799999	89.954	111.4984
61.500000	89.922	110.7352
62.200001	89.872	109.8938
63.000000	89.795	109.0972
64.000000	89.729	108.3074
65.000000	89.672	107.3112
66.000000	89.587	106.4137
67.000000	89.524	105.5908
68.000000	89.450	104.6382
69.000000	89.363	103.7834
70.000000	89.283	103.0259
71.000000	89.232	102.2411
72.000000	89.159	101.2096
73.000000	89.065	100.5866
74.000000	89.061	99.8559
75.000000	89.003	98.6205
76.199997	88.899	97.6574
77.500000	88.815	96.4462
78.800003	88.693	95.4898
80.000000	88.615	94.8513
81.199997	88.602	94.0025
82.500000	88.510	92.6751
83.800003	88.417	92.0107
85.000000	88.377	91.1509
86.199997	88.317	90.2115
87.500000	88.206	88.9018
88.500000	88.088	88.3355
90.000000	87.995	87.0102
91.199997	87.821	86.4244
92.500000	87.826	85.8950
93.800003	87.789	84.8394
95.000000	87.753	83.5810
96.199997	87.592	83.0917
97.500000	87.633	82.7010
98.800003	87.548	81.5732
100.000000	87.484	80.8215
101.500000	87.316	79.7116
103.000000	87.189	79.5923
104.400002	87.234	78.6179
106.000000	87.082	77.1959
107.500000	86.988	76.4803
109.000000	86.937	75.9911
110.599998	86.793	74.3840
112.000000	86.783	74.6962
113.800003	86.577	73.2047
115.000000	86.733	72.7165
117.199997	86.404	70.9297
118.000000	86.414	70.6507
120.599998	86.278	68.1332
122.000000	86.100	68.5164
124.099998	86.078	68.1008
125.000000	86.110	67.8640
126.500000	86.048	66.6948
128.000000	85.963	66.2740
131.500000	85.742	64.3965
132.000000	85.734	63.9379
134.000000	85.574	62.8845
136.000000	85.552	62.5659
138.000000	85.426	61.5658
140.000000	85.325	61.4248
143.000000	85.113	59.9857
145.000000	85.099	58.5331
147.500000	85.022	57.3508
150.000000	84.898	56.9865
152.500000	84.850	56.0088
155.000000	84.736	54.9630
157.500000	84.632	53.7925
160.000000	84.532	53.0461
162.500000	84.473	52.3575
165.000000	84.395	51.5730
167.500000	84.398	51.0692
170.000000	84.304	50.0496
172.500000	84.208	50.0634
175.000000	83.982	49.7663
177.500000	83.923	48.5261
180.000000	83.809	46.4520
182.500000	83.616	47.1832
185.000000	83.589	46.8876
187.500000	83.449	45.6266
190.000000	83.378	45.5299
192.500000	83.263	44.8170
195.000000	83.163	43.8941
197.500000	83.025	43.5721
200.000000	82.880	42.5582
203.000000	82.784	41.8421
206.000000	82.744	40.8995
209.000000	82.599	40.1595
212.000000	82.532	39.9762
214.000000	82.470	38.4391
218.000000	82.249	39.0692
220.000000	82.341	39.0681
224.000000	82.234	38.0775
227.000000	82.174	37.1069
230.000000	81.874	37.1372
233.000000	81.783	36.5652
236.000000	81.702	34.3486
240.000000	81.844	34.8993
243.000000	81.662	34.4751
247.000000	81.151	34.3173
250.000000	81.521	33.6355
254.000000	81.393	32.0300
258.000000	80.652	37.1417
262.000000	80.621	34.8742
265.000000	80.709	33.1151
269.000000	80.608	34.3956
272.000000	80.436	33.2192
276.000000	80.461	34.0114
280.000000	80.296	34.2304
285.000000	80.405	34.2262
290.000000	80.213	33.1926
295.000000	79.998	35.6160
300.000000	80.195	35.4398
304.000000	79.982	34.5204
307.000000	79.656	35.3702
311.000000	79.775	36.3256
315.000000	79.637	34.5297
320.000000	79.815	37.7223
325.000000	79.731	37.3070
330.000000	80.096	35.5715
335.000000	80.017	36.1109
340.000000	80.014	34.9295
345.000000	79.821	34.8583
350.000000	79.934	35.6944
355.000000	79.914	35.2599
360.000000	79.947	34.8859
365.000000	79.892	35.1116
370.000000	79.887	35.7113
375.000000	79.874	35.9617
382.000000	79.886	36.1458
387.000000	79.905	36.2525
395.000000	79.960	35.7412
400.000000	79.900	36.0627
406.000000	79.974	35.3126
412.000000	79.926	35.5905
418.000000	79.922	35.1649
425.000000	79.972	35.3419
431.000000	79.945	35.1558
437.000000	79.964	34.8327
444.000000	79.990	34.8006
450.000000	79.912	34.7006
455.000000	79.927	34.4768
462.000000	79.966	34.7223
468.000000	79.998	34.4843
475.000000	79.937	34.6333
482.000000	80.005	34.5145
487.000000	79.901	34.0385
494.000000	80.010	32.9492
500.000000	79.823	33.6473
508.000000	79.996	33.5534
515.000000	79.917	33.5850
522.000000	79.882	34.9760
530.000000	80.082	34.8403
538.000000	79.611	35.5305
545.000000	79.932	36.3902
552.000000	79.950	34.5156
560.000000	79.931	33.9016
570.000000	79.905	35.7977
580.000000	79.843	33.9512
590.000000	79.900	34.4980
600.000000	79.793	35.4837
608.000000	79.877	35.3320
615.000000	80.043	35.6964
622.000000	80.077	36.3904
630.000000	80.054	35.6342
640.000000	80.129	35.3072
650.000000	80.276	35.3786
660.000000	79.610	37.7887
670.000000	80.195	35.9462
680.000000	79.976	36.4956
690.000000	80.063	38.2538
700.000000	80.141	37.4224
710.000000	80.036	37.1120
720.000000	80.050	37.6640
730.000000	80.070	38.5597
740.000000	80.092	38.3692
750.000000	80.076	38.9050
762.000000	80.099	39.7480
775.000000	80.122	39.6670
788.000000	80.230	40.5127
800.000000	80.257	40.8724
812.000000	80.294	41.3270
825.000000	80.344	41.8996
838.000000	80.403	42.3847
850.000000	80.461	42.8633
862.000000	80.518	43.3061
875.000000	80.576	43.8937
885.000000	80.637	44.3546
900.000000	80.714	44.9143
912.000000	80.784	45.4528
925.000000	80.877	45.9277
938.000000	80.970	46.4930
950.000000	81.053	46.9310
962.000000	81.147	47.3468
975.000000	81.244	47.8342
988.000000	81.339	48.3103
1000.000000	81.432	48.7447
1015.000000	81.558	49.1911
1030.000000	81.677	49.6276
1044.000000	81.803	50.0756
1060.000000	81.947	50.4885
1075.000000	82.083	50.7492
1090.000000	82.215	51.1049
1106.000000	82.378	51.3693
1120.000000	82.535	51.6635
1138.000000	82.702	51.8506
1150.000000	82.829	51.8774
1172.000000	83.042	52.0656
1180.000000	83.136	52.1965
1206.000000	83.399	52.2931
1220.000000	83.544	52.2461
1241.000000	83.752	52.1470
1250.000000	83.842	52.0740
1265.000000	83.994	52.0527
1280.000000	84.127	51.9271
1315.000000	84.457	51.6744
1320.000000	84.511	51.6540
1340.000000	84.701	51.4408
1360.000000	84.878	51.2145
1380.000000	85.066	50.9558
1400.000000	85.227	50.7236
1430.000000	85.497	50.4299
1450.000000	85.675	50.0214
1475.000000	85.888	49.7573
1500.000000	86.101	49.3333
1525.000000	86.303	49.0193
1550.000000	86.508	48.6220
1575.000000	86.718	48.1833
1600.000000	86.959	47.8159
1625.000000	87.201	47.3065
1650.000000	87.440	46.4945
1675.000000	87.656	45.5914
1700.000000	87.846	44.5989
1725.000000	88.014	43.7418
1750.000000	88.181	42.7930
1775.000000	88.346	41.8382
1800.000000	88.496	40.9331
1825.000000	88.637	39.9681
1850.000000	88.770	38.9941
1875.000000	88.888	38.0667
1900.000000	89.012	37.0664
1925.000000	89.119	36.1257
1950.000000	89.217	35.1371
1975.000000	89.306	34.2945
2000.000000	89.405	33.3557
2030.000000	89.498	32.3681
2060.000000	89.608	31.3497
2090.000000	89.711	30.3805
2120.000000	89.817	29.2545
2140.000000	89.868	28.5262
2180.000000	89.962	27.0328
2200.000000	90.003	26.3032
2240.000000	90.062	24.9199
2270.000000	90.109	23.9573
2300.000000	90.162	23.0776
2330.000000	90.186	21.9053
2360.000000	90.213	21.1860
2400.000000	90.259	19.9646
2430.000000	90.273	19.1454
2470.000000	90.284	18.1215
2500.000000	90.295	17.4080
2540.000000	90.313	16.4646
2580.000000	90.340	15.6527
2620.000000	90.382	14.7704
2650.000000	90.425	14.1362
2690.000000	90.503	13.0645
2720.000000	90.546	12.1955
2760.000000	90.557	10.9539
2800.000000	90.566	9.7772
2850.000000	90.571	8.3795
2900.000000	90.568	6.9341
2950.000000	90.570	5.5025
3000.000000	90.571	4.2512
3040.000000	90.570	3.2256
3070.000000	90.563	2.3385
3110.000000	90.563	1.2745
3150.000000	90.536	-0.2647
3200.000000	90.479	-1.3170
3250.000000	90.487	-2.6467
3300.000000	90.480	-5.0772
3350.000000	90.389	-5.8625
3400.000000	90.415	-7.6353
3450.000000	90.301	-10.0098
3500.000000	90.312	-11.0206
3550.000000	90.405	-12.6106
3600.000000	90.237	-14.2802
3650.000000	89.942	-16.7971
3700.000000	89.836	-18.7609
3750.000000	89.665	-20.8210
3820.000000	89.067	-22.2541
3870.000000	88.917	-22.9596
3950.000000	88.533	-23.2117
4000.000000	88.213	-23.0200
4060.000000	88.070	-22.4194
4120.000000	87.975	-22.4963
4180.000000	87.962	-22.7125
4250.000000	87.869	-23.0314
4310.000000	87.769	-23.7931
4370.000000	87.759	-24.4121
4440.000000	87.640	-25.2031
4500.000000	87.533	-25.6649
4550.000000	87.438	-26.0406
4620.000000	87.305	-26.5358
4680.000000	87.264	-26.8976
4750.000000	87.153	-27.3375
4820.000000	87.098	-27.7001
4870.000000	87.068	-28.1992
4940.000000	87.033	-28.7317
5000.000000	86.993	-29.4575
5080.000000	86.937	-30.4901
5150.000000	86.881	-31.4918
5220.000000	86.797	-32.7258
5300.000000	86.642	-34.1577
5380.000000	86.438	-35.5446
5450.000000	86.204	-36.5388
5520.000000	85.891	-37.1902
5600.000000	85.508	-37.7023
5700.000000	85.026	-37.4014
5800.000000	84.562	-36.3257
5900.000000	84.178	-34.6959
6000.000000	83.893	-32.4163
6080.000000	83.732	-30.4218
6150.000000	83.663	-28.7399
6220.000000	83.653	-26.8817
6300.000000	83.697	-24.8016
6400.000000	83.835	-22.3291
6500.000000	84.102	-20.2066
6600.000000	84.418	-18.2911
6700.000000	84.819	-17.0746
6800.000000	85.261	-16.2727
6900.000000	85.864	-16.1724
7000.000000	86.486	-17.6624
7100.000000	87.035	-20.0585
7200.000000	87.497	-23.7422
7300.000000	87.769	-28.3704
7400.000000	87.742	-33.7724
7500.000000	87.302	-38.7604
7620.000000	86.274	-41.6265
7750.000000	85.011	-37.9961
7880.000000	84.698	-27.4262
8000.000000	85.776	-19.2595
8120.000000	87.479	-18.7996
8250.000000	88.817	-26.4800
8380.000000	89.060	-36.6450
8500.000000	88.638	-43.8567
8620.000000	87.971	-48.3450
8750.000000	87.186	-50.9333
8850.000000	86.609	-51.6220
9000.000000	85.859	-51.2856
9120.000000	85.373	-50.1809
9250.000000	84.937	-48.7432
9380.000000	84.592	-47.1146
9500.000000	84.305	-45.3751
9620.000000	84.128	-43.4315
9750.000000	84.027	-41.4083
9880.000000	83.985	-39.7238
10000.000000	83.984	-38.3160
10150.000000	83.994	-36.9343
10300.000000	84.030	-35.9897
10440.000000	84.040	-35.2874
10600.000000	84.029	-34.9417
10750.000000	83.969	-34.7337
10900.000000	83.863	-34.5670
11060.000000	83.639	-34.2309
11200.000000	83.417	-33.2527
11380.000000	83.181	-31.4296
11500.000000	83.071	-30.2027
11720.000000	82.897	-27.5684
11800.000000	82.864	-26.4680
12060.000000	82.867	-23.2067
12200.000000	82.963	-21.9080
12410.000000	83.204	-20.8049
12500.000000	83.322	-20.7002
12650.000000	83.459	-21.2445
12800.000000	83.496	-22.5726
13150.000000	82.856	-25.7851
13200.000000	82.694	-26.0272
13400.000000	81.948	-25.4125
13600.000000	81.147	-22.6221
13800.000000	80.499	-18.1829
14000.000000	80.018	-12.6000
14300.000000	79.600	-2.7938
14500.000000	79.644	4.7695
14750.000000	80.124	13.6024
15000.000000	80.935	20.6249
15250.000000	81.984	26.0272
15500.000000	83.385	28.7867
15750.000000	85.064	27.3607
16000.000000	86.708	18.6276
16250.000000	87.318	1.4989
16500.000000	85.837	-16.7999
16750.000000	82.799	-24.0718
17000.000000	80.291	-19.6118
17250.000000	78.568	-12.3560
17500.000000	77.275	-4.4033
17750.000000	76.261	3.9112
18000.000000	75.529	11.6370
18250.000000	74.962	19.6397
18500.000000	74.595	26.8768
18750.000000	74.439	33.4417
19000.000000	74.480	38.7328
19250.000000	74.609	41.7769
19500.000000	74.664	41.6987
19750.000000	74.218	38.6700
