* Measurement data measured by REW V5.20 Beta 60
* Source: Headset (USB-C to 3.5mm Headphone Jack Adapter), MICROPHONE (Master Volume), R, volume: 0.258
* Format: 256k Log Swept Sine, 1 sweep at -12.0 dBFS with no timing reference
* Dated: Jan 8, 2021 4:25:44 PM
* REW Settings:
*  C-weighting compensation: Off
*  Target level: 75.0 dB
* Note: ; 
* Measurement: Etymotic ER2XR R
* Smoothing: None
* Frequency Step: 1/48 octave
* Start Frequency: 20.000 Hz
*
* Freq(Hz)	SPL(dB)	Phase(degrees)
20.000000	88.519615	172.2501
20.299999	88.528702	172.0812
20.600000	88.540421	171.8524
20.900000	88.546860	171.5801
21.200001	88.548836	171.2831
21.400000	88.546722	171.0927
21.799999	88.537506	170.7422
22.000000	88.532677	170.5732
22.400000	88.526222	170.2006
22.700001	88.516663	169.9130
23.000000	88.500626	169.6314
23.299999	88.481232	169.3694
23.600000	88.459351	169.1472
24.000000	88.430923	168.9029
24.299999	88.413727	168.7213
24.700001	88.392395	168.4511
25.000000	88.372391	168.2276
25.400000	88.338661	167.9273
25.799999	88.297066	167.7061
26.200001	88.260384	167.5671
26.500000	88.242355	167.4814
26.900000	88.228775	167.3482
27.200001	88.222900	167.1973
27.600000	88.213699	166.9277
28.000000	88.194260	166.6233
28.500000	88.160164	166.2481
29.000000	88.122078	165.9205
29.500000	88.084244	165.6025
30.000000	88.037926	165.3163
30.400000	87.997528	165.1376
30.700001	87.967781	165.0552
31.100000	87.935722	164.9861
31.500000	87.915138	164.9056
32.000000	87.895706	164.7323
32.500000	87.869827	164.4681
33.000000	87.828545	164.2253
33.500000	87.782333	164.0670
34.000000	87.745537	163.9619
34.500000	87.722687	163.7875
35.000000	87.693237	163.5276
35.500000	87.648087	163.2781
36.000000	87.598732	163.1465
36.500000	87.564735	163.0717
37.000000	87.546379	162.9215
37.500000	87.524216	162.6413
38.200001	87.458084	162.2770
38.700001	87.406067	162.1872
39.500000	87.367218	162.1174
40.000000	87.349403	161.9434
40.599998	87.304703	161.6827
41.200001	87.250641	161.5616
41.799999	87.212517	161.5020
42.500000	87.172134	161.3342
43.099998	87.124748	161.1827
43.700001	87.079903	161.0960
44.400002	87.037125	160.9601
45.000000	86.995758	160.8069
45.500000	86.962135	160.7159
46.200001	86.928253	160.5759
46.799999	86.893875	160.3310
47.500000	86.823868	160.1400
48.200001	86.774277	160.2624
48.700001	86.778198	160.2738
49.400002	86.776596	159.8712
50.000000	86.707657	159.4953
50.799999	86.604843	159.5541
51.500000	86.584099	159.6889
52.200001	86.550247	159.4702
53.000000	86.461090	159.4748
53.799999	86.439079	159.6874
54.500000	86.425110	159.3887
55.200001	86.337433	159.1157
56.000000	86.251633	159.3653
57.000000	86.236176	159.3629
58.000000	86.156784	159.0636
59.000000	86.078621	159.1135
60.000000	86.037155	159.1045
60.799999	85.999474	158.9507
61.500000	85.947296	158.7931
62.200001	85.884995	158.7903
63.000000	85.840218	158.9075
64.000000	85.801994	158.8315
65.000000	85.734909	158.7277
66.000000	85.666840	158.7601
67.000000	85.618378	158.7999
68.000000	85.570572	158.7048
69.000000	85.510941	158.6426
70.000000	85.453056	158.6120
71.000000	85.389366	158.6563
72.000000	85.352242	158.7869
73.000000	85.317810	158.7151
74.000000	85.257088	158.7077
75.000000	85.207176	158.7923
76.199997	85.150841	158.8536
77.500000	85.095749	158.8822
78.800003	85.023972	158.8740
80.000000	84.967369	159.0072
81.199997	84.925812	159.0781
82.500000	84.871529	159.0904
83.800003	84.809120	159.1244
85.000000	84.737526	159.1887
86.199997	84.680611	159.3153
87.500000	84.626617	159.4627
88.500000	84.630737	159.2680
90.000000	84.444328	159.0619
91.199997	84.449913	159.8125
92.500000	84.431602	159.5550
93.800003	84.378250	159.7123
95.000000	84.332581	159.7531
96.199997	84.278900	159.7904
97.500000	84.209991	159.9479
98.800003	84.187119	160.1955
100.000000	84.160141	159.9809
101.500000	84.062859	160.2797
103.000000	84.023987	160.4179
104.400002	83.973862	160.6536
106.000000	83.911270	160.7398
107.500000	83.858566	160.8625
109.000000	83.815498	160.9752
110.599998	83.759361	161.1192
112.000000	83.724983	161.3256
113.800003	83.666473	161.4568
115.000000	83.635597	161.6254
117.199997	83.567848	161.8642
118.000000	83.564392	161.8757
120.599998	83.470589	162.1190
122.000000	83.427208	162.4096
124.099998	83.362717	162.6725
125.000000	83.346115	162.7469
126.500000	83.285362	162.8082
128.000000	83.252525	162.9895
131.500000	83.171700	163.3248
132.000000	83.158051	163.3656
134.000000	83.095734	163.6865
136.000000	83.057114	163.8900
138.000000	83.006989	164.1472
140.000000	82.956291	164.2761
143.000000	82.882202	164.6523
145.000000	82.844543	164.8962
147.500000	82.787193	165.1203
150.000000	82.773148	165.3240
152.500000	82.692406	165.7284
155.000000	82.644485	166.0263
157.500000	82.603302	166.2974
160.000000	82.566147	166.5964
162.500000	82.523148	166.9337
165.000000	82.493286	167.1894
167.500000	82.450714	167.4869
170.000000	82.423805	167.7185
172.500000	82.368912	168.0195
175.000000	82.317368	168.2257
177.500000	82.265144	168.7130
180.000000	82.240494	168.7333
182.500000	82.177032	169.0477
185.000000	82.146843	169.2519
187.500000	82.109573	169.6302
190.000000	82.070015	169.9045
192.500000	82.012703	170.1959
195.000000	81.985504	170.4055
197.500000	81.961090	170.7437
200.000000	81.953445	171.1055
203.000000	81.870529	171.3593
206.000000	81.822060	171.6340
209.000000	81.788277	171.9687
212.000000	81.741295	172.2847
214.000000	81.713898	172.5104
218.000000	81.682854	172.8733
220.000000	81.678795	173.1473
224.000000	81.644547	173.5067
227.000000	81.637070	173.8612
230.000000	81.593475	174.1819
233.000000	81.572441	174.5070
236.000000	81.549629	174.7669
240.000000	81.522766	175.2134
243.000000	81.468086	175.3420
247.000000	81.457314	175.9124
250.000000	81.481117	176.1779
254.000000	81.391159	176.5979
258.000000	81.360970	177.0284
262.000000	81.320076	177.2540
265.000000	81.301414	177.7613
269.000000	81.267166	178.0352
272.000000	81.242035	178.3621
276.000000	81.221809	178.6111
280.000000	81.204010	179.0124
285.000000	81.160789	179.5079
290.000000	81.127762	179.9274
295.000000	81.103836	-179.4506
300.000000	81.102722	-178.9401
304.000000	81.064606	-178.7254
307.000000	81.019165	-178.4400
311.000000	81.021118	-178.0987
315.000000	80.990616	-177.7555
320.000000	80.959831	-177.3030
325.000000	80.933777	-176.8964
330.000000	80.915009	-176.4185
335.000000	80.895844	-175.9897
340.000000	80.855659	-175.5868
345.000000	80.851875	-175.1360
350.000000	80.838310	-174.5614
355.000000	80.796402	-174.3439
360.000000	80.769707	-173.8694
365.000000	80.742386	-173.3865
370.000000	80.727455	-173.0040
375.000000	80.712006	-172.6921
382.000000	80.678711	-172.1033
387.000000	80.658585	-171.6976
395.000000	80.635773	-171.0578
400.000000	80.607605	-170.5248
406.000000	80.602844	-170.1240
412.000000	80.577171	-169.6442
418.000000	80.568619	-169.2300
425.000000	80.541946	-168.5784
431.000000	80.528099	-168.1267
437.000000	80.513901	-167.6629
444.000000	80.507095	-167.0283
450.000000	80.447968	-166.6409
455.000000	80.488281	-166.2337
462.000000	80.481041	-165.7666
468.000000	80.464523	-165.3401
475.000000	80.433502	-164.8992
482.000000	80.414238	-164.4072
487.000000	80.404617	-164.0661
494.000000	80.396988	-163.5717
500.000000	80.389343	-163.2053
508.000000	80.375725	-162.3699
515.000000	80.368118	-161.8074
522.000000	80.364319	-161.2784
530.000000	80.345497	-160.6576
538.000000	80.335060	-160.0567
545.000000	80.324814	-159.4574
552.000000	80.337959	-158.9740
560.000000	80.315781	-158.3495
570.000000	80.305710	-157.5511
580.000000	80.305771	-156.7623
590.000000	80.293533	-155.9740
600.000000	80.308136	-155.0997
608.000000	80.293922	-154.6115
615.000000	80.298019	-154.0107
622.000000	80.300873	-153.4999
630.000000	80.304085	-152.8546
640.000000	80.303604	-152.1264
650.000000	80.324432	-151.4348
660.000000	80.325706	-150.5822
670.000000	80.338089	-149.7806
680.000000	80.343071	-148.9703
690.000000	80.363136	-148.2361
700.000000	80.325058	-147.5149
710.000000	80.386909	-146.6225
720.000000	80.400391	-145.8241
730.000000	80.413513	-145.0143
740.000000	80.435867	-144.2894
750.000000	80.447556	-143.3956
762.000000	80.483208	-142.5294
775.000000	80.518211	-141.5320
788.000000	80.550003	-140.4076
800.000000	80.594093	-139.4345
812.000000	80.604477	-138.5079
825.000000	80.663712	-137.3508
838.000000	80.709152	-136.4370
850.000000	80.760757	-135.4905
862.000000	80.818428	-134.3929
875.000000	80.878525	-133.3203
885.000000	80.926689	-132.6142
900.000000	81.011314	-131.4753
912.000000	81.090820	-130.4082
925.000000	81.175636	-129.5950
938.000000	81.271370	-128.4444
950.000000	81.355888	-127.3740
962.000000	81.440559	-126.7043
975.000000	81.545624	-125.7527
988.000000	81.690788	-124.7830
1000.000000	81.861885	-123.7489
1015.000000	81.904961	-123.0322
1030.000000	82.040726	-122.1902
1044.000000	82.171738	-121.3745
1060.000000	82.334602	-120.5142
1075.000000	82.501297	-119.7863
1090.000000	82.655685	-119.0685
1106.000000	82.838211	-118.4295
1120.000000	82.991890	-118.0063
1138.000000	83.204765	-117.2871
1150.000000	83.346283	-116.9163
1172.000000	83.604584	-116.4892
1180.000000	83.692871	-116.3583
1206.000000	83.981270	-116.0007
1220.000000	84.140442	-115.8283
1241.000000	84.378624	-115.6573
1250.000000	84.490631	-115.5872
1265.000000	84.647537	-115.6012
1280.000000	84.813118	-115.6207
1315.000000	85.174530	-116.3502
1320.000000	85.204208	-116.5491
1340.000000	85.256645	-116.7893
1360.000000	85.371605	-116.5303
1380.000000	85.521782	-116.3320
1400.000000	85.681519	-116.2492
1430.000000	85.905975	-116.3155
1450.000000	86.041061	-116.2958
1475.000000	86.221954	-116.4712
1500.000000	86.386162	-116.5792
1525.000000	86.545677	-116.6582
1550.000000	86.708244	-116.7225
1575.000000	86.871368	-116.8480
1600.000000	87.025986	-116.8939
1625.000000	87.187332	-117.0940
1650.000000	87.339752	-117.1230
1675.000000	87.500420	-117.2240
1700.000000	87.659706	-117.3427
1725.000000	87.812775	-117.5515
1750.000000	87.978745	-117.7301
1775.000000	88.132851	-117.8751
1800.000000	88.287086	-118.0332
1825.000000	88.444855	-118.2864
1850.000000	88.609886	-118.5569
1875.000000	88.772652	-118.8551
1900.000000	88.933273	-119.1767
1925.000000	89.093536	-119.5911
1950.000000	89.241600	-119.9672
1975.000000	89.383827	-120.4638
2000.000000	89.476128	-121.2503
2030.000000	89.735664	-121.6026
2060.000000	89.925240	-122.2586
2090.000000	90.092506	-123.0601
2120.000000	90.264397	-123.9158
2140.000000	90.375259	-124.5485
2180.000000	90.581818	-125.8942
2200.000000	90.680328	-126.5707
2240.000000	90.873795	-128.2682
2270.000000	90.985199	-129.8344
2300.000000	91.092377	-131.6467
2330.000000	91.187057	-133.5259
2360.000000	91.261024	-135.4231
2400.000000	91.338608	-137.8024
2430.000000	91.392105	-139.3494
2470.000000	91.421600	-141.3146
2500.000000	91.418152	-142.7905
2540.000000	91.389915	-144.7253
2580.000000	91.339676	-146.5960
2620.000000	91.256760	-148.4266
2650.000000	91.187538	-149.7688
2690.000000	91.075729	-151.4414
2720.000000	90.972855	-152.6440
2760.000000	90.816536	-154.0994
2800.000000	90.656273	-155.4602
2850.000000	90.427261	-156.9982
2900.000000	90.201828	-158.3961
2950.000000	89.966217	-159.5771
3000.000000	89.732292	-160.2423
3040.000000	89.532997	-161.2544
3070.000000	89.392784	-161.8159
3110.000000	89.202560	-162.3736
3150.000000	89.011124	-162.7903
3200.000000	88.793350	-163.2251
3250.000000	88.568054	-163.7110
3300.000000	88.372215	-163.9655
3350.000000	88.175171	-164.2639
3400.000000	87.984901	-164.4659
3450.000000	87.820320	-164.5486
3500.000000	87.674683	-164.6734
3550.000000	87.540161	-164.6888
3600.000000	87.406265	-164.7462
3650.000000	87.292191	-164.7209
3700.000000	87.179207	-164.6637
3750.000000	87.079269	-164.6120
3820.000000	86.968056	-164.5607
3870.000000	86.868813	-164.4370
3950.000000	86.759018	-164.4968
4000.000000	86.664459	-164.6793
4060.000000	86.628166	-164.5830
4120.000000	86.576584	-164.6511
4180.000000	86.494553	-164.8297
4250.000000	86.439758	-165.0733
4310.000000	86.404213	-165.3192
4370.000000	86.372971	-165.6705
4440.000000	86.329796	-166.0064
4500.000000	86.292564	-166.3942
4550.000000	86.266296	-166.8693
4620.000000	86.224655	-167.4210
4680.000000	86.182411	-167.9415
4750.000000	86.142761	-168.6799
4820.000000	86.099098	-169.4690
4870.000000	86.071838	-169.9909
4940.000000	86.022415	-170.8383
5000.000000	85.967560	-171.6840
5080.000000	85.910477	-172.4284
5150.000000	85.860970	-173.4581
5220.000000	85.810699	-174.3670
5300.000000	85.725632	-175.5221
5380.000000	85.649574	-176.7614
5450.000000	85.582504	-177.8382
5520.000000	85.458008	-178.8907
5600.000000	85.300362	179.8682
5700.000000	85.093170	178.3493
5800.000000	84.860123	176.7055
5900.000000	84.631035	175.0383
6000.000000	84.376328	173.5024
6080.000000	84.163025	172.3173
6150.000000	83.972374	171.3212
6220.000000	83.782478	170.4611
6300.000000	83.577408	169.3091
6400.000000	83.280701	168.0957
6500.000000	82.987297	166.9861
6600.000000	82.717651	165.9339
6700.000000	82.407852	165.0766
6800.000000	82.103111	164.4693
6900.000000	81.857315	163.7275
7000.000000	81.599289	163.3932
7100.000000	81.381012	163.0401
7200.000000	81.198570	162.5696
7300.000000	80.988968	162.6334
7400.000000	80.805344	162.2510
7500.000000	80.596405	162.1747
7620.000000	80.399048	162.1568
7750.000000	80.142662	162.2895
7880.000000	79.865662	162.2415
8000.000000	79.683121	162.6230
8120.000000	79.469826	163.0840
8250.000000	79.326225	163.7356
8380.000000	79.148407	164.2318
8500.000000	79.051109	164.9460
8620.000000	78.970039	165.5402
8750.000000	78.901764	166.2450
8850.000000	78.858688	167.1580
9000.000000	78.832771	167.8997
9120.000000	78.903969	168.5305
9250.000000	78.993843	169.4697
9380.000000	79.132355	170.1568
9500.000000	79.339043	170.7731
9620.000000	79.578072	171.0424
9750.000000	79.941605	171.3298
9880.000000	80.382812	171.4347
10000.000000	80.842415	171.0867
10150.000000	81.562683	170.1559
10300.000000	82.402809	168.6445
10440.000000	83.363762	166.3022
10600.000000	84.606316	161.6801
10750.000000	85.949936	154.9421
10900.000000	87.325401	144.5464
11060.000000	88.522644	128.3525
11200.000000	88.799095	110.4495
11380.000000	87.835190	88.4558
11500.000000	86.660690	77.0847
11720.000000	84.329163	63.5500
11800.000000	83.527206	60.2330
12060.000000	81.263542	53.0521
12200.000000	80.282516	50.6244
12410.000000	79.145119	47.7540
12500.000000	78.723694	46.9713
12650.000000	78.172203	45.6275
12800.000000	77.691170	44.3116
13150.000000	77.023567	41.5106
13200.000000	76.971184	41.3275
13400.000000	76.855110	39.5404
13600.000000	76.959244	37.4989
13800.000000	77.247116	34.7357
14000.000000	77.754639	31.4974
14300.000000	78.987953	23.9506
14500.000000	80.182571	16.5811
14750.000000	82.070786	0.9896
15000.000000	83.770813	-26.7727
15250.000000	83.132004	-64.3671
15500.000000	80.116249	-92.6831
15750.000000	76.916885	-109.8942
16000.000000	74.121872	-120.8519
16250.000000	71.819489	-129.7716
16500.000000	69.877243	-137.0499
16750.000000	68.127319	-144.2095
17000.000000	66.885895	-151.2520
17250.000000	65.734612	-159.4479
17500.000000	64.556259	-167.9174
17750.000000	63.913990	-178.7297
18000.000000	63.532440	166.7892
18250.000000	62.536034	153.1409
18500.000000	62.324783	135.0751
18750.000000	62.160286	120.3843
19000.000000	63.028488	100.3994
19250.000000	62.650696	81.2681
19500.000000	63.241074	59.3420
19750.000000	63.502613	30.2225
