* Measurement data measured by REW V5.20 Beta 60
* Source: Headset (USB-C to 3.5mm Headphone Jack Adapter), MICROPHONE (Master Volume), R, volume: 0.258
* Format: 256k Log Swept Sine, 1 sweep at -12.0 dBFS with no timing reference
* Dated: Mar 8, 2021 3:13:50 AM
* REW Settings:
*  C-weighting compensation: Off
*  Target level: 75.0 dB
* Note: ; 
* Measurement: Double flange R
* Smoothing: None
* Frequency Step: 1/48 octave
* Start Frequency: 20.000 Hz
*
* Freq(Hz)	SPL(dB)	Phase(degrees)
20.000000	88.880554	172.6510
20.299999	88.863876	172.3456
20.600000	88.843956	172.0808
20.900000	88.822075	171.8643
21.200001	88.804825	171.6757
21.400000	88.795128	171.5629
21.799999	88.780754	171.3576
22.000000	88.777069	171.2479
22.400000	88.778435	170.9630
22.700001	88.779175	170.7072
23.000000	88.775871	170.4133
23.299999	88.767670	170.0857
23.600000	88.750839	169.7572
24.000000	88.714432	169.3611
24.299999	88.681770	169.1172
24.700001	88.638092	168.8844
25.000000	88.610466	168.7648
25.400000	88.587135	168.6210
25.799999	88.573700	168.4578
26.200001	88.564362	168.2299
26.500000	88.555908	168.0209
26.900000	88.537567	167.7395
27.200001	88.520889	167.5428
27.600000	88.499985	167.3098
28.000000	88.481697	167.0900
28.500000	88.463867	166.7639
29.000000	88.439995	166.3848
29.500000	88.404083	165.9964
30.000000	88.354965	165.6954
30.400000	88.316429	165.5297
30.700001	88.290924	165.4473
31.100000	88.264381	165.3494
31.500000	88.245125	165.2225
32.000000	88.221542	165.0150
32.500000	88.193230	164.7626
33.000000	88.156723	164.5247
33.500000	88.115433	164.3147
34.000000	88.072937	164.1415
34.500000	88.037750	163.9765
35.000000	88.006264	163.8083
35.500000	87.977013	163.6074
36.000000	87.944077	163.3790
36.500000	87.904282	163.1414
37.000000	87.861916	162.9532
37.500000	87.827354	162.8054
38.200001	87.790131	162.5658
38.700001	87.760292	162.3408
39.500000	87.704506	162.0687
40.000000	87.678452	161.9725
40.599998	87.658691	161.7828
41.200001	87.629211	161.4782
41.799999	87.576561	161.2128
42.500000	87.509430	161.1247
43.099998	87.474922	161.1089
43.700001	87.449486	160.9812
44.400002	87.402321	160.7528
45.000000	87.352516	160.6266
45.500000	87.317162	160.5522
46.200001	87.271355	160.4181
46.799999	87.226845	160.2846
47.500000	87.175278	160.1615
48.200001	87.126457	160.0457
48.700001	87.091438	159.9520
49.400002	87.043953	159.8552
50.000000	87.006302	159.7786
50.799999	86.960617	159.5991
51.500000	86.916138	159.4734
52.200001	86.873260	159.3604
53.000000	86.822708	159.1991
53.799999	86.764717	159.0644
54.500000	86.711319	158.9898
55.200001	86.662231	158.9587
56.000000	86.617706	158.9316
57.000000	86.561394	158.7650
58.000000	86.485168	158.6558
59.000000	86.422516	158.6376
60.000000	86.370010	158.5569
60.799999	86.318932	158.4384
61.500000	86.265434	158.3537
62.200001	86.210571	158.3605
63.000000	86.166183	158.4105
64.000000	86.115074	158.3053
65.000000	86.047241	158.2744
66.000000	86.001823	158.2681
67.000000	85.951256	158.1094
68.000000	85.882675	158.0143
69.000000	85.817566	158.0265
70.000000	85.758904	158.1103
71.000000	85.711906	158.1788
72.000000	85.663437	158.1932
73.000000	85.607376	158.1898
74.000000	85.550896	158.2162
75.000000	85.502274	158.2144
76.199997	85.441353	158.1392
77.500000	85.373993	158.1296
78.800003	85.300774	158.1614
80.000000	85.265602	158.4545
81.199997	85.219086	158.3710
82.500000	85.170486	158.9163
83.800003	85.168510	158.4680
85.000000	85.037872	158.5351
86.199997	84.993820	158.5805
87.500000	84.904182	158.6432
88.500000	84.879257	158.6421
90.000000	84.781563	158.6405
91.199997	84.746964	158.8381
92.500000	84.691132	158.8822
93.800003	84.639275	159.0143
95.000000	84.588097	159.0786
96.199997	84.536034	159.1697
97.500000	84.494041	159.2014
98.800003	84.420799	159.3929
100.000000	84.435341	159.5898
101.500000	84.350716	159.3639
103.000000	84.303116	159.8197
104.400002	84.256737	159.7180
106.000000	84.160858	160.0075
107.500000	84.108185	160.1759
109.000000	84.073257	160.3548
110.599998	84.013710	160.3365
112.000000	83.963509	160.5781
113.800003	83.893532	160.5972
115.000000	83.840088	161.0869
117.199997	83.795059	161.0430
118.000000	83.755302	161.2013
120.599998	83.723923	161.4783
122.000000	83.633972	161.2139
124.099998	83.630699	161.4039
125.000000	83.528275	161.4467
126.500000	83.529358	162.0276
128.000000	83.456467	162.1212
131.500000	83.382790	162.5595
132.000000	83.366554	162.6081
134.000000	83.317474	162.8504
136.000000	83.270294	163.0554
138.000000	83.212402	163.2943
140.000000	83.175003	163.4529
143.000000	83.104179	163.7789
145.000000	83.075401	163.9509
147.500000	83.009476	164.3688
150.000000	82.926559	164.6693
152.500000	82.883354	164.8932
155.000000	82.823273	165.0952
157.500000	82.822548	165.5187
160.000000	82.786636	165.7123
162.500000	82.700645	166.0628
165.000000	82.705666	166.4871
167.500000	82.653351	166.7729
170.000000	82.604279	166.8548
172.500000	82.556969	167.3267
175.000000	82.522583	167.5652
177.500000	82.499191	167.7966
180.000000	82.434158	168.2005
182.500000	82.370934	168.2037
185.000000	82.313896	168.5389
187.500000	82.283623	168.7361
190.000000	82.265915	169.1547
192.500000	82.207504	169.4720
195.000000	82.161072	169.7950
197.500000	82.135994	169.9799
200.000000	82.058701	170.1512
203.000000	82.023338	170.5575
206.000000	82.001663	170.8974
209.000000	81.967445	171.2176
212.000000	81.919884	171.5531
214.000000	81.889114	171.8338
218.000000	81.863472	172.2264
220.000000	81.828026	172.4103
224.000000	81.796165	172.7701
227.000000	81.775986	173.2537
230.000000	81.739525	173.6747
233.000000	81.724335	173.7785
236.000000	81.690750	174.0634
240.000000	81.665596	174.5030
243.000000	81.634384	174.7626
247.000000	81.605423	175.3017
250.000000	81.587723	175.8203
254.000000	81.547562	175.9625
258.000000	81.534424	176.3200
262.000000	81.461136	176.8565
265.000000	81.429153	177.0535
269.000000	81.408005	177.5618
272.000000	81.414467	177.5255
276.000000	81.366653	178.0569
280.000000	81.358902	178.3969
285.000000	81.318764	178.8861
290.000000	81.277313	179.2620
295.000000	81.238434	179.7307
300.000000	81.251022	-179.7367
304.000000	81.218773	-179.6830
307.000000	81.184135	-179.2697
311.000000	81.139671	-178.8070
315.000000	81.123970	-178.5541
320.000000	81.088501	-178.1976
325.000000	80.987488	-177.5376
330.000000	80.996201	-177.2713
335.000000	80.955482	-176.6783
340.000000	80.933624	-176.1531
345.000000	80.923248	-175.3828
350.000000	80.881378	-175.0338
355.000000	80.872787	-174.8402
360.000000	80.864830	-174.0896
365.000000	80.846329	-173.7053
370.000000	80.824997	-173.2314
375.000000	80.812302	-172.8561
382.000000	80.758781	-172.3066
387.000000	80.757126	-171.9377
395.000000	80.731827	-171.1280
400.000000	80.723534	-170.7611
406.000000	80.715073	-170.2630
412.000000	80.695808	-169.8060
418.000000	80.677963	-169.2249
425.000000	80.640831	-168.8303
431.000000	80.648743	-168.2567
437.000000	80.646667	-167.6812
444.000000	80.615860	-167.0756
450.000000	80.626602	-166.7056
455.000000	80.625946	-166.2669
462.000000	80.613968	-165.8636
468.000000	80.591187	-165.3897
475.000000	80.566208	-164.8906
482.000000	80.553894	-164.4047
487.000000	80.535667	-164.0515
494.000000	80.537636	-163.6325
500.000000	80.529160	-163.1149
508.000000	80.519798	-162.4661
515.000000	80.516655	-162.0012
522.000000	80.506714	-161.3484
530.000000	80.509743	-160.7699
538.000000	80.478745	-160.2927
545.000000	80.476700	-159.6338
552.000000	80.481987	-159.0474
560.000000	80.463402	-158.3552
570.000000	80.457474	-157.6883
580.000000	80.449577	-156.8809
590.000000	80.431030	-156.0665
600.000000	80.443916	-155.3310
608.000000	80.446198	-154.6855
615.000000	80.430618	-154.1392
622.000000	80.436584	-153.6325
630.000000	80.442726	-152.8810
640.000000	80.458015	-152.2307
650.000000	80.459351	-151.4564
660.000000	80.473709	-150.7013
670.000000	80.479568	-149.9260
680.000000	80.495377	-149.1419
690.000000	80.500542	-148.3414
700.000000	80.495911	-147.6362
710.000000	80.524200	-146.7493
720.000000	80.535843	-145.9216
730.000000	80.554306	-145.0333
740.000000	80.579430	-144.3355
750.000000	80.590126	-143.5687
762.000000	80.621033	-142.5260
775.000000	80.652077	-141.4847
788.000000	80.686020	-140.3598
800.000000	80.714066	-139.3787
812.000000	80.744904	-138.4409
825.000000	80.811829	-137.3766
838.000000	80.847809	-136.2951
850.000000	80.894814	-135.2811
862.000000	80.957809	-134.2690
875.000000	81.012306	-133.2255
885.000000	81.069000	-132.3891
900.000000	81.155373	-131.1775
912.000000	81.221230	-130.2220
925.000000	81.311844	-129.2632
938.000000	81.404884	-128.1972
950.000000	81.515388	-127.3195
962.000000	81.598373	-126.3683
975.000000	81.711380	-125.3802
988.000000	81.837997	-124.4820
1000.000000	82.015274	-123.4837
1015.000000	82.075935	-122.6874
1030.000000	82.208267	-121.7924
1044.000000	82.348648	-120.9090
1060.000000	82.510071	-120.0848
1075.000000	82.677094	-119.3497
1090.000000	82.847809	-118.6088
1106.000000	83.039665	-118.0054
1120.000000	83.196976	-117.4781
1138.000000	83.415054	-116.9392
1150.000000	83.565010	-116.5908
1172.000000	83.819687	-116.1310
1180.000000	83.905556	-115.9812
1206.000000	84.202118	-115.5939
1220.000000	84.360939	-115.4820
1241.000000	84.599243	-115.3331
1250.000000	84.693413	-115.3083
1265.000000	84.872101	-115.2629
1280.000000	85.030945	-115.2983
1315.000000	85.408951	-116.0206
1320.000000	85.444496	-116.2413
1340.000000	85.496712	-116.7544
1360.000000	85.577919	-116.4178
1380.000000	85.718536	-116.1838
1400.000000	85.883057	-116.0503
1430.000000	86.104515	-116.0615
1450.000000	86.254196	-116.1208
1475.000000	86.427483	-116.1358
1500.000000	86.590553	-116.1729
1525.000000	86.756462	-116.2539
1550.000000	86.918396	-116.3331
1575.000000	87.078362	-116.4224
1600.000000	87.234604	-116.4883
1625.000000	87.406448	-116.5463
1650.000000	87.557938	-116.6373
1675.000000	87.718781	-116.7336
1700.000000	87.874832	-116.8442
1725.000000	88.035965	-116.9202
1750.000000	88.201340	-117.1025
1775.000000	88.360062	-117.2460
1800.000000	88.518318	-117.3946
1825.000000	88.682098	-117.6156
1850.000000	88.848450	-117.8513
1875.000000	89.022606	-118.1364
1900.000000	89.185120	-118.5052
1925.000000	89.350960	-118.8731
1950.000000	89.508972	-119.3096
1975.000000	89.653709	-119.8400
2000.000000	89.741730	-120.6201
2030.000000	89.993446	-120.9719
2060.000000	90.189323	-121.6655
2090.000000	90.364914	-122.4305
2120.000000	90.534737	-123.3148
2140.000000	90.649216	-123.9524
2180.000000	90.853271	-125.3026
2200.000000	90.956284	-126.0101
2240.000000	91.138222	-127.7095
2270.000000	91.249237	-129.2968
2300.000000	91.346329	-131.1239
2330.000000	91.438782	-132.9878
2360.000000	91.508972	-134.8820
2400.000000	91.577362	-137.2131
2430.000000	91.619553	-138.7529
2470.000000	91.641823	-140.6632
2500.000000	91.635498	-142.1078
2540.000000	91.597572	-143.9413
2580.000000	91.534782	-145.7534
2620.000000	91.456009	-147.4373
2650.000000	91.382690	-148.7018
2690.000000	91.267731	-150.2667
2720.000000	91.169571	-151.3556
2760.000000	91.020790	-152.7089
2800.000000	90.853455	-153.9375
2850.000000	90.641693	-155.3225
2900.000000	90.419922	-156.5763
2950.000000	90.202850	-157.6565
3000.000000	89.975563	-158.2267
3040.000000	89.799904	-159.1335
3070.000000	89.668716	-159.6705
3110.000000	89.490036	-160.1338
3150.000000	89.319214	-160.5665
3200.000000	89.099495	-160.9702
3250.000000	88.897552	-161.3088
3300.000000	88.702248	-161.5850
3350.000000	88.513474	-161.7778
3400.000000	88.326874	-161.8946
3450.000000	88.176033	-161.9230
3500.000000	88.038872	-161.8722
3550.000000	87.926414	-161.8308
3600.000000	87.807030	-161.8106
3650.000000	87.701294	-161.7260
3700.000000	87.605591	-161.6214
3750.000000	87.521530	-161.5347
3820.000000	87.422890	-161.2704
3870.000000	87.362648	-161.1677
3950.000000	87.254990	-161.0329
4000.000000	87.174728	-161.0745
4060.000000	87.167358	-160.8421
4120.000000	87.140419	-160.8963
4180.000000	87.100548	-161.0866
4250.000000	87.060608	-161.2484
4310.000000	87.013664	-161.4565
4370.000000	86.962219	-161.5672
4440.000000	86.928932	-161.6729
4500.000000	86.906067	-161.5237
4550.000000	86.922592	-161.4997
4620.000000	87.001564	-161.4553
4680.000000	87.099045	-161.7828
4750.000000	87.223000	-162.5240
4820.000000	87.320267	-163.7346
4870.000000	87.367241	-164.6862
4940.000000	87.402023	-166.2062
5000.000000	87.400894	-167.5825
5080.000000	87.396912	-169.2076
5150.000000	87.346405	-170.5963
5220.000000	87.302376	-172.0811
5300.000000	87.242531	-173.7000
5380.000000	87.155708	-175.3363
5450.000000	87.079948	-176.8146
5520.000000	86.956810	-178.2961
5600.000000	86.796333	-179.9718
5700.000000	86.573891	177.9261
5800.000000	86.338135	175.7570
5900.000000	86.058228	173.6332
6000.000000	85.764130	171.5040
6080.000000	85.506859	169.9703
6150.000000	85.271645	168.5672
6220.000000	85.032257	167.3118
6300.000000	84.753098	165.9763
6400.000000	84.385330	164.6037
6500.000000	84.014313	163.3163
6600.000000	83.636742	162.2799
6700.000000	83.277222	161.2931
6800.000000	82.880386	160.5184
6900.000000	82.489639	159.8411
7000.000000	82.118546	159.4073
7100.000000	81.743950	159.4385
7200.000000	81.403358	159.8290
7300.000000	81.117378	160.3624
7400.000000	80.817932	161.1526
7500.000000	80.562378	162.2137
7620.000000	80.339737	163.6399
7750.000000	80.151253	165.3179
7880.000000	80.029381	166.7645
8000.000000	79.937019	167.9381
8120.000000	79.896217	169.1204
8250.000000	79.834114	170.3235
8380.000000	79.823906	171.3582
8500.000000	79.842514	172.3854
8620.000000	79.885315	173.5860
8750.000000	79.951653	175.0261
8850.000000	80.066925	176.1861
9000.000000	80.309578	177.7075
9120.000000	80.597748	178.4730
9250.000000	80.995865	179.2689
9380.000000	81.432510	179.6310
9500.000000	81.934509	179.5849
9620.000000	82.494118	179.2991
9750.000000	83.215034	178.5009
9880.000000	84.063644	176.9048
10000.000000	84.949615	174.4678
10150.000000	86.250977	169.8340
10300.000000	87.685066	162.1545
10440.000000	89.006905	150.8995
10600.000000	90.024117	132.5614
10750.000000	89.891899	112.4608
10900.000000	88.701073	95.0690
11060.000000	86.938553	82.2573
11200.000000	85.390289	74.8719
11380.000000	83.623581	68.8426
11500.000000	82.575493	66.0367
11720.000000	80.976616	62.8646
11800.000000	80.487389	62.1186
12060.000000	79.132980	60.3914
12200.000000	78.590866	59.5377
12410.000000	78.013748	58.4132
12500.000000	77.829308	58.2040
12650.000000	77.633331	57.6190
12800.000000	77.520042	56.8900
13150.000000	77.695679	54.3245
13200.000000	77.782410	54.0452
13400.000000	78.238197	51.7273
13600.000000	78.923309	48.2492
13800.000000	79.898499	43.3069
14000.000000	81.200836	35.2629
14300.000000	83.517159	13.4067
14500.000000	84.384888	-11.7887
14750.000000	82.925537	-46.3861
15000.000000	79.791046	-69.5880
15250.000000	76.763641	-82.6915
15500.000000	74.168320	-91.4056
15750.000000	71.995384	-98.1301
16000.000000	70.161774	-104.0569
16250.000000	68.642349	-109.0677
16500.000000	67.349648	-114.9987
16750.000000	66.331863	-119.3053
17000.000000	65.356232	-125.9625
17250.000000	64.579552	-134.3052
17500.000000	64.482582	-139.4773
17750.000000	63.624115	-149.5515
18000.000000	63.285294	-164.5507
18250.000000	63.404640	179.8982
18500.000000	63.467522	163.1804
18750.000000	63.844040	147.0153
19000.000000	64.207115	128.0922
19250.000000	65.211754	106.3403
19500.000000	65.848724	78.3531
19750.000000	66.656143	43.8632
