* Measurement data measured by REW V5.20 Beta 47
* Source: Microphone (Realtek Audio), MICROPHONE (Master Volume), R, volume: 0.251
* Format: 256k Log Swept Sine, 1 sweep at -12.0 dBFS with no timing reference
* Dated: Aug 28, 2020 2:09:06 AM
* REW Settings:
*  C-weighting compensation: Off
*  Target level: 75.0 dB
* Note: ; 
* Measurement: FAAEAL Hibiscus R
* Smoothing: None
* Frequency Step: 1/48 octave
* Start Frequency: 20.000 Hz
*
* Freq(Hz)	SPL(dB)	Phase(degrees)
20.0000	85.4371	-160.83
20.3000	85.4987	-161.27
20.6000	85.5627	-162.00
20.9000	85.5995	-162.97
21.2000	85.5846	-164.04
21.4000	85.5426	-164.65
21.8000	85.4205	-165.33
22.0000	85.3737	-165.35
22.4000	85.3934	-164.91
22.7000	85.5157	-164.69
23.0000	85.6920	-165.02
23.3000	85.8515	-165.93
23.6000	85.9402	-167.16
24.0000	85.9248	-168.57
24.3000	85.8722	-168.95
24.7000	85.8863	-168.56
25.0000	86.0231	-168.23
25.4000	86.3198	-168.80
25.8000	86.5430	-170.88
26.2000	86.5033	-173.62
26.5000	86.2864	-175.14
26.9000	85.8757	-175.41
27.2000	85.6376	-174.24
27.6000	85.5877	-171.94
28.0000	85.7876	-170.66
28.5000	85.9980	-171.24
29.0000	85.9350	-172.01
29.5000	85.8415	-171.17
30.0000	86.0601	-170.03
30.4000	86.3721	-170.76
30.7000	86.5359	-172.41
31.1000	86.5319	-175.18
31.5000	86.2837	-177.32
32.0000	85.8663	-177.74
32.5000	85.6958	-176.29
33.0000	85.8232	-175.44
33.5000	85.9907	-176.03
34.0000	86.0280	-177.08
34.5000	86.0001	-177.62
35.0000	86.0138	-177.71
35.5000	86.0817	-177.83
36.0000	86.1706	-178.11
36.5000	86.2615	-178.55
37.0000	86.3436	-179.21
37.5000	86.3668	179.98
38.2000	86.3110	179.33
38.7000	86.2939	179.40
39.5000	86.3823	179.07
40.0000	86.3910	178.28
40.6000	86.2783	177.48
41.2000	86.1446	177.59
41.8000	86.1369	178.07
42.5000	86.2447	177.71
43.1000	86.2550	176.53
43.7000	86.1300	175.57
44.4000	85.9767	175.58
45.0000	85.9851	175.85
45.5000	86.0247	175.51
46.2000	85.9468	174.89
46.8000	85.8566	175.65
47.5000	86.0784	176.87
48.2000	86.3967	175.45
48.7000	86.3612	173.59
49.4000	86.0275	173.26
50.0000	86.0284	175.02
50.8000	86.4138	174.15
51.5000	86.2311	170.92
52.2000	85.6372	171.18
53.0000	85.6049	174.61
53.8000	85.8868	173.82
54.5000	85.7046	172.59
55.2000	85.5954	173.57
56.0000	85.8251	173.31
57.0000	85.7204	170.85
58.0000	85.5174	171.27
59.0000	85.5922	171.40
60.0000	85.5999	171.04
60.8000	85.5836	170.84
61.5000	85.5508	170.78
62.2000	85.5393	170.80
63.0000	85.5383	170.50
64.0000	85.4844	169.89
65.0000	85.4288	169.43
66.0000	85.4190	168.78
67.0000	85.3552	168.06
68.0000	85.3413	168.25
69.0000	85.4404	167.91
70.0000	85.3918	167.22
71.0000	85.2208	167.31
72.0000	85.1118	168.67
73.0000	85.2619	168.84
74.0000	85.1427	167.08
75.0000	84.8553	167.22
76.2000	84.8831	168.33
77.5000	85.2085	167.38
78.8000	85.0387	165.97
80.0000	85.1071	167.13
81.2000	85.0086	166.86
82.5000	84.9683	166.25
83.8000	84.5601	166.88
85.0000	84.8134	164.72
86.2000	84.4977	165.10
87.5000	84.9007	162.70
88.5000	84.9911	168.58
90.0000	86.8828	156.79
91.2000	84.4079	156.18
92.5000	85.1896	163.87
93.8000	84.5034	163.94
95.0000	84.5701	164.99
96.2000	84.2216	164.83
97.5000	84.1707	164.49
98.8000	84.0924	164.35
100.0000	84.1102	164.69
101.5000	84.1787	164.63
103.0000	84.0885	164.83
104.4000	84.0045	164.74
106.0000	83.8918	164.56
107.5000	83.8586	164.34
109.0000	83.8721	164.27
110.6000	83.7724	164.14
112.0000	83.7231	164.54
113.8000	83.6391	164.29
115.0000	83.4508	164.02
117.2000	83.7585	164.75
118.0000	83.7036	162.96
120.6000	83.4607	163.78
122.0000	83.4092	163.98
124.1000	83.4476	163.89
125.0000	83.5380	162.97
126.5000	83.1421	162.51
128.0000	83.3112	164.45
131.5000	83.0853	164.73
132.0000	83.1090	164.92
134.0000	82.9613	164.29
136.0000	82.4643	163.44
138.0000	82.9512	164.05
140.0000	82.8592	162.98
143.0000	82.8021	163.83
145.0000	82.8454	163.95
147.5000	82.6627	165.03
150.0000	82.5458	164.77
152.5000	82.4295	165.80
155.0000	82.3651	164.91
157.5000	82.5439	164.74
160.0000	82.2633	165.01
162.5000	82.1780	165.44
165.0000	82.1419	165.67
167.5000	82.0984	166.04
170.0000	82.0889	165.88
172.5000	81.9062	166.23
175.0000	81.8281	166.74
177.5000	81.9058	166.26
180.0000	81.8799	168.87
182.5000	81.7301	166.55
185.0000	81.4556	167.35
187.5000	81.6915	167.64
190.0000	81.5828	167.92
192.5000	81.5276	167.65
195.0000	81.4809	168.28
197.5000	81.3962	168.55
200.0000	81.3339	168.47
203.0000	81.2840	169.03
206.0000	81.2932	169.37
209.0000	81.1818	170.13
212.0000	81.0611	170.24
214.0000	81.0216	170.27
218.0000	80.9767	171.08
220.0000	80.9489	170.77
224.0000	80.8305	171.07
227.0000	80.8034	171.35
230.0000	80.8218	170.81
233.0000	80.7756	172.14
236.0000	80.7574	172.19
240.0000	80.7480	172.65
243.0000	80.7119	172.79
247.0000	80.6497	173.53
250.0000	80.5402	173.07
254.0000	80.4700	173.82
258.0000	80.3833	175.16
262.0000	80.3986	174.64
265.0000	80.3173	175.46
269.0000	80.1227	175.91
272.0000	80.2550	175.83
276.0000	80.1164	176.32
280.0000	80.1011	176.78
285.0000	80.1282	177.08
290.0000	79.9408	178.76
295.0000	79.9730	178.64
300.0000	79.8355	179.35
304.0000	79.9712	178.49
307.0000	79.8184	-179.74
311.0000	79.8981	-179.87
315.0000	79.8072	-179.23
320.0000	79.8301	-178.95
325.0000	79.7362	-178.12
330.0000	79.7435	-177.90
335.0000	79.6801	-177.41
340.0000	79.6042	-176.99
345.0000	79.6377	-176.41
350.0000	79.5462	-175.74
355.0000	79.5641	-174.96
360.0000	79.5903	-173.93
365.0000	79.4243	-173.89
370.0000	79.3261	-172.21
375.0000	79.3559	-173.25
382.0000	79.3099	-172.03
387.0000	79.2793	-171.79
395.0000	79.2933	-170.70
400.0000	79.2707	-170.35
406.0000	79.2293	-169.58
412.0000	79.1878	-169.12
418.0000	79.1888	-168.21
425.0000	79.1711	-167.48
431.0000	79.0667	-167.15
437.0000	79.1597	-166.45
444.0000	79.1183	-165.83
450.0000	79.1643	-165.17
455.0000	79.1077	-164.49
462.0000	79.1070	-163.98
468.0000	79.1032	-163.13
475.0000	79.1086	-162.75
482.0000	79.1274	-161.78
487.0000	79.0865	-160.97
494.0000	79.0273	-160.53
500.0000	79.0896	-159.67
508.0000	79.1051	-159.20
515.0000	79.1222	-158.55
522.0000	79.0624	-157.86
530.0000	79.0752	-157.17
538.0000	79.1157	-156.48
545.0000	79.1329	-155.49
552.0000	79.1601	-155.29
560.0000	79.0986	-154.53
570.0000	79.1118	-153.47
580.0000	79.1054	-152.65
590.0000	79.1320	-151.68
600.0000	79.1136	-150.77
608.0000	79.1587	-150.17
615.0000	79.1938	-149.65
622.0000	79.1730	-149.07
630.0000	79.2365	-148.46
640.0000	79.2090	-147.82
650.0000	79.2455	-146.49
660.0000	79.3138	-145.88
670.0000	79.3348	-144.94
680.0000	79.3216	-144.48
690.0000	79.3718	-143.32
700.0000	79.3949	-142.61
710.0000	79.4290	-141.95
720.0000	79.4761	-140.81
730.0000	79.4788	-140.26
740.0000	79.5600	-139.07
750.0000	79.4961	-138.07
762.0000	79.6257	-137.27
775.0000	79.6480	-136.30
788.0000	79.6919	-135.21
800.0000	79.7720	-134.50
812.0000	79.8612	-133.50
825.0000	79.9490	-132.43
838.0000	80.0515	-131.41
850.0000	80.1450	-130.61
862.0000	80.2434	-129.88
875.0000	80.3617	-129.42
885.0000	80.4139	-129.72
900.0000	80.1365	-129.71
912.0000	79.9889	-126.84
925.0000	80.1656	-125.18
938.0000	80.2990	-123.80
950.0000	80.4348	-122.70
962.0000	80.6090	-121.54
975.0000	80.7106	-120.25
988.0000	80.8173	-119.38
1000.0000	80.9811	-118.68
1015.0000	81.1693	-117.52
1030.0000	81.2526	-116.63
1044.0000	81.4462	-115.90
1060.0000	81.6213	-115.17
1075.0000	81.7394	-114.17
1090.0000	81.9490	-113.70
1106.0000	82.1431	-112.72
1120.0000	82.3194	-112.28
1138.0000	82.4983	-111.96
1150.0000	82.6954	-111.16
1172.0000	82.8919	-110.57
1180.0000	82.9874	-110.38
1206.0000	83.2625	-109.62
1220.0000	83.4868	-109.48
1241.0000	83.6661	-108.73
1250.0000	83.7809	-108.71
1265.0000	83.9630	-108.54
1280.0000	84.1166	-108.27
1315.0000	84.5398	-107.60
1320.0000	84.5673	-107.60
1340.0000	84.8211	-107.49
1360.0000	85.0400	-106.96
1380.0000	85.2255	-107.05
1400.0000	85.4334	-106.72
1430.0000	85.7557	-106.55
1450.0000	85.9897	-106.46
1475.0000	86.2951	-106.59
1500.0000	86.5672	-106.40
1525.0000	86.8489	-106.66
1550.0000	87.1527	-106.62
1575.0000	87.4284	-106.73
1600.0000	87.7489	-107.08
1625.0000	88.0372	-107.37
1650.0000	88.3603	-107.92
1675.0000	88.6429	-108.38
1700.0000	88.9650	-109.22
1725.0000	89.2598	-110.03
1750.0000	89.5462	-110.93
1775.0000	89.8630	-111.92
1800.0000	90.1369	-113.20
1825.0000	90.3930	-114.63
1850.0000	90.6396	-116.01
1875.0000	90.8860	-117.64
1900.0000	91.0973	-119.45
1925.0000	91.3000	-121.27
1950.0000	91.4761	-123.30
1975.0000	91.6247	-125.33
2000.0000	91.7380	-127.44
2030.0000	91.8029	-130.04
2060.0000	91.8567	-132.66
2090.0000	91.8720	-135.07
2120.0000	91.8448	-137.65
2140.0000	91.7980	-139.19
2180.0000	91.6656	-141.98
2200.0000	91.5988	-143.34
2240.0000	91.3987	-145.82
2270.0000	91.2358	-147.44
2300.0000	91.0821	-148.70
2330.0000	90.8938	-150.04
2360.0000	90.7151	-151.03
2400.0000	90.4654	-152.18
2430.0000	90.2575	-152.78
2470.0000	90.0393	-153.44
2500.0000	89.8610	-153.76
2540.0000	89.6587	-154.06
2580.0000	89.4816	-154.18
2620.0000	89.2969	-154.13
2650.0000	89.1835	-153.97
2690.0000	89.0553	-153.87
2720.0000	88.9570	-153.67
2760.0000	88.8354	-153.22
2800.0000	88.7396	-152.94
2850.0000	88.6666	-152.36
2900.0000	88.5921	-151.95
2950.0000	88.5870	-151.32
3000.0000	88.6247	-150.74
3040.0000	88.6514	-150.17
3070.0000	88.7036	-150.16
3110.0000	88.7507	-149.86
3150.0000	88.8632	-149.50
3200.0000	88.9939	-149.27
3250.0000	89.1458	-149.30
3300.0000	89.3596	-149.37
3350.0000	89.5920	-149.67
3400.0000	89.8507	-150.06
3450.0000	90.1188	-151.20
3500.0000	90.4971	-152.40
3550.0000	90.8180	-153.98
3600.0000	91.1676	-155.93
3650.0000	91.5567	-158.31
3700.0000	91.9114	-161.49
3750.0000	92.2617	-165.19
3820.0000	92.6727	-171.49
3870.0000	92.8198	-176.82
3950.0000	92.7201	173.88
4000.0000	92.4896	168.13
4060.0000	92.0475	161.56
4120.0000	91.4120	155.78
4180.0000	90.6747	150.87
4250.0000	89.7944	146.01
4310.0000	88.9610	143.01
4370.0000	88.1590	140.64
4440.0000	87.2083	138.50
4500.0000	86.4705	137.13
4550.0000	85.8419	136.36
4620.0000	84.9691	136.25
4680.0000	84.3266	136.30
4750.0000	83.5218	136.63
4820.0000	82.8077	136.93
4870.0000	82.3631	138.14
4940.0000	81.7053	139.33
5000.0000	81.1514	140.03
5080.0000	80.5437	142.15
5150.0000	80.0086	143.38
5220.0000	79.5381	145.32
5300.0000	79.0732	147.06
5380.0000	78.4987	149.58
5450.0000	78.2179	150.88
5520.0000	77.8334	154.21
5600.0000	77.4373	156.31
5700.0000	76.8956	159.89
5800.0000	76.7834	162.74
5900.0000	76.2621	165.07
6000.0000	75.9847	169.31
6080.0000	75.7181	171.01
6150.0000	75.8377	173.58
6220.0000	75.6237	176.68
6300.0000	75.4075	177.70
6400.0000	75.3850	-178.38
6500.0000	75.3813	-175.69
6600.0000	75.4099	-172.29
6700.0000	75.5557	-169.74
6800.0000	75.8068	-167.53
6900.0000	76.2170	-164.73
7000.0000	76.5793	-162.26
7100.0000	77.0680	-160.29
7200.0000	77.5310	-158.55
7300.0000	78.3998	-156.76
7400.0000	79.3629	-157.60
7500.0000	80.2950	-159.15
7620.0000	81.5907	-164.35
7750.0000	82.9467	-173.39
7880.0000	83.8882	171.40
8000.0000	83.5328	156.69
8120.0000	82.3737	142.45
8250.0000	80.5897	132.30
8380.0000	78.6512	127.51
8500.0000	77.0090	126.07
8620.0000	75.6118	126.39
8750.0000	74.0944	126.66
8850.0000	73.1493	128.91
9000.0000	72.1739	131.92
9120.0000	71.1390	134.42
9250.0000	69.9247	137.90
9380.0000	69.6380	142.01
9500.0000	68.5560	143.72
9620.0000	68.6476	151.23
9750.0000	67.8103	154.69
9880.0000	66.8929	153.28
10000.0000	67.1790	163.28
10150.0000	66.1631	165.94
10300.0000	67.3256	170.09
10440.0000	65.6432	177.57
10600.0000	66.1759	-178.02
10750.0000	65.9258	-176.02
10900.0000	66.3311	-170.94
11060.0000	66.3490	-160.75
11200.0000	66.8809	-154.43
11380.0000	68.0236	-150.73
11500.0000	69.2518	-144.12
11720.0000	71.7073	-138.90
11800.0000	72.7036	-139.75
12060.0000	76.0242	-150.70
12200.0000	77.6039	-164.77
12410.0000	77.9755	170.32
12500.0000	77.6477	160.82
12650.0000	76.3808	149.12
12800.0000	74.8551	139.57
13150.0000	71.9143	133.92
13200.0000	71.3667	133.22
13400.0000	70.1820	135.46
13600.0000	69.3237	137.03
13800.0000	68.6478	140.34
14000.0000	68.0987	143.98
14300.0000	67.6040	149.68
14500.0000	68.9640	152.69
14750.0000	68.5036	158.34
15000.0000	69.6234	163.85
15250.0000	71.1328	161.16
15500.0000	74.0195	156.60
15750.0000	75.9742	137.83
16000.0000	75.8658	108.27
16250.0000	72.9272	88.57
16500.0000	69.9189	85.67
16750.0000	68.0570	84.41
17000.0000	65.6715	89.83
17250.0000	64.8589	94.49
17500.0000	64.7039	96.01
17750.0000	65.1957	100.99
18000.0000	62.4820	95.62
18250.0000	60.8332	128.87
18500.0000	64.1224	119.40
18750.0000	66.3086	123.40
19000.0000	67.4116	103.60
19250.0000	65.4324	76.96
19500.0000	61.3003	77.56
19750.0000	58.5750	82.61
