* Measurement data measured by REW V5.20 Beta 47
* Source: Microphone (Realtek Audio), MICROPHONE (Master Volume), R, volume: 0.250
* Format: 256k Log Swept Sine, 1 sweep at -12.0 dBFS with no timing reference
* Dated: Aug 19, 2020 9:57:12 AM
* REW Settings:
*  C-weighting compensation: Off
*  Target level: 75.0 dB
* Note: ; 
* Measurement: FiiO F9 R
* Smoothing: None
* Frequency Step: 1/48 octave
* Start Frequency: 20.000 Hz
*
* Freq(Hz)	SPL(dB)	Phase(degrees)
20.0000	87.4189	-147.54
20.3000	87.4985	-147.63
20.6000	87.6280	-147.92
20.9000	87.7842	-148.55
21.2000	87.9305	-149.60
21.4000	88.0002	-150.46
21.8000	88.0594	-152.26
22.0000	88.0543	-153.04
22.4000	88.0165	-154.07
22.7000	87.9946	-154.36
23.0000	88.0164	-154.36
23.3000	88.0950	-154.28
23.6000	88.2148	-154.32
24.0000	88.4000	-154.70
24.3000	88.5301	-155.18
24.7000	88.6726	-155.99
25.0000	88.7514	-156.63
25.4000	88.8175	-157.44
25.8000	88.8438	-158.09
26.2000	88.8384	-158.48
26.5000	88.8322	-158.54
26.9000	88.8550	-158.40
27.2000	88.9041	-158.32
27.6000	88.9969	-158.50
28.0000	89.0679	-159.10
28.5000	89.0469	-160.08
29.0000	88.9298	-160.31
29.5000	88.8825	-159.51
30.0000	89.0525	-158.60
30.4000	89.2972	-158.78
30.7000	89.4683	-159.60
31.1000	89.5988	-161.22
31.5000	89.5987	-162.83
32.0000	89.4943	-163.98
32.5000	89.4475	-164.10
33.0000	89.5329	-164.21
33.5000	89.6557	-164.93
34.0000	89.6954	-165.92
34.5000	89.6854	-166.43
35.0000	89.7392	-166.58
35.5000	89.8534	-167.23
36.0000	89.8770	-168.63
36.5000	89.7013	-169.79
37.0000	89.4578	-169.42
37.5000	89.3977	-167.80
38.2000	89.6792	-166.96
38.7000	89.8016	-168.12
39.5000	89.6301	-169.23
40.0000	89.6017	-168.68
40.6000	89.7747	-168.85
41.2000	89.8269	-170.65
41.8000	89.6202	-171.87
42.5000	89.4700	-171.01
43.1000	89.6281	-170.63
43.7000	89.7464	-171.62
44.4000	89.6973	-172.41
45.0000	89.7180	-172.17
45.5000	89.8136	-172.28
46.2000	89.8747	-172.98
46.8000	89.8692	-173.10
47.5000	89.9541	-173.23
48.2000	89.9701	-174.27
48.7000	89.8532	-174.79
49.4000	89.7033	-174.30
50.0000	89.7359	-173.87
50.8000	89.7733	-174.69
51.5000	89.6612	-175.38
52.2000	89.5859	-175.37
53.0000	89.6212	-175.57
53.8000	89.6737	-176.19
54.5000	89.7300	-176.86
55.2000	89.7624	-177.78
56.0000	89.6954	-178.54
57.0000	89.6477	-178.16
58.0000	89.7071	-178.16
59.0000	89.6589	-178.04
60.0000	89.7124	-178.03
60.8000	89.6293	-178.66
61.5000	89.5400	-178.16
62.2000	89.6902	-177.85
63.0000	89.8259	-179.72
64.0000	89.5683	178.94
65.0000	89.6259	179.57
66.0000	89.6515	178.61
67.0000	89.6487	179.23
68.0000	89.7009	178.59
69.0000	89.6194	179.16
70.0000	89.6811	177.33
71.0000	88.8506	177.12
72.0000	89.0745	-176.88
73.0000	89.6824	179.64
74.0000	89.3222	177.70
75.0000	89.5221	177.64
76.2000	89.3964	175.21
77.5000	89.4260	175.67
78.8000	89.3898	174.89
80.0000	89.3087	175.48
81.2000	89.4540	175.68
82.5000	89.3503	174.43
83.8000	89.3385	174.45
85.0000	89.2614	174.30
86.2000	89.3605	173.58
87.5000	89.1456	173.85
88.5000	89.3644	173.13
90.0000	88.7310	172.45
91.2000	89.0713	174.36
92.5000	89.0111	172.22
93.8000	89.0342	171.74
95.0000	88.8369	171.50
96.2000	89.0361	172.61
97.5000	89.1475	171.19
98.8000	89.0891	170.72
100.0000	89.0330	170.69
101.5000	88.9513	170.34
103.0000	88.9193	171.24
104.4000	88.9055	170.29
106.0000	88.8494	170.28
107.5000	88.7822	170.24
109.0000	88.7771	169.61
110.6000	88.7450	168.94
112.0000	88.5755	168.25
113.8000	88.5848	166.73
115.0000	88.3677	166.00
117.2000	88.3930	167.29
118.0000	88.4548	167.73
120.6000	88.5802	168.43
122.0000	88.4677	168.17
124.1000	88.4043	166.85
125.0000	88.1312	166.13
126.5000	88.0320	166.82
128.0000	88.0827	167.71
131.5000	88.3065	166.42
132.0000	88.2481	166.48
134.0000	88.2257	166.07
136.0000	88.2337	165.35
138.0000	88.2411	165.53
140.0000	88.1887	165.28
143.0000	88.0064	166.76
145.0000	88.0435	164.56
147.5000	87.8070	165.54
150.0000	87.7561	164.91
152.5000	87.7182	164.99
155.0000	87.5496	164.78
157.5000	87.5375	166.78
160.0000	87.4840	167.13
162.5000	87.5017	162.64
165.0000	87.5735	163.46
167.5000	87.5405	163.95
170.0000	87.4884	163.92
172.5000	87.3164	163.75
175.0000	87.2538	164.00
177.5000	87.2526	163.65
180.0000	87.0401	164.84
182.5000	87.1304	163.92
185.0000	86.9253	163.77
187.5000	87.0162	163.20
190.0000	86.9894	163.36
192.5000	86.7897	162.92
195.0000	86.8281	162.70
197.5000	86.7530	163.10
200.0000	86.7244	163.37
203.0000	86.6251	163.50
206.0000	86.5048	163.16
209.0000	86.4748	163.45
212.0000	86.3901	163.46
214.0000	86.2976	163.19
218.0000	86.3095	163.28
220.0000	86.2621	163.77
224.0000	86.1490	163.46
227.0000	86.0672	163.88
230.0000	86.0379	163.38
233.0000	85.9881	163.89
236.0000	85.8757	163.96
240.0000	85.7521	163.76
243.0000	85.6911	163.71
247.0000	85.6098	163.81
250.0000	85.6221	164.13
254.0000	85.6516	164.09
258.0000	85.6355	164.58
262.0000	85.4003	163.64
265.0000	85.2986	163.93
269.0000	85.2553	164.54
272.0000	85.1695	164.65
276.0000	85.1958	164.86
280.0000	85.0193	165.05
285.0000	84.9550	165.29
290.0000	84.7532	165.35
295.0000	84.6996	165.46
300.0000	84.6201	165.72
304.0000	84.6336	165.98
307.0000	84.5634	166.14
311.0000	84.5111	166.23
315.0000	84.4470	166.37
320.0000	84.4105	166.46
325.0000	84.3080	166.77
330.0000	84.2458	167.74
335.0000	84.2144	167.70
340.0000	84.1600	167.78
345.0000	84.0690	168.17
350.0000	84.0112	168.27
355.0000	83.8768	168.94
360.0000	83.8001	169.59
365.0000	83.8009	169.67
370.0000	83.6775	169.93
375.0000	83.6052	170.00
382.0000	83.5135	170.45
387.0000	83.4946	170.60
395.0000	83.3295	171.40
400.0000	83.3019	171.58
406.0000	83.2219	171.88
412.0000	83.1255	172.84
418.0000	83.1288	173.04
425.0000	82.9406	173.23
431.0000	82.9887	173.99
437.0000	82.8721	174.85
444.0000	82.8099	175.05
450.0000	82.8132	175.53
455.0000	82.7118	176.01
462.0000	82.6190	176.74
468.0000	82.5223	176.00
475.0000	82.6796	177.02
482.0000	82.6120	177.78
487.0000	82.3735	178.10
494.0000	82.4230	178.69
500.0000	82.2488	179.36
508.0000	82.1839	-179.97
515.0000	82.1897	-179.66
522.0000	82.2398	-178.77
530.0000	82.0251	-178.10
538.0000	82.0759	-177.67
545.0000	81.9065	-177.11
552.0000	81.8522	-176.63
560.0000	81.8198	-175.35
570.0000	81.7292	-174.64
580.0000	81.7624	-174.39
590.0000	81.6166	-173.12
600.0000	81.5446	-172.40
608.0000	81.5361	-171.64
615.0000	81.5398	-170.86
622.0000	81.4855	-170.44
630.0000	81.4040	-169.66
640.0000	81.3151	-168.90
650.0000	81.3757	-167.69
660.0000	81.3253	-166.55
670.0000	81.2492	-166.62
680.0000	81.1493	-165.36
690.0000	81.1232	-163.28
700.0000	81.1558	-162.95
710.0000	81.0920	-161.86
720.0000	81.1103	-162.29
730.0000	81.1998	-161.75
740.0000	81.0953	-158.98
750.0000	80.8833	-159.02
762.0000	80.8862	-157.32
775.0000	80.9103	-156.06
788.0000	80.9066	-155.14
800.0000	80.9233	-154.68
812.0000	80.9455	-152.47
825.0000	80.8972	-149.98
838.0000	80.9506	-150.07
850.0000	80.8924	-148.30
862.0000	80.9804	-147.68
875.0000	80.8970	-145.61
885.0000	80.8798	-144.82
900.0000	81.0001	-142.80
912.0000	80.9917	-141.28
925.0000	80.9435	-139.90
938.0000	81.0808	-137.67
950.0000	81.2313	-136.15
962.0000	81.4568	-135.00
975.0000	81.4420	-134.21
988.0000	81.6213	-132.72
1000.0000	81.7608	-131.15
1015.0000	81.8840	-129.72
1030.0000	82.1063	-128.62
1044.0000	82.3468	-127.80
1060.0000	82.5445	-126.41
1075.0000	82.7403	-125.79
1090.0000	82.9852	-124.89
1106.0000	83.1941	-124.30
1120.0000	83.4249	-124.09
1138.0000	83.6754	-123.50
1150.0000	83.7940	-123.65
1172.0000	84.0217	-123.10
1180.0000	84.1467	-122.94
1206.0000	84.4284	-122.36
1220.0000	84.5813	-122.24
1241.0000	84.8280	-121.97
1250.0000	84.8820	-122.17
1265.0000	85.0710	-122.22
1280.0000	85.1773	-121.80
1315.0000	85.5564	-121.65
1320.0000	85.6013	-121.75
1340.0000	85.7751	-121.72
1360.0000	85.9760	-121.51
1380.0000	86.1382	-121.63
1400.0000	86.3131	-121.57
1430.0000	86.5577	-121.75
1450.0000	86.7415	-121.69
1475.0000	86.9620	-121.96
1500.0000	87.1839	-121.86
1525.0000	87.4194	-122.00
1550.0000	87.5943	-122.17
1575.0000	87.8182	-122.18
1600.0000	88.0406	-122.62
1625.0000	88.2533	-123.02
1650.0000	88.4630	-123.39
1675.0000	88.6484	-123.87
1700.0000	88.8816	-124.37
1725.0000	89.0873	-125.02
1750.0000	89.2938	-125.55
1775.0000	89.4728	-126.58
1800.0000	89.6670	-127.26
1825.0000	89.8374	-128.18
1850.0000	89.9739	-129.16
1875.0000	90.1603	-130.29
1900.0000	90.3106	-131.24
1925.0000	90.4146	-132.50
1950.0000	90.4990	-133.80
1975.0000	90.6169	-135.05
2000.0000	90.6916	-136.30
2030.0000	90.7567	-137.81
2060.0000	90.7723	-139.33
2090.0000	90.8145	-141.03
2120.0000	90.8142	-142.36
2140.0000	90.7898	-143.24
2180.0000	90.7518	-145.12
2200.0000	90.7024	-145.75
2240.0000	90.6186	-147.28
2270.0000	90.5442	-148.34
2300.0000	90.4539	-149.25
2330.0000	90.3851	-150.13
2360.0000	90.3039	-150.82
2400.0000	90.1958	-151.62
2430.0000	90.1030	-152.32
2470.0000	89.9905	-152.97
2500.0000	89.9032	-153.47
2540.0000	89.8017	-154.11
2580.0000	89.7308	-154.76
2620.0000	89.6144	-155.40
2650.0000	89.5092	-155.92
2690.0000	89.3385	-156.43
2720.0000	89.2321	-156.97
2760.0000	89.0431	-157.33
2800.0000	88.8110	-157.73
2850.0000	88.5494	-157.57
2900.0000	88.2527	-157.00
2950.0000	88.0338	-156.14
3000.0000	87.8950	-155.23
3040.0000	87.7815	-154.38
3070.0000	87.7146	-153.88
3110.0000	87.6444	-152.80
3150.0000	87.6214	-151.86
3200.0000	87.5932	-150.99
3250.0000	87.5750	-149.98
3300.0000	87.6006	-148.87
3350.0000	87.6453	-148.01
3400.0000	87.7557	-147.41
3450.0000	87.8026	-146.85
3500.0000	87.9806	-146.26
3550.0000	88.1663	-146.16
3600.0000	88.3324	-146.31
3650.0000	88.5094	-146.48
3700.0000	88.6605	-146.97
3750.0000	88.8242	-147.90
3820.0000	88.9926	-149.23
3870.0000	89.1046	-150.20
3950.0000	89.1375	-152.39
4000.0000	89.0676	-153.50
4060.0000	88.9330	-155.21
4120.0000	88.7313	-156.33
4180.0000	88.5106	-156.92
4250.0000	88.1892	-156.77
4310.0000	87.9668	-156.33
4370.0000	87.8089	-155.08
4440.0000	87.8084	-152.99
4500.0000	87.9687	-151.44
4550.0000	88.2372	-150.49
4620.0000	88.7043	-150.64
4680.0000	88.9870	-152.51
4750.0000	89.1450	-155.37
4820.0000	89.0566	-158.72
4870.0000	88.8859	-160.62
4940.0000	88.5580	-162.31
5000.0000	88.2717	-163.17
5080.0000	87.8195	-163.57
5150.0000	87.5131	-163.03
5220.0000	87.1992	-162.51
5300.0000	86.9221	-160.90
5380.0000	86.7545	-159.49
5450.0000	86.5906	-158.16
5520.0000	86.4699	-156.35
5600.0000	86.3167	-154.29
5700.0000	86.2252	-151.58
5800.0000	86.2286	-149.08
5900.0000	86.2699	-146.49
6000.0000	86.3763	-143.78
6080.0000	86.5813	-141.83
6150.0000	86.7207	-139.76
6220.0000	86.9438	-138.60
6300.0000	87.1793	-136.40
6400.0000	87.6099	-134.24
6500.0000	88.0378	-132.74
6600.0000	88.6369	-131.27
6700.0000	89.2960	-130.07
6800.0000	90.0840	-129.37
6900.0000	90.9599	-129.72
7000.0000	91.9792	-130.92
7100.0000	93.0578	-133.50
7200.0000	94.1717	-138.27
7300.0000	95.2061	-145.28
7400.0000	95.9607	-154.83
7500.0000	96.2050	-166.00
7620.0000	95.7998	-178.49
7750.0000	94.7373	171.39
7880.0000	93.4575	165.52
8000.0000	92.3750	162.21
8120.0000	91.3137	161.14
8250.0000	90.4340	161.17
8380.0000	89.7102	162.17
8500.0000	89.1241	163.69
8620.0000	88.7544	165.50
8750.0000	88.4233	167.55
8850.0000	88.2356	169.19
9000.0000	88.1180	171.72
9120.0000	88.1171	173.79
9250.0000	88.3056	175.25
9380.0000	88.5999	176.63
9500.0000	88.9757	177.28
9620.0000	89.4151	176.95
9750.0000	90.0442	175.95
9880.0000	90.7003	173.25
10000.0000	91.3911	169.40
10150.0000	92.1239	161.95
10300.0000	92.5717	151.97
10440.0000	92.4334	141.28
10600.0000	91.7966	130.32
10750.0000	90.8282	122.02
10900.0000	89.7930	116.40
11060.0000	88.7421	111.50
11200.0000	87.8704	108.16
11380.0000	86.9294	105.18
11500.0000	86.2968	103.28
11720.0000	85.3080	98.73
11800.0000	84.8779	96.92
12060.0000	83.6352	89.75
12200.0000	82.7457	85.54
12410.0000	81.0963	81.15
12500.0000	80.3347	79.11
12650.0000	79.0331	78.00
12800.0000	77.7439	77.21
13150.0000	75.0441	80.88
13200.0000	74.3428	81.65
13400.0000	73.1077	86.77
13600.0000	71.7456	90.78
13800.0000	70.5810	95.34
14000.0000	69.8634	103.68
14300.0000	68.5709	116.69
14500.0000	69.0605	127.88
14750.0000	69.1019	134.11
15000.0000	69.0444	140.09
15250.0000	70.1950	141.32
15500.0000	70.9825	147.14
15750.0000	72.1377	145.90
16000.0000	72.5313	137.70
16250.0000	72.2593	134.16
16500.0000	71.6646	129.15
16750.0000	71.1708	122.32
17000.0000	70.4294	122.55
17250.0000	69.2159	122.97
17500.0000	68.4575	124.30
17750.0000	67.4508	123.10
18000.0000	66.4329	122.59
18250.0000	64.4747	129.21
18500.0000	65.4528	130.00
18750.0000	65.0008	131.50
19000.0000	63.8818	138.30
19250.0000	64.2026	138.38
19500.0000	63.9647	132.06
19750.0000	63.0297	128.70
