* Measurement data measured by REW V5.20 Beta 60
* Source: Headset (USB-C to 3.5mm Headphone Jack Adapter), MICROPHONE (Master Volume), R, volume: 0.250
* Format: 256k Log Swept Sine, 1 sweep at -12.0 dBFS with no timing reference
* Dated: Jun 12, 2021 5:17:55 PM
* REW Settings:
*  C-weighting compensation: Off
*  Target level: 75.0 dB
* Note: ; 
* Measurement: 111 R
* Smoothing: None
* Frequency Step: 1/48 octave
* Start Frequency: 20.000 Hz
*
* Freq(Hz)	SPL(dB)	Phase(degrees)
20.000000	91.361664	172.9678
20.299999	91.381294	172.8647
20.600000	91.410927	172.6638
20.900000	91.437004	172.3427
21.200001	91.450600	171.9193
21.400000	91.447716	171.6299
21.799999	91.417435	171.1216
22.000000	91.395241	170.9275
22.400000	91.352295	170.6512
22.700001	91.323463	170.5415
23.000000	91.300056	170.4830
23.299999	91.284309	170.4536
23.600000	91.275681	170.4569
24.000000	91.278748	170.4796
24.299999	91.294899	170.4438
24.700001	91.325539	170.2389
25.000000	91.339691	169.9434
25.400000	91.327118	169.4288
25.799999	91.267517	169.0286
26.200001	91.188751	168.9539
26.500000	91.147095	169.1125
26.900000	91.139442	169.4406
27.200001	91.168701	169.5690
27.600000	91.224548	169.4078
28.000000	91.249695	168.9225
28.500000	91.209007	168.2545
29.000000	91.127220	167.9639
29.500000	91.071716	168.0097
30.000000	91.056656	168.0834
30.400000	91.059021	168.0490
30.700001	91.062866	167.9995
31.100000	91.075867	167.9015
31.500000	91.100174	167.6923
32.000000	91.122002	167.1782
32.500000	91.094345	166.4917
33.000000	91.010445	166.0500
33.500000	90.926826	166.0682
34.000000	90.902252	166.2952
34.500000	90.929512	166.2710
35.000000	90.946548	165.9232
35.500000	90.924889	165.5152
36.000000	90.885277	165.2547
36.500000	90.851234	165.0662
37.000000	90.817482	164.8665
37.500000	90.775635	164.7148
38.200001	90.728622	164.7294
38.700001	90.727142	164.7483
39.500000	90.742935	164.4435
40.000000	90.730217	164.1569
40.599998	90.696732	163.8910
41.200001	90.667816	163.7222
41.799999	90.645592	163.5490
42.500000	90.610222	163.3422
43.099998	90.574959	163.2464
43.700001	90.553101	163.2094
44.400002	90.542610	163.0414
45.000000	90.514595	162.7554
45.500000	90.469238	162.5984
46.200001	90.418144	162.6644
46.799999	90.421478	162.6664
47.500000	90.417313	162.2675
48.200001	90.352898	161.9579
48.700001	90.318871	161.9910
49.400002	90.334816	161.9402
50.000000	90.338531	161.5242
50.799999	90.274544	161.0393
51.500000	90.230606	161.0240
52.200001	90.215759	160.9633
53.000000	90.187050	160.9189
53.799999	90.189125	160.9789
54.500000	90.192490	160.7633
55.200001	90.153954	160.5304
56.000000	90.105705	160.4360
57.000000	90.025307	160.1508
58.000000	89.913132	160.2030
59.000000	89.862640	160.2275
60.000000	89.814896	159.9840
60.799999	89.767685	159.6579
61.500000	89.702347	159.4164
62.200001	89.646187	159.4619
63.000000	89.645508	159.5311
64.000000	89.645050	159.1292
65.000000	89.583206	158.8727
66.000000	89.539551	158.9014
67.000000	89.518463	158.7277
68.000000	89.445320	158.4271
69.000000	89.372879	158.4363
70.000000	89.332893	158.3062
71.000000	89.280594	158.1223
72.000000	89.249779	157.9769
73.000000	89.217598	157.7309
74.000000	89.173767	157.6150
75.000000	89.141563	157.6487
76.199997	89.122078	157.6747
77.500000	89.071106	157.5190
78.800003	88.992943	157.7338
80.000000	89.005829	157.5801
81.199997	88.898506	156.8913
82.500000	88.755013	157.1573
83.800003	88.735886	157.3177
85.000000	88.685333	157.3662
86.199997	88.693832	157.3721
87.500000	88.643013	157.3331
88.500000	88.707161	156.9777
90.000000	88.417747	155.9650
91.199997	88.411995	157.3855
92.500000	88.465675	156.5288
93.800003	88.336868	156.3401
95.000000	88.281540	156.5865
96.199997	88.273682	156.4367
97.500000	88.185265	156.4429
98.800003	88.209740	156.3140
100.000000	88.104660	155.9019
101.500000	88.048737	156.1666
103.000000	87.986076	156.2455
104.400002	87.958992	156.2534
106.000000	87.864151	156.0239
107.500000	87.810921	156.2478
109.000000	87.742676	156.0757
110.599998	87.687729	156.0665
112.000000	87.661697	156.1757
113.800003	87.579643	156.2332
115.000000	87.556152	156.2123
117.199997	87.481262	156.0814
118.000000	87.444191	156.1560
120.599998	87.361099	155.9756
122.000000	87.301880	156.0487
124.099998	87.223686	156.2210
125.000000	87.185104	156.3401
126.500000	87.108101	156.6145
128.000000	87.137131	156.6393
131.500000	86.964928	156.5362
132.000000	86.979294	156.7437
134.000000	86.881744	156.8186
136.000000	86.898453	156.6019
138.000000	86.771179	156.9328
140.000000	86.703476	156.9648
143.000000	86.682991	157.1740
145.000000	86.417961	157.4431
147.500000	86.427536	156.9975
150.000000	86.346436	157.1261
152.500000	86.360344	157.1794
155.000000	86.264946	158.0270
157.500000	86.195839	157.6271
160.000000	86.206139	157.7931
162.500000	86.112206	158.3529
165.000000	86.048363	158.3249
167.500000	86.000710	158.4379
170.000000	85.928207	158.3146
172.500000	85.834160	158.9740
175.000000	85.811836	159.6679
177.500000	85.678055	159.0972
180.000000	85.568176	158.5841
182.500000	85.584709	159.4225
185.000000	85.579941	160.5259
187.500000	85.526291	161.2932
190.000000	85.357323	160.5439
192.500000	85.211472	159.8452
195.000000	85.185295	160.9665
197.500000	85.142654	160.7244
200.000000	85.123245	160.8820
203.000000	84.941544	159.9126
206.000000	84.965858	161.8124
209.000000	84.931824	160.9902
212.000000	84.804611	162.1227
214.000000	84.938286	161.9421
218.000000	84.772324	162.7689
220.000000	84.681122	162.4832
224.000000	84.635094	163.2297
227.000000	84.555511	163.5422
230.000000	84.503143	163.2534
233.000000	84.472481	164.1124
236.000000	84.389481	164.1418
240.000000	84.353683	164.8264
243.000000	84.229492	164.5960
247.000000	84.160904	164.9258
250.000000	84.161613	165.2157
254.000000	84.105247	165.6951
258.000000	84.034485	166.1340
262.000000	84.023621	166.4382
265.000000	83.941254	166.8825
269.000000	83.899750	167.2710
272.000000	83.826149	167.8011
276.000000	83.789780	167.7723
280.000000	83.766899	168.4977
285.000000	83.649620	168.8899
290.000000	83.624023	169.4359
295.000000	83.542572	170.0602
300.000000	83.440239	170.2542
304.000000	83.422150	170.4222
307.000000	83.405540	170.9863
311.000000	83.294594	171.3377
315.000000	83.270973	171.5785
320.000000	83.187546	172.2627
325.000000	83.154648	172.5664
330.000000	83.121422	173.1015
335.000000	83.054749	173.8976
340.000000	82.984863	174.2722
345.000000	82.892227	174.6889
350.000000	82.853592	175.5451
355.000000	82.790390	176.1494
360.000000	82.753960	176.6695
365.000000	82.701630	177.1984
370.000000	82.676857	177.6003
375.000000	82.647240	178.2598
382.000000	82.583656	179.1839
387.000000	82.564949	179.5691
395.000000	82.499397	-179.7602
400.000000	82.500351	-178.8733
406.000000	82.428268	-178.2639
412.000000	82.410812	-177.7490
418.000000	82.385559	-177.0801
425.000000	82.346741	-176.5745
431.000000	82.380699	-175.6593
437.000000	82.277382	-174.8332
444.000000	82.242821	-174.8778
450.000000	82.260574	-173.6037
455.000000	82.252731	-173.3637
462.000000	82.236115	-172.4181
468.000000	82.272385	-171.8085
475.000000	82.194740	-171.4697
482.000000	82.144852	-171.0995
487.000000	82.193291	-170.0573
494.000000	82.076622	-169.4492
500.000000	82.100586	-169.3533
508.000000	82.025101	-167.9226
515.000000	82.195320	-168.1461
522.000000	82.009071	-166.7860
530.000000	82.040695	-166.6359
538.000000	81.978775	-165.5856
545.000000	82.047455	-164.7569
552.000000	82.018082	-164.1441
560.000000	82.007568	-163.6059
570.000000	81.988174	-162.1598
580.000000	81.986137	-161.7159
590.000000	82.001511	-160.4050
600.000000	81.966858	-159.3576
608.000000	82.005241	-158.6966
615.000000	82.001671	-158.0038
622.000000	81.980865	-157.3418
630.000000	82.011108	-156.4028
640.000000	82.032196	-155.8786
650.000000	82.055550	-155.0012
660.000000	82.092171	-153.9292
670.000000	82.080803	-153.0173
680.000000	82.116020	-152.0849
690.000000	82.158279	-151.1581
700.000000	82.181992	-150.1717
710.000000	82.155914	-149.4445
720.000000	82.215652	-148.2900
730.000000	82.228119	-147.5426
740.000000	82.310249	-146.5109
750.000000	82.346466	-145.6988
762.000000	82.409492	-144.4709
775.000000	82.456146	-143.3841
788.000000	82.506699	-142.3587
800.000000	82.566010	-141.0813
812.000000	82.633606	-139.9367
825.000000	82.700127	-138.7786
838.000000	82.796768	-137.8818
850.000000	82.883545	-136.5902
862.000000	82.947266	-135.6854
875.000000	83.031563	-134.6899
885.000000	83.109009	-133.6494
900.000000	83.251686	-132.3883
912.000000	83.347855	-131.3932
925.000000	83.476753	-130.5117
938.000000	83.596710	-129.5208
950.000000	83.696213	-128.3433
962.000000	83.848816	-127.6816
975.000000	83.969849	-126.5826
988.000000	84.131180	-125.7662
1000.000000	84.323639	-124.8800
1015.000000	84.408478	-124.0279
1030.000000	84.568962	-123.1952
1044.000000	84.749023	-122.4193
1060.000000	84.952759	-121.6822
1075.000000	85.137772	-120.7763
1090.000000	85.333618	-120.2106
1106.000000	85.554680	-119.5782
1120.000000	85.742378	-119.1215
1138.000000	85.988281	-118.5012
1150.000000	86.153595	-118.0924
1172.000000	86.471848	-117.6902
1180.000000	86.588737	-117.3864
1206.000000	86.959969	-116.9880
1220.000000	87.151337	-116.8867
1241.000000	87.469017	-116.5975
1250.000000	87.596497	-116.5461
1265.000000	87.812401	-116.5612
1280.000000	88.039703	-116.5073
1315.000000	88.529129	-116.7308
1320.000000	88.598618	-116.8247
1340.000000	88.883041	-117.0931
1360.000000	89.158302	-117.4057
1380.000000	89.442688	-117.7971
1400.000000	89.718864	-118.3874
1430.000000	90.126244	-119.2071
1450.000000	90.377487	-119.9839
1475.000000	90.696274	-121.0477
1500.000000	91.010094	-122.2562
1525.000000	91.292023	-123.6514
1550.000000	91.565865	-125.2180
1575.000000	91.819862	-126.8881
1600.000000	92.043159	-128.6988
1625.000000	92.237839	-130.6216
1650.000000	92.398079	-132.6469
1675.000000	92.507851	-134.7356
1700.000000	92.547325	-136.6877
1725.000000	92.589432	-137.9616
1750.000000	92.708946	-139.8010
1775.000000	92.750015	-141.7640
1800.000000	92.756973	-143.7236
1825.000000	92.691193	-145.6518
1850.000000	92.596283	-147.2017
1875.000000	92.495377	-148.5894
1900.000000	92.382744	-149.7856
1925.000000	92.263763	-150.8331
1950.000000	92.132866	-151.7258
1975.000000	91.986427	-152.5138
2000.000000	91.790894	-153.3904
2030.000000	91.701935	-153.5448
2060.000000	91.564697	-153.8232
2090.000000	91.417404	-153.9882
2120.000000	91.291473	-153.9746
2140.000000	91.215256	-153.8751
2180.000000	91.071396	-153.5228
2200.000000	91.016655	-153.2784
2240.000000	90.937943	-152.8679
2270.000000	90.880272	-152.7343
2300.000000	90.845917	-152.7179
2330.000000	90.835312	-152.7345
2360.000000	90.828400	-152.7039
2400.000000	90.855560	-152.4177
2430.000000	90.914093	-151.9698
2470.000000	91.000183	-151.3333
2500.000000	91.084457	-150.8996
2540.000000	91.219887	-150.4553
2580.000000	91.376549	-150.1880
2620.000000	91.560272	-150.1224
2650.000000	91.712540	-150.2600
2690.000000	91.919334	-150.6495
2720.000000	92.078384	-151.1487
2760.000000	92.264427	-152.0562
2800.000000	92.437134	-153.2765
2850.000000	92.610092	-155.1656
2900.000000	92.721161	-157.4887
2950.000000	92.754410	-160.0050
3000.000000	92.693413	-162.2244
3040.000000	92.578384	-164.4824
3070.000000	92.459465	-165.9144
3110.000000	92.253120	-167.5166
3150.000000	92.012131	-168.8397
3200.000000	91.673706	-169.9928
3250.000000	91.317871	-170.5982
3300.000000	90.981125	-170.5903
3350.000000	90.668770	-170.0628
3400.000000	90.439522	-169.1149
3450.000000	90.309822	-168.1678
3500.000000	90.226555	-167.4209
3550.000000	90.145576	-166.7428
3600.000000	90.062309	-165.9889
3650.000000	89.991524	-165.0561
3700.000000	89.940201	-163.9377
3750.000000	89.936859	-162.5604
3820.000000	90.066963	-160.4615
3870.000000	90.238930	-159.3085
3950.000000	90.582169	-158.4025
4000.000000	90.789856	-158.4720
4060.000000	91.079208	-158.5993
4120.000000	91.309738	-159.3876
4180.000000	91.504257	-160.3671
4250.000000	91.689659	-161.5754
4310.000000	91.814812	-162.8027
4370.000000	91.929657	-164.0474
4440.000000	92.044670	-165.6423
4500.000000	92.132133	-167.2065
4550.000000	92.178238	-168.6198
4620.000000	92.189728	-170.7435
4680.000000	92.141502	-172.6541
4750.000000	92.002083	-174.7916
4820.000000	91.768806	-176.5723
4870.000000	91.570396	-177.4363
4940.000000	91.280930	-177.8851
5000.000000	91.081345	-177.8044
5080.000000	90.933922	-177.0113
5150.000000	90.887810	-176.4090
5220.000000	90.908806	-176.1171
5300.000000	90.963959	-176.1626
5380.000000	91.032875	-176.6823
5450.000000	91.067734	-177.4900
5520.000000	91.026978	-178.4724
5600.000000	90.931396	-179.7682
5700.000000	90.716805	178.6627
5800.000000	90.419121	177.4348
5900.000000	90.062225	176.6917
6000.000000	89.665329	176.6592
6080.000000	89.380966	177.1115
6150.000000	89.137268	177.8093
6220.000000	88.929428	178.8608
6300.000000	88.725937	-179.6679
6400.000000	88.552765	-177.5202
6500.000000	88.470840	-175.1233
6600.000000	88.459030	-172.6140
6700.000000	88.540802	-170.0314
6800.000000	88.719803	-167.4481
6900.000000	89.009323	-165.0343
7000.000000	89.409332	-162.8781
7100.000000	89.900566	-160.9286
7200.000000	90.497757	-159.5195
7300.000000	91.160049	-158.6006
7400.000000	91.916901	-158.4748
7500.000000	92.728355	-159.3428
7620.000000	93.748337	-162.0182
7750.000000	94.761871	-167.0500
7880.000000	95.525955	-174.0581
8000.000000	95.995918	178.2419
8120.000000	96.201736	169.7903
8250.000000	96.093704	160.3506
8380.000000	95.637405	151.0870
8500.000000	94.905136	143.3622
8620.000000	93.933838	137.1055
8750.000000	92.691986	132.4933
8850.000000	91.708519	130.4972
9000.000000	90.309830	129.5624
9120.000000	89.339111	130.0782
9250.000000	88.438164	131.5416
9380.000000	87.722046	133.4009
9500.000000	87.171677	135.2145
9620.000000	86.764397	136.6491
9750.000000	86.403740	137.9601
9880.000000	86.104706	138.6138
10000.000000	85.841118	138.5544
10150.000000	85.490555	137.7878
10300.000000	85.039055	136.3480
10440.000000	84.445236	134.8201
10600.000000	83.636574	133.6334
10750.000000	82.751266	133.1852
10900.000000	81.826553	133.7968
11060.000000	80.833847	135.5990
11200.000000	80.015991	137.9957
11380.000000	79.057762	142.1296
11500.000000	78.467545	145.3084
11720.000000	77.652863	152.4911
11800.000000	77.486450	155.0607
12060.000000	76.978867	163.4409
12200.000000	76.870888	167.9681
12410.000000	76.950668	174.7454
12500.000000	77.053329	177.5154
12650.000000	77.402596	-178.0409
12800.000000	77.856079	-173.7350
13150.000000	79.615364	-167.7919
13200.000000	79.959610	-167.5488
13400.000000	81.471642	-169.3533
13600.000000	83.014084	-177.9945
13800.000000	83.620064	165.4940
14000.000000	82.394783	148.6221
14300.000000	78.915207	138.5802
14500.000000	76.770378	140.1357
14750.000000	74.542656	147.1741
15000.000000	72.971794	157.6049
15250.000000	72.134216	170.3535
15500.000000	71.908531	-175.5445
15750.000000	72.735626	-162.3928
16000.000000	74.536751	-152.6400
16250.000000	77.122330	-150.2882
16500.000000	79.764153	-158.1541
16750.000000	81.293991	-174.8927
17000.000000	81.545158	168.9470
17250.000000	81.562080	155.2401
17500.000000	81.418602	139.4497
17750.000000	80.617523	119.8223
18000.000000	78.801880	99.5316
18250.000000	76.709106	84.0528
18500.000000	74.812881	72.3219
18750.000000	73.053543	64.0354
19000.000000	71.578659	57.4846
19250.000000	69.881317	51.2985
19500.000000	68.099800	49.0364
19750.000000	66.576172	48.8275
