* Measurement data measured by REW V5.20 Beta 47
* Source: Headset (USB-C to 3.5mm Headphone Jack Adapter), MICROPHONE (Master Volume), R, volume: 0.000
* Format: 256k Log Swept Sine, 1 sweep at 0.0 dBFS with no timing reference
* Dated: May 3, 2020 12:44:27 AM
* REW Settings:
*  C-weighting compensation: Off
*  Target level: 75.0 dB
* Note: ; 
* Measurement: Final E3000 R
* Smoothing: None
* Frequency Step: 1/48 octave
* Start Frequency: 20.300 Hz
*
* Freq(Hz)	SPL(dB)	Phase(degrees)
20.3000	88.9002	-128.32
20.6000	88.9903	-128.83
20.9000	89.0735	-129.23
21.2000	89.1603	-129.63
21.4000	89.2168	-129.92
21.8000	89.3215	-130.50
22.0000	89.3694	-130.79
22.4000	89.4610	-131.34
22.7000	89.5281	-131.68
23.0000	89.6025	-131.94
23.3000	89.6912	-132.19
23.6000	89.7912	-132.46
24.0000	89.9329	-132.92
24.3000	90.0373	-133.35
24.7000	90.1625	-134.00
25.0000	90.2417	-134.53
25.4000	90.3305	-135.26
25.8000	90.3999	-135.98
26.2000	90.4563	-136.69
26.5000	90.4944	-137.20
26.9000	90.5441	-137.80
27.2000	90.5876	-138.18
27.6000	90.6616	-138.59
28.0000	90.7543	-138.92
28.5000	90.8967	-139.32
29.0000	91.0595	-139.82
29.5000	91.2293	-140.61
30.0000	91.3652	-141.75
30.4000	91.4230	-142.80
30.7000	91.4300	-143.49
31.1000	91.4107	-144.04
31.5000	91.4030	-144.05
32.0000	91.4780	-143.58
32.5000	91.6480	-143.41
33.0000	91.7977	-144.11
33.5000	91.8206	-145.43
34.0000	91.7253	-146.60
34.5000	91.6492	-147.18
35.0000	91.7094	-147.42
35.5000	91.8980	-147.96
36.0000	92.0949	-148.85
36.5000	92.2132	-149.63
37.0000	92.2644	-149.84
37.5000	92.3122	-149.71
38.2000	92.3874	-150.03
38.7000	92.3881	-150.88
39.5000	92.2996	-152.14
40.0000	92.2873	-152.44
40.6000	92.3713	-152.70
41.2000	92.4884	-153.31
41.8000	92.5550	-154.14
42.5000	92.5776	-154.90
43.1000	92.6121	-155.35
43.7000	92.6657	-155.80
44.4000	92.7143	-156.33
45.0000	92.7445	-156.71
45.5000	92.7781	-157.11
46.2000	92.8248	-157.94
46.8000	92.8449	-158.72
47.5000	92.8800	-159.33
48.2000	92.9650	-159.82
48.7000	93.0199	-160.32
49.4000	93.0279	-160.92
50.0000	93.0203	-161.04
50.8000	93.0880	-161.44
51.5000	93.0999	-162.49
52.2000	93.0373	-163.11
53.0000	93.1423	-163.03
53.8000	93.3748	-164.03
54.5000	93.3615	-165.25
55.2000	93.2285	-165.24
56.0000	93.2338	-165.00
57.0000	93.2460	-166.53
58.0000	93.2234	-167.20
59.0000	93.3863	-168.00
60.0000	93.3621	-169.12
60.8000	93.3200	-169.26
61.5000	93.3128	-169.54
62.2000	93.2681	-169.94
63.0000	93.2562	-170.42
64.0000	93.3101	-171.98
65.0000	93.2773	-173.11
66.0000	93.3035	-173.04
67.0000	93.3285	-173.27
68.0000	93.3379	-173.78
69.0000	93.3759	-174.74
70.0000	93.3523	-175.42
71.0000	93.3726	-175.67
72.0000	93.4053	-176.32
73.0000	93.3988	-176.95
74.0000	93.3838	-177.67
75.0000	93.3370	-178.26
76.2000	93.3402	-178.78
77.5000	93.3198	-179.38
78.8000	93.3672	179.67
80.0000	93.3254	179.30
81.2000	93.3538	178.93
82.5000	93.2717	178.14
83.8000	93.3364	177.53
85.0000	93.3033	177.17
86.2000	93.2800	176.46
87.5000	93.2412	175.80
88.5000	93.2788	175.53
90.0000	93.1863	175.06
91.2000	93.2138	174.49
92.5000	93.1755	173.53
93.8000	93.1475	172.99
95.0000	93.1316	172.16
96.2000	93.1145	172.37
97.5000	93.0311	171.97
98.8000	92.9739	171.47
100.0000	93.0520	170.67
101.5000	92.9421	170.21
103.0000	92.9399	169.95
104.4000	92.9238	169.07
106.0000	92.8101	168.86
107.5000	92.8232	168.29
109.0000	92.7661	167.84
110.6000	92.7374	167.10
112.0000	92.6771	166.89
113.8000	92.6901	166.28
115.0000	92.6010	166.20
117.2000	92.5725	165.30
118.0000	92.5407	165.11
120.6000	92.4758	164.65
122.0000	92.4215	164.08
124.1000	92.3474	163.65
125.0000	92.3435	163.44
126.5000	92.3209	162.89
128.0000	92.2719	162.47
131.5000	92.1676	161.59
132.0000	92.1526	161.69
134.0000	92.0821	161.39
136.0000	92.0382	160.75
138.0000	91.9740	160.49
140.0000	91.8856	160.17
143.0000	91.8137	159.57
145.0000	91.6931	158.92
147.5000	91.6520	158.75
150.0000	91.5291	158.35
152.5000	91.4797	157.35
155.0000	91.4477	157.15
157.5000	91.3535	156.70
160.0000	91.2751	156.57
162.5000	91.2128	156.33
165.0000	91.1601	155.80
167.5000	91.0475	155.41
170.0000	91.0027	155.14
172.5000	90.9100	154.76
175.0000	90.8146	154.58
177.5000	90.7042	154.10
180.0000	90.6176	153.87
182.5000	90.5274	153.62
185.0000	90.4071	153.35
187.5000	90.2749	153.01
190.0000	90.1728	153.11
192.5000	90.0057	152.73
195.0000	89.9033	152.65
197.5000	89.7014	152.69
200.0000	89.4890	152.75
203.0000	89.2565	153.76
206.0000	89.0553	155.86
209.0000	89.0414	158.40
212.0000	89.3591	160.42
214.0000	89.6158	160.52
218.0000	90.0094	159.09
220.0000	90.0081	157.84
224.0000	90.0047	156.12
227.0000	89.9469	155.21
230.0000	89.8856	154.59
233.0000	89.7898	154.17
236.0000	89.7466	153.55
240.0000	89.6235	153.10
243.0000	89.5371	152.73
247.0000	89.4143	152.34
250.0000	89.3443	152.19
254.0000	89.2283	152.07
258.0000	89.1358	151.82
262.0000	89.0433	151.62
265.0000	88.9448	151.58
269.0000	88.8576	151.52
272.0000	88.7772	151.32
276.0000	88.7168	151.46
280.0000	88.6118	151.27
285.0000	88.5062	151.31
290.0000	88.4092	151.61
295.0000	88.3161	151.19
300.0000	88.2059	151.13
304.0000	88.1033	151.20
307.0000	88.0585	151.27
311.0000	87.9861	151.13
315.0000	87.9002	151.38
320.0000	87.7992	151.32
325.0000	87.7073	151.42
330.0000	87.6200	151.58
335.0000	87.5134	151.76
340.0000	87.4318	151.66
345.0000	87.3360	151.80
350.0000	87.2516	151.91
355.0000	87.1493	152.08
360.0000	87.0768	152.21
365.0000	86.9897	152.51
370.0000	86.9073	152.57
375.0000	86.8322	152.76
382.0000	86.7466	152.91
387.0000	86.6380	153.12
395.0000	86.5289	153.48
400.0000	86.4399	153.70
406.0000	86.3777	153.94
412.0000	86.2964	154.21
418.0000	86.2009	154.43
425.0000	86.1331	154.72
431.0000	86.0512	155.03
437.0000	85.9873	155.27
444.0000	85.9033	155.61
450.0000	85.8360	155.90
455.0000	85.7823	156.05
462.0000	85.6935	156.36
468.0000	85.6225	156.51
475.0000	85.5391	156.88
482.0000	85.4625	157.15
487.0000	85.4076	157.38
494.0000	85.3404	157.56
500.0000	85.2742	157.89
508.0000	85.2476	158.45
515.0000	85.1326	158.81
522.0000	85.0513	159.19
530.0000	84.9774	159.62
538.0000	84.8929	160.06
545.0000	84.8436	160.50
552.0000	84.7763	160.94
560.0000	84.7022	161.44
570.0000	84.6193	162.06
580.0000	84.5451	162.69
590.0000	84.4514	163.33
600.0000	84.3881	163.97
608.0000	84.3284	164.49
615.0000	84.2827	164.97
622.0000	84.2382	165.37
630.0000	84.1901	165.93
640.0000	84.1401	166.57
650.0000	84.0700	167.21
660.0000	84.0139	167.99
670.0000	83.9658	168.59
680.0000	83.9252	169.38
690.0000	83.8649	170.04
700.0000	83.8266	170.74
710.0000	83.7745	171.45
720.0000	83.7264	172.18
730.0000	83.6933	172.99
740.0000	83.6587	173.66
750.0000	83.6212	174.43
762.0000	83.5890	175.33
775.0000	83.5418	176.40
788.0000	83.5044	177.55
800.0000	83.4728	178.61
812.0000	83.4570	179.74
825.0000	83.4652	-178.94
838.0000	83.5102	-177.65
850.0000	83.5864	-176.62
862.0000	83.6683	-175.91
875.0000	83.7371	-175.21
885.0000	83.7662	-174.79
900.0000	83.8124	-174.06
912.0000	83.8300	-173.44
925.0000	83.8696	-172.82
938.0000	83.8988	-172.04
950.0000	83.9432	-171.42
962.0000	83.9991	-170.75
975.0000	84.0356	-170.01
988.0000	84.1223	-169.33
1000.0000	84.2365	-168.61
1015.0000	84.2287	-168.04
1030.0000	84.2860	-167.42
1044.0000	84.3664	-166.88
1060.0000	84.4521	-166.29
1075.0000	84.5384	-165.82
1090.0000	84.6386	-165.41
1106.0000	84.7444	-165.02
1120.0000	84.8243	-164.71
1138.0000	84.9455	-164.51
1150.0000	85.0064	-164.39
1172.0000	85.1393	-164.14
1180.0000	85.1689	-164.17
1206.0000	85.3033	-164.12
1220.0000	85.3689	-164.15
1241.0000	85.4541	-164.26
1250.0000	85.4800	-164.26
1265.0000	85.5288	-164.35
1280.0000	85.5615	-164.43
1315.0000	85.6187	-164.56
1320.0000	85.6304	-164.55
1340.0000	85.6404	-164.59
1360.0000	85.6437	-164.55
1380.0000	85.6344	-164.40
1400.0000	85.6337	-164.18
1430.0000	85.6166	-163.78
1450.0000	85.6175	-163.43
1475.0000	85.6179	-162.83
1500.0000	85.6256	-162.26
1525.0000	85.6349	-161.61
1550.0000	85.6763	-160.90
1575.0000	85.7103	-160.24
1600.0000	85.7596	-159.45
1625.0000	85.8212	-158.76
1650.0000	85.8829	-157.93
1675.0000	85.9599	-157.28
1700.0000	86.0365	-156.54
1725.0000	86.1305	-155.75
1750.0000	86.2231	-155.10
1775.0000	86.3372	-154.61
1800.0000	86.4404	-153.97
1825.0000	86.5375	-153.43
1850.0000	86.6503	-152.96
1875.0000	86.7700	-152.41
1900.0000	86.8810	-152.03
1925.0000	87.0028	-151.57
1950.0000	87.1077	-151.14
1975.0000	87.2050	-150.87
2000.0000	87.2638	-150.85
2030.0000	87.4811	-150.11
2060.0000	87.6366	-149.69
2090.0000	87.7819	-149.42
2120.0000	87.9249	-149.15
2140.0000	88.0219	-149.00
2180.0000	88.2246	-148.77
2200.0000	88.3237	-148.68
2240.0000	88.5281	-148.76
2270.0000	88.6614	-149.05
2300.0000	88.7945	-149.63
2330.0000	88.9494	-150.31
2360.0000	89.0859	-150.97
2400.0000	89.2510	-151.65
2430.0000	89.3908	-152.09
2470.0000	89.5503	-152.46
2500.0000	89.6635	-152.80
2540.0000	89.7924	-153.39
2580.0000	89.9055	-153.91
2620.0000	90.0250	-154.37
2650.0000	90.0890	-154.74
2690.0000	90.1837	-155.13
2720.0000	90.2769	-155.39
2760.0000	90.4161	-155.58
2800.0000	90.5952	-155.91
2850.0000	90.8583	-157.12
2900.0000	91.0531	-159.07
2950.0000	91.1359	-161.15
3000.0000	91.1571	-162.68
3040.0000	91.1382	-164.43
3070.0000	91.1062	-165.46
3110.0000	91.0650	-166.71
3150.0000	91.0050	-167.89
3200.0000	90.9224	-169.21
3250.0000	90.8096	-170.39
3300.0000	90.7082	-171.59
3350.0000	90.5819	-172.57
3400.0000	90.4414	-173.46
3450.0000	90.3185	-174.29
3500.0000	90.2357	-174.84
3550.0000	90.1198	-175.27
3600.0000	90.0565	-175.61
3650.0000	90.0327	-176.40
3700.0000	89.9927	-177.30
3750.0000	89.8510	-177.80
3820.0000	89.6781	-179.03
3870.0000	89.5390	-179.64
3950.0000	89.3001	179.99
4000.0000	89.1788	179.20
4060.0000	88.9585	179.34
4120.0000	88.8050	179.32
4180.0000	88.6518	178.90
4250.0000	88.5789	179.15
4310.0000	88.3686	178.62
4370.0000	88.1968	178.61
4440.0000	88.0934	178.97
4500.0000	87.8250	179.26
4550.0000	87.7486	178.99
4620.0000	87.6068	179.81
4680.0000	87.4978	-179.40
4750.0000	87.2700	-179.00
4820.0000	87.1574	-178.24
4870.0000	87.1862	-177.46
4940.0000	87.0169	-176.11
5000.0000	86.9442	-175.92
5080.0000	87.0935	-174.84
5150.0000	87.0472	-173.64
5220.0000	86.9726	-174.00
5300.0000	87.1144	-172.94
5380.0000	87.0202	-173.06
5450.0000	87.1482	-172.37
5520.0000	86.9781	-171.28
5600.0000	87.0615	-171.70
5700.0000	86.9210	-170.24
5800.0000	86.9451	-169.65
5900.0000	86.8566	-170.64
6000.0000	86.8231	-169.21
6080.0000	86.8021	-169.31
6150.0000	86.9505	-170.04
6220.0000	86.9821	-168.29
6300.0000	87.1288	-169.06
6400.0000	87.0077	-167.84
6500.0000	87.1213	-169.34
6600.0000	87.1583	-169.22
6700.0000	87.2960	-167.73
6800.0000	87.3111	-169.54
6900.0000	87.4201	-169.71
7000.0000	87.7987	-169.01
7100.0000	87.5739	-170.33
7200.0000	87.6932	-170.47
7300.0000	87.9668	-172.48
7400.0000	88.3685	-172.16
7500.0000	88.4426	-175.62
7620.0000	88.6384	-177.19
7750.0000	88.7346	-179.11
7880.0000	88.4430	-179.02
8000.0000	88.2442	175.64
8120.0000	88.6493	175.51
8250.0000	88.3615	168.73
8380.0000	88.0801	166.31
8500.0000	87.7391	166.83
8620.0000	87.3254	163.45
8750.0000	86.7884	159.24
8850.0000	86.4278	157.56
9000.0000	86.5054	149.90
9120.0000	86.1842	150.77
9250.0000	84.7149	149.76
9380.0000	84.7512	147.11
9500.0000	83.6378	148.19
9620.0000	82.4932	144.05
9750.0000	82.5895	153.36
9880.0000	83.8697	151.93
10000.0000	83.6937	146.48
10150.0000	82.5886	130.57
10300.0000	80.9285	129.45
10440.0000	80.6472	134.78
10600.0000	79.7658	135.74
10750.0000	79.5905	134.84
10900.0000	80.8520	134.13
11060.0000	79.7220	129.00
11200.0000	78.7534	128.96
11380.0000	78.3567	128.65
11500.0000	78.0255	128.46
11720.0000	78.6483	124.16
11800.0000	76.9464	126.60
12060.0000	77.2384	123.75
12200.0000	77.1294	113.71
12410.0000	76.6018	122.51
12500.0000	75.0659	121.02
12650.0000	76.0994	121.17
12800.0000	76.0903	117.61
13150.0000	75.4360	110.04
13200.0000	75.8482	119.19
13400.0000	74.9540	126.34
13600.0000	74.9488	107.68
13800.0000	74.5520	106.78
14000.0000	76.3468	118.57
14300.0000	75.8761	123.78
14500.0000	73.7991	115.01
14750.0000	77.4565	103.23
15000.0000	77.2317	100.08
15250.0000	74.0075	78.01
15500.0000	75.3041	66.45
15750.0000	73.8812	88.05
16000.0000	71.8206	78.31
16250.0000	74.3621	44.44
16500.0000	73.0162	30.15
16750.0000	71.1942	51.47
17000.0000	72.1751	29.21
17250.0000	69.6252	37.86
17500.0000	70.1466	-5.25
17750.0000	70.4445	-24.00
18000.0000	67.5208	-14.35
18250.0000	71.2404	-54.19
18500.0000	70.4329	-72.03
18750.0000	68.1244	-154.71
19000.0000	64.8215	-167.88
19250.0000	68.6189	108.96
19500.0000	72.2439	112.24
19750.0000	72.6179	44.39
