* Measurement data measured by REW V5.20 Beta 47
* Source: Frequency Response Averaged data
* Format: Averaged data produced from Average 1, Hifiman TWS600 L
* Dated: Aug 14, 2020 10:17:38 AM
* REW Settings:
*  C-weighting compensation: Off
*  Target level: 75.0 dB
* Note: ; Averaged data produced from Average 1, Hifiman TWS600 L
* Measurement: Hifiman TWS600 L
* Smoothing: None
* Frequency Step: 1/48 octave
* Start Frequency: 20.000 Hz
*
* Freq(Hz)	SPL(dB)	Phase(degrees)
20.0000	72.8430	0
20.3000	72.7334	0
20.6000	72.8192	0
20.9000	73.1385	0
21.2000	73.6156	0
21.4000	73.9329	0
21.8000	74.4337	0
22.0000	74.5627	0
22.4000	74.5301	0
22.7000	74.2806	0
23.0000	73.9146	0
23.3000	73.5470	0
23.6000	73.2722	0
24.0000	73.1162	0
24.3000	73.1068	0
24.7000	73.1067	0
25.0000	73.0569	0
25.4000	72.9381	0
25.8000	72.8602	0
26.2000	72.9135	0
26.5000	73.0399	0
26.9000	73.2748	0
27.2000	73.4592	0
27.6000	73.6756	0
28.0000	73.8223	0
28.5000	73.8574	0
29.0000	73.7296	0
29.5000	73.5781	0
30.0000	73.6090	0
30.4000	73.7658	0
30.7000	73.8803	0
31.1000	73.9108	0
31.5000	73.7550	0
32.0000	73.4060	0
32.5000	73.1997	0
33.0000	73.3794	0
33.5000	73.8330	0
34.0000	74.3021	0
34.5000	74.6401	0
35.0000	74.8074	0
35.5000	74.8068	0
36.0000	74.7134	0
36.5000	74.7110	0
37.0000	74.9883	0
37.5000	75.4867	0
38.2000	75.9927	0
38.7000	75.8911	0
39.5000	74.8891	0
40.0000	74.1161	0
40.6000	73.6048	0
41.2000	73.6460	0
41.8000	73.8795	0
42.5000	74.1054	0
43.1000	74.2503	0
43.7000	74.3590	0
44.4000	74.4188	0
45.0000	74.4033	0
45.5000	74.3468	0
46.2000	74.2219	0
46.8000	74.1093	0
47.5000	74.0095	0
48.2000	73.9383	0
48.7000	73.8953	0
49.4000	73.8582	0
50.0000	73.8722	0
50.8000	73.9597	0
51.5000	74.0532	0
52.2000	74.1081	0
53.0000	74.1041	0
53.8000	74.0687	0
54.5000	74.0554	0
55.2000	74.0655	0
56.0000	74.0748	0
57.0000	74.0448	0
58.0000	73.9930	0
59.0000	73.9649	0
60.0000	73.9727	0
60.8000	73.9903	0
61.5000	74.0045	0
62.2000	74.0208	0
63.0000	74.0478	0
64.0000	74.0856	0
65.0000	74.1108	0
66.0000	74.1180	0
67.0000	74.1159	0
68.0000	74.1334	0
69.0000	74.1941	0
70.0000	74.2855	0
71.0000	74.3750	0
72.0000	74.4250	0
73.0000	74.4201	0
74.0000	74.3945	0
75.0000	74.3776	0
76.2000	74.3574	0
77.5000	74.3256	0
78.8000	74.2725	0
80.0000	74.2104	0
81.2000	74.1844	0
82.5000	74.2090	0
83.8000	74.2510	0
85.0000	74.2775	0
86.2000	74.2785	0
87.5000	74.2666	0
88.5000	74.2750	0
90.0000	74.3258	0
91.2000	74.3576	0
92.5000	74.3608	0
93.8000	74.3556	0
95.0000	74.3639	0
96.2000	74.3877	0
97.5000	74.4204	0
98.8000	74.4538	0
100.0000	74.4786	0
101.5000	74.4812	0
103.0000	74.4496	0
104.4000	74.4111	0
106.0000	74.3818	0
107.5000	74.3800	0
109.0000	74.3973	0
110.6000	74.4182	0
112.0000	74.4260	0
113.8000	74.4206	0
115.0000	74.4110	0
117.2000	74.3884	0
118.0000	74.3836	0
120.6000	74.3977	0
122.0000	74.4156	0
124.1000	74.4426	0
125.0000	74.4499	0
126.5000	74.4532	0
128.0000	74.4492	0
131.5000	74.4484	0
132.0000	74.4499	0
134.0000	74.4557	0
136.0000	74.4580	0
138.0000	74.4571	0
140.0000	74.4578	0
143.0000	74.4677	0
145.0000	74.4780	0
147.5000	74.4773	0
150.0000	74.4635	0
152.5000	74.4658	0
155.0000	74.4905	0
157.5000	74.5240	0
160.0000	74.5472	0
162.5000	74.5582	0
165.0000	74.5607	0
167.5000	74.5615	0
170.0000	74.5738	0
172.5000	74.5873	0
175.0000	74.5882	0
177.5000	74.5775	0
180.0000	74.5613	0
182.5000	74.5500	0
185.0000	74.5504	0
187.5000	74.5572	0
190.0000	74.5639	0
192.5000	74.5687	0
195.0000	74.5722	0
197.5000	74.5779	0
200.0000	74.5878	0
203.0000	74.6000	0
206.0000	74.6067	0
209.0000	74.6113	0
212.0000	74.6196	0
214.0000	74.6273	0
218.0000	74.6436	0
220.0000	74.6496	0
224.0000	74.6543	0
227.0000	74.6539	0
230.0000	74.6557	0
233.0000	74.6628	0
236.0000	74.6744	0
240.0000	74.6909	0
243.0000	74.7026	0
247.0000	74.7165	0
250.0000	74.7248	0
254.0000	74.7324	0
258.0000	74.7353	0
262.0000	74.7363	0
265.0000	74.7379	0
269.0000	74.7422	0
272.0000	74.7480	0
276.0000	74.7585	0
280.0000	74.7685	0
285.0000	74.7753	0
290.0000	74.7775	0
295.0000	74.7828	0
300.0000	74.7968	0
304.0000	74.8135	0
307.0000	74.8272	0
311.0000	74.8461	0
315.0000	74.8672	0
320.0000	74.8976	0
325.0000	74.9278	0
330.0000	74.9527	0
335.0000	74.9722	0
340.0000	74.9881	0
345.0000	75.0010	0
350.0000	75.0116	0
355.0000	75.0207	0
360.0000	75.0287	0
365.0000	75.0375	0
370.0000	75.0494	0
375.0000	75.0625	0
382.0000	75.0760	0
387.0000	75.0828	0
395.0000	75.0975	0
400.0000	75.1105	0
406.0000	75.1287	0
412.0000	75.1498	0
418.0000	75.1727	0
425.0000	75.1989	0
431.0000	75.2222	0
437.0000	75.2475	0
444.0000	75.2782	0
450.0000	75.3061	0
455.0000	75.3308	0
462.0000	75.3662	0
468.0000	75.3944	0
475.0000	75.4217	0
482.0000	75.4441	0
487.0000	75.4601	0
494.0000	75.4850	0
500.0000	75.5082	0
508.0000	75.5407	0
515.0000	75.5709	0
522.0000	75.6023	0
530.0000	75.6390	0
538.0000	75.6767	0
545.0000	75.7087	0
552.0000	75.7375	0
560.0000	75.7677	0
570.0000	75.8059	0
580.0000	75.8471	0
590.0000	75.8925	0
600.0000	75.9426	0
608.0000	75.9852	0
615.0000	76.0230	0
622.0000	76.0602	0
630.0000	76.1026	0
640.0000	76.1573	0
650.0000	76.2159	0
660.0000	76.2790	0
670.0000	76.3455	0
680.0000	76.4129	0
690.0000	76.4802	0
700.0000	76.5467	0
710.0000	76.6131	0
720.0000	76.6814	0
730.0000	76.7515	0
740.0000	76.8229	0
750.0000	76.8951	0
762.0000	76.9842	0
775.0000	77.0882	0
788.0000	77.2020	0
800.0000	77.3130	0
812.0000	77.4256	0
825.0000	77.5466	0
838.0000	77.6676	0
850.0000	77.7814	0
862.0000	77.8993	0
875.0000	78.0331	0
885.0000	78.1405	0
900.0000	78.3074	0
912.0000	78.4464	0
925.0000	78.6033	0
938.0000	78.7663	0
950.0000	78.9215	0
962.0000	79.0802	0
975.0000	79.2555	0
988.0000	79.4339	0
1000.0000	79.6020	0
1015.0000	79.8180	0
1030.0000	80.0407	0
1044.0000	80.2549	0
1060.0000	80.5086	0
1075.0000	80.7538	0
1090.0000	81.0027	0
1106.0000	81.2704	0
1120.0000	81.5059	0
1138.0000	81.8095	0
1150.0000	82.0121	0
1172.0000	82.3858	0
1180.0000	82.5225	0
1206.0000	82.9698	0
1220.0000	83.2126	0
1241.0000	83.5811	0
1250.0000	83.7406	0
1265.0000	84.0086	0
1280.0000	84.2790	0
1315.0000	84.9168	0
1320.0000	85.0084	0
1340.0000	85.3764	0
1360.0000	85.7470	0
1380.0000	86.1218	0
1400.0000	86.5026	0
1430.0000	87.0879	0
1450.0000	87.4858	0
1475.0000	87.9877	0
1500.0000	88.4914	0
1525.0000	88.9942	0
1550.0000	89.4911	0
1575.0000	89.9734	0
1600.0000	90.4299	0
1625.0000	90.8478	0
1650.0000	91.2133	0
1675.0000	91.5129	0
1700.0000	91.7339	0
1725.0000	91.8666	0
1750.0000	91.9055	0
1775.0000	91.8512	0
1800.0000	91.7098	0
1825.0000	91.4917	0
1850.0000	91.2096	0
1875.0000	90.8771	0
1900.0000	90.5074	0
1925.0000	90.1127	0
1950.0000	89.7035	0
1975.0000	89.2879	0
2000.0000	88.8724	0
2030.0000	88.3806	0
2060.0000	87.9019	0
2090.0000	87.4405	0
2120.0000	86.9977	0
2140.0000	86.7133	0
2180.0000	86.1714	0
2200.0000	85.9153	0
2240.0000	85.4386	0
2270.0000	85.1143	0
2300.0000	84.8152	0
2330.0000	84.5385	0
2360.0000	84.2849	0
2400.0000	83.9798	0
2430.0000	83.7691	0
2470.0000	83.5060	0
2500.0000	83.3230	0
2540.0000	83.1016	0
2580.0000	82.9055	0
2620.0000	82.7317	0
2650.0000	82.6147	0
2690.0000	82.4759	0
2720.0000	82.3846	0
2760.0000	82.2799	0
2800.0000	82.1950	0
2850.0000	82.1166	0
2900.0000	82.0691	0
2950.0000	82.0519	0
3000.0000	82.0648	0
3040.0000	82.0951	0
3070.0000	82.1283	0
3110.0000	82.1853	0
3150.0000	82.2572	0
3200.0000	82.3694	0
3250.0000	82.5061	0
3300.0000	82.6666	0
3350.0000	82.8519	0
3400.0000	83.0637	0
3450.0000	83.3013	0
3500.0000	83.5619	0
3550.0000	83.8401	0
3600.0000	84.1288	0
3650.0000	84.4217	0
3700.0000	84.7122	0
3750.0000	84.9921	0
3820.0000	85.3457	0
3870.0000	85.5519	0
3950.0000	85.7602	0
4000.0000	85.7960	0
4060.0000	85.7324	0
4120.0000	85.5510	0
4180.0000	85.2579	0
4250.0000	84.7902	0
4310.0000	84.2988	0
4370.0000	83.7415	0
4440.0000	83.0300	0
4500.0000	82.3846	0
4550.0000	81.8320	0
4620.0000	81.0499	0
4680.0000	80.3836	0
4750.0000	79.6241	0
4820.0000	78.8955	0
4870.0000	78.3981	0
4940.0000	77.7343	0
5000.0000	77.1935	0
5080.0000	76.5123	0
5150.0000	75.9552	0
5220.0000	75.4355	0
5300.0000	74.8884	0
5380.0000	74.3857	0
5450.0000	73.9722	0
5520.0000	73.5731	0
5600.0000	73.1322	0
5700.0000	72.6379	0
5800.0000	72.2378	0
5900.0000	71.9042	0
6000.0000	71.6153	0
6080.0000	71.4156	0
6150.0000	71.2659	0
6220.0000	71.1415	0
6300.0000	71.0318	0
6400.0000	70.9462	0
6500.0000	70.9243	0
6600.0000	70.9721	0
6700.0000	71.0933	0
6800.0000	71.2929	0
6900.0000	71.5762	0
7000.0000	71.9505	0
7100.0000	72.4242	0
7200.0000	73.0028	0
7300.0000	73.6885	0
7400.0000	74.4815	0
7500.0000	75.3737	0
7620.0000	76.5408	0
7750.0000	77.8290	0
7880.0000	78.9773	0
8000.0000	79.7363	0
8120.0000	80.0554	0
8250.0000	79.8182	0
8380.0000	79.0149	0
8500.0000	77.9013	0
8620.0000	76.5863	0
8750.0000	75.0899	0
8850.0000	73.9610	0
9000.0000	72.3728	0
9120.0000	71.2166	0
9250.0000	70.0851	0
9380.0000	69.0755	0
9500.0000	68.2475	0
9620.0000	67.5186	0
9750.0000	66.8379	0
9880.0000	66.2629	0
10000.0000	65.8161	0
10150.0000	65.3521	0
10300.0000	64.9821	0
10440.0000	64.7241	0
10600.0000	64.5363	0
10750.0000	64.4712	0
10900.0000	64.5253	0
11060.0000	64.7159	0
11200.0000	64.9910	0
11380.0000	65.5033	0
11500.0000	65.9603	0
11720.0000	67.0817	0
11800.0000	67.5882	0
12060.0000	69.6155	0
12200.0000	70.9208	0
12410.0000	72.9944	0
12500.0000	73.8506	0
12650.0000	75.1165	0
12800.0000	76.0627	0
13150.0000	76.6186	0
13200.0000	76.5149	0
13400.0000	75.7775	0
13600.0000	74.7720	0
13800.0000	73.8090	0
14000.0000	73.0898	0
14300.0000	72.5907	0
14500.0000	72.4947	0
14750.0000	72.2478	0
15000.0000	71.5633	0
15250.0000	70.5270	0
15500.0000	69.7372	0
15750.0000	69.8931	0
16000.0000	70.8460	0
16250.0000	71.7835	0
16500.0000	72.1068	0
16750.0000	71.5719	0
17000.0000	70.1475	0
17250.0000	67.9322	0
17500.0000	65.1021	0
17750.0000	61.8625	0
18000.0000	58.4174	0
18250.0000	54.9607	0
18500.0000	51.6897	0
18750.0000	48.8193	0
19000.0000	46.5760	0
19250.0000	45.1416	0
19500.0000	44.4934	0
19750.0000	44.3574	0
