* Measurement data measured by REW V5.20 Beta 60
* Source: Headset (USB-C to 3.5mm Headphone Jack Adapter), MICROPHONE (Master Volume), R, volume: 0.250
* Format: 256k Log Swept Sine, 1 sweep at -12.0 dBFS with no timing reference
* Dated: Dec 11, 2020 10:56:08 AM
* REW Settings:
*  C-weighting compensation: Off
*  Target level: 75.0 dB
* Note: ; 
* Measurement: Ikko OH10 S2 L
* Smoothing: None
* Frequency Step: 1/48 octave
* Start Frequency: 20.000 Hz
*
* Freq(Hz)	SPL(dB)	Phase(degrees)
20.000000	97.075409	165.7944
20.299999	97.058548	165.5244
20.600000	97.040894	165.2741
20.900000	97.022186	165.0452
21.200001	97.007111	164.8148
21.400000	96.997055	164.6605
21.799999	96.975845	164.3544
22.000000	96.965126	164.1966
22.400000	96.945755	163.8488
22.700001	96.927940	163.5962
23.000000	96.908020	163.3589
23.299999	96.889740	163.1302
23.600000	96.872223	162.9167
24.000000	96.850296	162.6419
24.299999	96.835930	162.4218
24.700001	96.816269	162.1067
25.000000	96.798538	161.8604
25.400000	96.771942	161.5269
25.799999	96.740456	161.2359
26.200001	96.710770	160.9785
26.500000	96.692482	160.7862
26.900000	96.669838	160.5171
27.200001	96.651627	160.2879
27.600000	96.620918	159.9611
28.000000	96.577110	159.6676
28.500000	96.516579	159.4234
29.000000	96.472855	159.3311
29.500000	96.463081	159.2186
30.000000	96.464645	158.9216
30.400000	96.456886	158.5370
30.700001	96.437492	158.2241
31.100000	96.396446	157.8498
31.500000	96.348679	157.5629
32.000000	96.294159	157.3222
32.500000	96.253929	157.1040
33.000000	96.218254	156.8573
33.500000	96.178955	156.5885
34.000000	96.135620	156.3475
34.500000	96.098427	156.1255
35.000000	96.064247	155.9119
35.500000	96.031662	155.6862
36.000000	95.997345	155.4579
36.500000	95.960228	155.2213
37.000000	95.921234	155.0056
37.500000	95.884911	154.8102
38.200001	95.837181	154.5418
38.700001	95.802200	154.3254
39.500000	95.741989	153.9969
40.000000	95.703827	153.8275
40.599998	95.660110	153.6111
41.200001	95.615707	153.3653
41.799999	95.565735	153.1171
42.500000	95.502182	152.8884
43.099998	95.454468	152.7221
43.700001	95.412201	152.5219
44.400002	95.357010	152.2599
45.000000	95.308868	152.0962
45.500000	95.280861	151.9850
46.200001	95.255859	151.7307
46.799999	95.223389	151.3827
47.500000	95.162323	151.0433
48.200001	95.108505	150.8615
48.700001	95.082077	150.6762
49.400002	95.025085	150.2998
50.000000	94.943596	150.1305
50.799999	94.868950	150.2360
51.500000	94.857681	150.1823
52.200001	94.819778	149.7826
53.000000	94.717430	149.4973
53.799999	94.643578	149.5251
54.500000	94.604034	149.3776
55.200001	94.544937	149.1292
56.000000	94.471390	148.9692
57.000000	94.391617	148.7194
58.000000	94.298157	148.5797
59.000000	94.244827	148.5128
60.000000	94.188461	148.2149
60.799999	94.123283	148.0618
61.500000	94.078049	147.9594
62.200001	94.028763	147.8015
63.000000	93.962921	147.7004
64.000000	93.899178	147.5908
65.000000	93.822708	147.4062
66.000000	93.752914	147.3342
67.000000	93.684586	147.0939
68.000000	93.594315	147.0355
69.000000	93.550743	146.9426
70.000000	93.463745	146.6139
71.000000	93.369507	146.7311
72.000000	93.348373	146.6689
73.000000	93.271492	146.2190
74.000000	93.161491	146.2461
75.000000	93.122803	146.3278
76.199997	93.062981	146.0237
77.500000	92.958618	145.8780
78.800003	92.882736	145.9496
80.000000	92.834465	145.8460
81.199997	92.760643	145.5876
82.500000	92.632401	145.6099
83.800003	92.569237	145.7467
85.000000	92.486954	145.8357
86.199997	92.455627	145.6899
87.500000	92.310295	145.6093
88.500000	92.292259	145.8084
90.000000	92.182259	145.3815
91.199997	92.119598	145.4492
92.500000	92.024719	145.2770
93.800003	91.956512	145.4421
95.000000	91.909721	145.4094
96.199997	91.839500	145.3718
97.500000	91.764572	145.3372
98.800003	91.626625	145.5969
100.000000	91.641594	145.9838
101.500000	91.529617	145.3400
103.000000	91.423126	145.4071
104.400002	91.322609	145.5372
106.000000	91.259087	145.3036
107.500000	91.175110	145.4847
109.000000	91.100159	145.4336
110.599998	91.030815	145.6072
112.000000	90.963509	145.6196
113.800003	90.850471	145.6810
115.000000	90.794380	145.7702
117.199997	90.689110	145.9208
118.000000	90.651894	145.8703
120.599998	90.515518	146.0901
122.000000	90.457253	146.0136
124.099998	90.323753	146.3100
125.000000	90.284874	146.3636
126.500000	90.245827	146.4127
128.000000	90.151047	146.4073
131.500000	90.152527	146.8201
132.000000	90.063980	145.9326
134.000000	89.954178	148.0100
136.000000	89.787941	146.8746
138.000000	89.633110	147.7780
140.000000	89.584175	147.2607
143.000000	89.462814	147.8985
145.000000	89.375671	147.7010
147.500000	89.252953	147.8504
150.000000	89.196068	147.8262
152.500000	89.175522	148.2166
155.000000	89.107506	148.7740
157.500000	89.031288	149.5554
160.000000	88.861023	150.1526
162.500000	88.689392	150.1411
165.000000	88.573456	149.9118
167.500000	88.541443	149.8472
170.000000	88.496750	150.3651
172.500000	88.403717	150.8745
175.000000	88.346680	151.3756
177.500000	88.183617	151.5835
180.000000	88.087372	151.3882
182.500000	88.046738	151.3510
185.000000	88.006622	151.9633
187.500000	87.853722	152.6368
190.000000	87.669579	152.8422
192.500000	87.664261	152.5618
195.000000	87.665833	153.7451
197.500000	87.424141	154.0776
200.000000	87.470985	153.4419
203.000000	87.365669	154.4256
206.000000	87.186592	156.3246
209.000000	86.948280	156.8782
212.000000	87.001183	155.7603
214.000000	87.023132	156.5307
218.000000	87.001480	157.4007
220.000000	86.748688	155.7611
224.000000	86.630432	156.1262
227.000000	86.745422	157.1703
230.000000	86.505058	159.0438
233.000000	86.334557	157.5040
236.000000	86.800133	158.8138
240.000000	86.639084	158.3257
243.000000	86.285339	161.3793
247.000000	86.075775	162.3993
250.000000	86.165649	160.2393
254.000000	86.162628	161.1262
258.000000	86.165993	162.7159
262.000000	85.901047	162.3348
265.000000	85.774101	162.3685
269.000000	85.790405	163.3123
272.000000	85.723854	164.5988
276.000000	85.687668	164.9029
280.000000	85.626877	164.9336
285.000000	85.533295	166.7560
290.000000	85.437897	166.1484
295.000000	85.310547	168.0186
300.000000	85.349754	167.8682
304.000000	85.398247	168.3509
307.000000	85.240364	170.2776
311.000000	85.148964	170.2195
315.000000	85.245621	170.0455
320.000000	84.529465	168.6521
325.000000	84.825645	172.4013
330.000000	85.066711	172.0634
335.000000	84.541122	173.0307
340.000000	84.567879	175.1395
345.000000	84.598763	174.9518
350.000000	84.411842	174.6558
355.000000	84.112785	176.7464
360.000000	84.620132	176.3967
365.000000	84.133026	179.0415
370.000000	84.193817	179.3721
375.000000	84.240067	178.7482
382.000000	84.123940	-179.1328
387.000000	84.033279	-178.9776
395.000000	83.978699	-177.7022
400.000000	83.829910	-177.2469
406.000000	83.944923	-175.8770
412.000000	83.788567	-174.7543
418.000000	84.012192	-174.8502
425.000000	83.724930	-174.0596
431.000000	83.870369	-170.9004
437.000000	83.743538	-172.4796
444.000000	83.383133	-168.7332
450.000000	83.711761	-170.3502
455.000000	83.544113	-169.8470
462.000000	83.361816	-166.3717
468.000000	83.498978	-168.6770
475.000000	83.316628	-166.8380
482.000000	83.460175	-166.6977
487.000000	83.247162	-164.6656
494.000000	83.407593	-164.1681
500.000000	83.257446	-163.3168
508.000000	83.341232	-162.9210
515.000000	83.108383	-163.0587
522.000000	83.125313	-161.4742
530.000000	83.103142	-161.0694
538.000000	83.051384	-156.6757
545.000000	83.059418	-157.4337
552.000000	82.998039	-155.6513
560.000000	82.957947	-155.5155
570.000000	82.938118	-154.1685
580.000000	82.880325	-152.8709
590.000000	82.856422	-150.5088
600.000000	83.170532	-149.3003
608.000000	82.736588	-150.3327
615.000000	82.882217	-147.2295
622.000000	82.863068	-147.3533
630.000000	82.884491	-144.9833
640.000000	82.852791	-144.5898
650.000000	82.876045	-143.0556
660.000000	82.872734	-142.0761
670.000000	82.946869	-140.5358
680.000000	82.818886	-139.1954
690.000000	82.815109	-136.9214
700.000000	82.971527	-135.5945
710.000000	83.243553	-135.9383
720.000000	82.870239	-133.3884
730.000000	82.951385	-132.3333
740.000000	82.941414	-130.9850
750.000000	83.088333	-130.4490
762.000000	83.048729	-128.5129
775.000000	83.068054	-127.3989
788.000000	83.125938	-124.9481
800.000000	83.156708	-123.8126
812.000000	83.254494	-122.1652
825.000000	83.290955	-120.6847
838.000000	83.393433	-118.9923
850.000000	83.417747	-117.9999
862.000000	83.486969	-116.5701
875.000000	83.544098	-115.1073
885.000000	83.631424	-114.1425
900.000000	83.713188	-112.5459
912.000000	83.855019	-111.0217
925.000000	83.855408	-109.6730
938.000000	83.988289	-108.3076
950.000000	84.118088	-107.2670
962.000000	84.159966	-105.9381
975.000000	84.236160	-104.5336
988.000000	84.353645	-103.2014
1000.000000	84.528702	-102.0185
1015.000000	84.568008	-100.8011
1030.000000	84.658875	-99.4768
1044.000000	84.782677	-98.2199
1060.000000	84.901268	-96.9857
1075.000000	85.042404	-95.8489
1090.000000	85.178154	-94.5466
1106.000000	85.328232	-93.3372
1120.000000	85.452873	-92.3752
1138.000000	85.623299	-91.1316
1150.000000	85.735336	-90.1980
1172.000000	85.931580	-88.9302
1180.000000	85.999191	-88.4286
1206.000000	86.230156	-86.9263
1220.000000	86.352577	-86.0925
1241.000000	86.543434	-85.0201
1250.000000	86.607826	-84.5840
1265.000000	86.753021	-83.6892
1280.000000	86.882477	-82.9188
1315.000000	87.162827	-81.1644
1320.000000	87.207367	-80.9370
1340.000000	87.359734	-79.9720
1360.000000	87.518982	-79.0079
1380.000000	87.676941	-78.0094
1400.000000	87.832474	-77.0904
1430.000000	88.059219	-75.6523
1450.000000	88.213303	-74.6741
1475.000000	88.403946	-73.5193
1500.000000	88.594971	-72.3947
1525.000000	88.786499	-71.2476
1550.000000	88.986565	-70.2022
1575.000000	89.189339	-69.0128
1600.000000	89.392654	-67.9192
1625.000000	89.599213	-66.8240
1650.000000	89.807579	-65.7559
1675.000000	90.021881	-64.7865
1700.000000	90.245773	-63.7485
1725.000000	90.462090	-62.7850
1750.000000	90.677956	-61.8899
1775.000000	90.910347	-60.9846
1800.000000	91.145424	-60.1328
1825.000000	91.375702	-59.4222
1850.000000	91.603943	-58.6753
1875.000000	91.841103	-57.8729
1900.000000	92.084465	-57.2579
1925.000000	92.331970	-56.6685
1950.000000	92.575920	-56.1072
1975.000000	92.819374	-55.7018
2000.000000	93.008781	-55.6017
2030.000000	93.391052	-55.1130
2060.000000	93.696304	-54.9954
2090.000000	93.982986	-54.9937
2120.000000	94.261169	-55.1232
2140.000000	94.444214	-55.2496
2180.000000	94.788033	-55.6772
2200.000000	94.951111	-55.9279
2240.000000	95.268463	-56.8343
2270.000000	95.474312	-57.8233
2300.000000	95.655312	-59.0884
2330.000000	95.832756	-60.4484
2360.000000	95.981705	-61.8415
2400.000000	96.151909	-63.5283
2430.000000	96.264885	-64.6023
2470.000000	96.365005	-65.9305
2500.000000	96.412811	-66.9156
2540.000000	96.435936	-68.1980
2580.000000	96.423912	-69.4058
2620.000000	96.383324	-70.4434
2650.000000	96.340576	-71.1734
2690.000000	96.256073	-71.9567
2720.000000	96.185623	-72.4709
2760.000000	96.065872	-72.9732
2800.000000	95.937683	-73.3432
2850.000000	95.766006	-73.5583
2900.000000	95.595474	-73.5692
2950.000000	95.426468	-73.3646
3000.000000	95.270332	-72.6628
3040.000000	95.146866	-72.5945
3070.000000	95.060356	-72.3048
3110.000000	94.951057	-71.7972
3150.000000	94.842995	-71.1736
3200.000000	94.725822	-70.3837
3250.000000	94.625076	-69.5224
3300.000000	94.530792	-68.5327
3350.000000	94.456047	-67.6175
3400.000000	94.401253	-66.5655
3450.000000	94.375336	-65.4978
3500.000000	94.381927	-64.4530
3550.000000	94.413834	-63.4886
3600.000000	94.459290	-62.5108
3650.000000	94.528511	-61.6406
3700.000000	94.601089	-60.8124
3750.000000	94.727249	-59.9887
3820.000000	94.955406	-59.7089
3870.000000	95.080811	-59.9312
3950.000000	95.208633	-60.6709
4000.000000	95.246483	-61.5308
4060.000000	95.325867	-62.3914
4120.000000	95.327347	-63.7786
4180.000000	95.276466	-65.4854
4250.000000	95.137062	-67.7642
4310.000000	94.886177	-70.1393
4370.000000	94.485138	-72.5655
4440.000000	93.759926	-74.9740
4500.000000	92.887741	-75.8985
4550.000000	92.011826	-75.1225
4620.000000	90.713440	-70.2815
4680.000000	89.944733	-61.9506
4750.000000	90.028938	-50.4745
4820.000000	91.000900	-42.7909
4870.000000	91.820755	-40.8396
4940.000000	92.747261	-41.7345
5000.000000	93.239426	-44.3335
5080.000000	93.497375	-47.9904
5150.000000	93.420876	-51.0816
5220.000000	93.172211	-53.5000
5300.000000	92.759003	-55.2482
5380.000000	92.286751	-56.1057
5450.000000	91.846367	-56.1500
5520.000000	91.371971	-55.6952
5600.000000	90.840538	-54.5741
5700.000000	90.216591	-52.5665
5800.000000	89.641914	-50.0057
5900.000000	89.125290	-46.9492
6000.000000	88.665543	-43.6116
6080.000000	88.357010	-40.7725
6150.000000	88.101959	-38.1084
6220.000000	87.902374	-35.3676
6300.000000	87.703423	-32.1249
6400.000000	87.503036	-27.9895
6500.000000	87.381592	-23.7636
6600.000000	87.312218	-19.5452
6700.000000	87.314598	-15.2490
6800.000000	87.389984	-11.1428
6900.000000	87.554314	-7.0505
7000.000000	87.819153	-3.2220
7100.000000	88.154961	0.4949
7200.000000	88.555298	3.7150
7300.000000	89.037338	6.8195
7400.000000	89.614990	9.1480
7500.000000	90.252647	11.0284
7620.000000	91.135796	12.0292
7750.000000	92.145706	11.0841
7880.000000	93.114166	7.4770
8000.000000	93.792747	1.1170
8120.000000	94.064606	-7.2488
8250.000000	93.692924	-16.9101
8380.000000	92.734192	-24.7813
8500.000000	91.539597	-29.3795
8620.000000	90.285919	-31.7085
8750.000000	88.899879	-31.7454
8850.000000	87.909256	-30.8650
9000.000000	86.515396	-27.8314
9120.000000	85.514053	-24.7664
9250.000000	84.530991	-20.7503
9380.000000	83.645569	-16.0760
9500.000000	82.899963	-11.4573
9620.000000	82.236038	-6.6528
9750.000000	81.588493	-0.8550
9880.000000	81.033890	5.1157
10000.000000	80.566696	10.8908
10150.000000	80.163544	18.6451
10300.000000	79.911064	26.8626
10440.000000	79.821815	35.0031
10600.000000	79.994400	44.2993
10750.000000	80.464630	52.6349
10900.000000	81.214485	60.0850
11060.000000	82.312744	66.1790
11200.000000	83.460434	69.4582
11380.000000	85.003441	70.1086
11500.000000	86.019089	68.0573
11720.000000	87.409348	59.7670
11800.000000	87.713310	55.7485
12060.000000	87.726074	41.7626
12200.000000	87.210205	35.5138
12410.000000	86.105354	29.3818
12500.000000	85.588348	27.9931
12650.000000	84.750366	26.9375
12800.000000	83.969910	27.0926
13150.000000	82.499214	31.0883
13200.000000	82.335571	31.8824
13400.000000	81.775085	35.6621
13600.000000	81.356964	39.7919
13800.000000	81.141548	44.2188
14000.000000	81.145569	48.4980
14300.000000	81.397507	54.7130
14500.000000	81.822174	58.2732
14750.000000	82.683960	61.3342
15000.000000	83.895523	61.6474
15250.000000	85.349464	58.0528
15500.000000	86.717270	47.8299
15750.000000	87.260429	31.7429
16000.000000	86.568237	15.8891
16250.000000	85.282776	5.1584
16500.000000	84.079445	-1.5398
16750.000000	83.284256	-6.3882
17000.000000	82.963387	-11.8920
17250.000000	83.023651	-20.3555
17500.000000	83.048386	-34.8500
17750.000000	82.298859	-55.8671
18000.000000	80.240814	-79.6884
18250.000000	77.534683	-98.4136
18500.000000	74.896896	-111.1379
18750.000000	72.605797	-119.4627
19000.000000	70.875244	-125.6055
19250.000000	69.476547	-133.0409
19500.000000	68.308052	-142.1279
19750.000000	67.444229	-154.2076
