* Measurement data measured by REW V5.20 Beta 60
* Source: Headset (USB-C to 3.5mm Headphone Jack Adapter), MICROPHONE (Master Volume), R, volume: 0.258
* Format: 256k Log Swept Sine, 1 sweep at -12.0 dBFS with no timing reference
* Dated: Jan 19, 2021 2:44:09 PM
* REW Settings:
*  C-weighting compensation: Off
*  Target level: 75.0 dB
* Note: ; 
* Measurement: Intime Sora Light L
* Smoothing: None
* Frequency Step: 1/48 octave
* Start Frequency: 20.000 Hz
*
* Freq(Hz)	SPL(dB)	Phase(degrees)
20.000000	96.524826	160.3217
20.299999	96.504822	160.0359
20.600000	96.484039	159.7589
20.900000	96.461098	159.4933
21.200001	96.439682	159.2226
21.400000	96.424194	159.0446
21.799999	96.390228	158.7057
22.000000	96.372887	158.5404
22.400000	96.341354	158.1924
22.700001	96.316017	157.9435
23.000000	96.289551	157.7036
23.299999	96.264366	157.4628
23.600000	96.238373	157.2315
24.000000	96.201843	156.9380
24.299999	96.175018	156.7208
24.700001	96.140045	156.4382
25.000000	96.114250	156.2272
25.400000	96.082375	155.9269
25.799999	96.047997	155.6232
26.200001	96.010788	155.3095
26.500000	95.981140	155.0742
26.900000	95.937759	154.7908
27.200001	95.905167	154.5994
27.600000	95.865204	154.3675
28.000000	95.827698	154.1435
28.500000	95.785027	153.8291
29.000000	95.740723	153.4944
29.500000	95.694481	153.1511
30.000000	95.643646	152.8347
30.400000	95.603706	152.5923
30.700001	95.573677	152.4232
31.100000	95.534409	152.2004
31.500000	95.496231	151.9692
32.000000	95.446648	151.6872
32.500000	95.397079	151.4090
33.000000	95.346802	151.1526
33.500000	95.296585	150.8999
34.000000	95.245087	150.6518
34.500000	95.196518	150.3957
35.000000	95.145935	150.1514
35.500000	95.095100	149.9190
36.000000	95.044197	149.7007
36.500000	94.993011	149.4725
37.000000	94.940926	149.2507
37.500000	94.890213	149.0366
38.200001	94.818832	148.7518
38.700001	94.767502	148.5477
39.500000	94.688622	148.2462
40.000000	94.640717	148.0733
40.599998	94.582954	147.8501
41.200001	94.525162	147.6263
41.799999	94.467735	147.4060
42.500000	94.398178	147.1600
43.099998	94.338150	146.9576
43.700001	94.278870	146.7612
44.400002	94.208649	146.5359
45.000000	94.148712	146.3578
45.500000	94.101135	146.2145
46.200001	94.034897	146.0177
46.799999	93.977028	145.8460
47.500000	93.909927	145.6495
48.200001	93.840332	145.4625
48.700001	93.789368	145.3314
49.400002	93.718819	145.1862
50.000000	93.659630	145.0788
50.799999	93.586983	144.8752
51.500000	93.519478	144.7135
52.200001	93.450203	144.5768
53.000000	93.374863	144.4342
53.799999	93.303276	144.2831
54.500000	93.237442	144.1317
55.200001	93.169426	144.0012
56.000000	93.094879	143.8904
57.000000	93.004295	143.7291
58.000000	92.910812	143.5949
59.000000	92.821754	143.4764
60.000000	92.735970	143.3579
60.799999	92.663635	143.2513
61.500000	92.601212	143.1607
62.200001	92.537971	143.0714
63.000000	92.464958	142.9917
64.000000	92.378540	142.8972
65.000000	92.291771	142.7830
66.000000	92.200165	142.7114
67.000000	92.118919	142.6657
68.000000	92.037766	142.5743
69.000000	91.955597	142.5121
70.000000	91.874077	142.4690
71.000000	91.794777	142.4300
72.000000	91.716820	142.4004
73.000000	91.639893	142.3647
74.000000	91.562302	142.3362
75.000000	91.485695	142.3235
76.199997	91.398567	142.3123
77.500000	91.302635	142.2852
78.800003	91.206909	142.2916
80.000000	91.121727	142.2977
81.199997	91.035797	142.3138
82.500000	90.944046	142.3459
83.800003	90.855919	142.3835
85.000000	90.774475	142.4037
86.199997	90.688904	142.4447
87.500000	90.601936	142.4921
88.500000	90.533150	142.5202
90.000000	90.431297	142.5754
91.199997	90.347595	142.6295
92.500000	90.260864	142.7081
93.800003	90.177353	142.7654
95.000000	90.097702	142.8193
96.199997	90.020889	142.8896
97.500000	89.940407	142.9727
98.800003	89.862236	143.0603
100.000000	89.791115	143.1310
101.500000	89.698853	143.2394
103.000000	89.607773	143.3678
104.400002	89.525925	143.4782
106.000000	89.430740	143.6008
107.500000	89.347023	143.7399
109.000000	89.267883	143.8825
110.599998	89.184639	144.0301
112.000000	89.111214	144.1705
113.800003	89.015877	144.3762
115.000000	88.953896	144.4897
117.199997	88.840591	144.7269
118.000000	88.800430	144.8122
120.599998	88.670677	145.0906
122.000000	88.603584	145.2727
124.099998	88.501343	145.5244
125.000000	88.456421	145.6340
126.500000	88.384491	145.8057
128.000000	88.312042	146.0015
131.500000	88.149773	146.4241
132.000000	88.128555	146.4963
134.000000	88.041458	146.7587
136.000000	87.953796	147.0265
138.000000	87.866600	147.2854
140.000000	87.781898	147.5568
143.000000	87.654518	147.9335
145.000000	87.574387	148.2162
147.500000	87.472321	148.5847
150.000000	87.374451	148.9386
152.500000	87.282867	149.2815
155.000000	87.201462	149.6497
157.500000	87.119743	150.0011
160.000000	87.039642	150.3539
162.500000	86.960793	150.7249
165.000000	86.885559	151.0894
167.500000	86.813187	151.4684
170.000000	86.738220	151.8328
172.500000	86.650581	152.2121
175.000000	86.564751	152.5912
177.500000	86.485138	152.9741
180.000000	86.406052	153.3365
182.500000	86.321915	153.7190
185.000000	86.240166	154.1150
187.500000	86.164902	154.5073
190.000000	86.090187	154.8911
192.500000	86.016449	155.2713
195.000000	85.942993	155.6594
197.500000	85.872787	156.0423
200.000000	85.803505	156.4172
203.000000	85.721939	156.8917
206.000000	85.644241	157.3561
209.000000	85.567909	157.8222
212.000000	85.489479	158.2730
214.000000	85.443398	158.5952
218.000000	85.362167	159.2141
220.000000	85.323105	159.5176
224.000000	85.249825	160.1488
227.000000	85.194138	160.6031
230.000000	85.136772	161.0661
233.000000	85.088348	161.5370
236.000000	85.035217	162.0053
240.000000	84.964211	162.6104
243.000000	84.902908	163.0247
247.000000	84.836807	163.6689
250.000000	84.786423	164.1145
254.000000	84.717194	164.7294
258.000000	84.648239	165.3337
262.000000	84.585464	165.9545
265.000000	84.534950	166.3882
269.000000	84.473503	166.9990
272.000000	84.430717	167.4410
276.000000	84.373016	168.0427
280.000000	84.320190	168.6477
285.000000	84.257164	169.3690
290.000000	84.192169	170.1136
295.000000	84.130798	170.8462
300.000000	84.076767	171.5710
304.000000	84.024361	172.1346
307.000000	83.993729	172.5602
311.000000	83.945229	173.1699
315.000000	83.904251	173.7106
320.000000	83.849762	174.4233
325.000000	83.802856	175.1222
330.000000	83.756294	175.8117
335.000000	83.708015	176.5176
340.000000	83.661224	177.2023
345.000000	83.620544	177.9086
350.000000	83.577080	178.5856
355.000000	83.535484	179.2770
360.000000	83.488007	179.9540
365.000000	83.447693	-179.2857
370.000000	83.420776	-178.6819
375.000000	83.383858	-178.0740
382.000000	83.341385	-177.1599
387.000000	83.314011	-176.4998
395.000000	83.270615	-175.4644
400.000000	83.245964	-174.8079
406.000000	83.215172	-174.0762
412.000000	83.186035	-173.3188
418.000000	83.156578	-172.5733
425.000000	83.132629	-171.6667
431.000000	83.106590	-170.9816
437.000000	83.082817	-170.2316
444.000000	83.068802	-169.3761
450.000000	83.059631	-168.6587
455.000000	83.046379	-168.0828
462.000000	83.027420	-167.3888
468.000000	83.004265	-166.7276
475.000000	82.983421	-165.9984
482.000000	82.968132	-165.2695
487.000000	82.956314	-164.7475
494.000000	82.944672	-164.0155
500.000000	82.933273	-163.3491
508.000000	82.921219	-162.4356
515.000000	82.906685	-161.6702
522.000000	82.895691	-160.9142
530.000000	82.886948	-160.0714
538.000000	82.866188	-159.2189
545.000000	82.864525	-158.4748
552.000000	82.860077	-157.6890
560.000000	82.850044	-156.8564
570.000000	82.837051	-155.8326
580.000000	82.837860	-154.7757
590.000000	82.836426	-153.7737
600.000000	82.828255	-152.7504
608.000000	82.832466	-151.8964
615.000000	82.831131	-151.2099
622.000000	82.838989	-150.5472
630.000000	82.850227	-149.7478
640.000000	82.858185	-148.7637
650.000000	82.872368	-147.7929
660.000000	82.877563	-146.8495
670.000000	82.891571	-145.8936
680.000000	82.906494	-144.9486
690.000000	82.921394	-143.9782
700.000000	82.934441	-143.0233
710.000000	82.952232	-142.0681
720.000000	82.961090	-141.1432
730.000000	82.987350	-140.1602
740.000000	83.008667	-139.3069
750.000000	83.028717	-138.3758
762.000000	83.052406	-137.2807
775.000000	83.082336	-136.1440
788.000000	83.114929	-134.9370
800.000000	83.134727	-133.8738
812.000000	83.170456	-132.8211
825.000000	83.210754	-131.6956
838.000000	83.255432	-130.5392
850.000000	83.295723	-129.5189
862.000000	83.344070	-128.5186
875.000000	83.395691	-127.3869
885.000000	83.440674	-126.5646
900.000000	83.511154	-125.3626
912.000000	83.583786	-124.3672
925.000000	83.669006	-123.5410
938.000000	83.717003	-123.0715
950.000000	83.703453	-122.2314
962.000000	83.675682	-121.1616
975.000000	83.715836	-119.1797
988.000000	83.910927	-117.9373
1000.000000	84.104172	-117.0419
1015.000000	84.141960	-116.4106
1030.000000	84.228500	-115.5963
1044.000000	84.322281	-114.8300
1060.000000	84.428268	-114.0075
1075.000000	84.525696	-113.2414
1090.000000	84.629898	-112.5356
1106.000000	84.744057	-111.8773
1120.000000	84.837753	-111.2926
1138.000000	84.955643	-110.6052
1150.000000	85.032417	-110.1734
1172.000000	85.169617	-109.4642
1180.000000	85.213402	-109.1779
1206.000000	85.361641	-108.4007
1220.000000	85.436913	-108.0274
1241.000000	85.549355	-107.4306
1250.000000	85.595688	-107.2034
1265.000000	85.669403	-106.8178
1280.000000	85.734306	-106.4439
1315.000000	85.886452	-105.6092
1320.000000	85.899353	-105.4984
1340.000000	85.973381	-105.0353
1360.000000	86.049042	-104.5273
1380.000000	86.112022	-104.0571
1400.000000	86.178322	-103.5413
1430.000000	86.257607	-102.7756
1450.000000	86.309631	-102.2912
1475.000000	86.372864	-101.6634
1500.000000	86.430557	-101.0206
1525.000000	86.480446	-100.3268
1550.000000	86.541702	-99.6293
1575.000000	86.600922	-98.9379
1600.000000	86.650269	-98.2104
1625.000000	86.701797	-97.4753
1650.000000	86.750717	-96.7455
1675.000000	86.802635	-95.9986
1700.000000	86.850166	-95.2463
1725.000000	86.904312	-94.4653
1750.000000	86.952240	-93.7146
1775.000000	87.001701	-92.8985
1800.000000	87.048286	-92.1033
1825.000000	87.104454	-91.3572
1850.000000	87.154602	-90.5757
1875.000000	87.201164	-89.7580
1900.000000	87.259026	-88.9792
1925.000000	87.307976	-88.1642
1950.000000	87.356575	-87.3761
1975.000000	87.393982	-86.6683
2000.000000	87.384041	-86.1526
2030.000000	87.518547	-84.9120
2060.000000	87.591118	-83.9055
2090.000000	87.661812	-82.9748
2120.000000	87.726173	-82.0600
2140.000000	87.769638	-81.4471
2180.000000	87.862793	-80.2385
2200.000000	87.915756	-79.6331
2240.000000	88.014465	-78.6442
2270.000000	88.080444	-78.1184
2300.000000	88.143951	-77.8500
2330.000000	88.219269	-77.5775
2360.000000	88.285248	-77.3299
2400.000000	88.372299	-76.7986
2430.000000	88.459396	-76.2025
2470.000000	88.550415	-75.2598
2500.000000	88.618851	-74.6308
2540.000000	88.701851	-73.7801
2580.000000	88.788307	-72.9747
2620.000000	88.871941	-72.2552
2650.000000	88.937035	-71.7072
2690.000000	89.024086	-71.0648
2720.000000	89.077881	-70.6211
2760.000000	89.144623	-70.0316
2800.000000	89.202934	-69.4970
2850.000000	89.266960	-68.8593
2900.000000	89.320030	-68.3169
2950.000000	89.375847	-67.7636
3000.000000	89.411240	-66.9715
3040.000000	89.442749	-66.8813
3070.000000	89.456726	-66.6980
3110.000000	89.468666	-66.3531
3150.000000	89.472290	-66.0230
3200.000000	89.475052	-65.6490
3250.000000	89.462303	-65.2310
3300.000000	89.443527	-64.8266
3350.000000	89.420471	-64.4403
3400.000000	89.387268	-64.0051
3450.000000	89.360199	-63.5339
3500.000000	89.339615	-63.0782
3550.000000	89.316208	-62.5340
3600.000000	89.290199	-62.0169
3650.000000	89.262009	-61.4401
3700.000000	89.227646	-60.8738
3750.000000	89.192787	-60.2765
3820.000000	89.144806	-59.3649
3870.000000	89.102821	-58.7362
3950.000000	89.014000	-57.7324
4000.000000	88.936234	-57.2405
4060.000000	88.904480	-56.2243
4120.000000	88.844955	-55.3871
4180.000000	88.777603	-54.5682
4250.000000	88.713959	-53.4881
4310.000000	88.655113	-52.6124
4370.000000	88.599434	-51.7170
4440.000000	88.544136	-50.6932
4500.000000	88.491493	-49.8389
4550.000000	88.452515	-49.1265
4620.000000	88.399109	-48.0901
4680.000000	88.354355	-47.2041
4750.000000	88.301109	-46.2317
4820.000000	88.251328	-45.2068
4870.000000	88.217773	-44.5399
4940.000000	88.160126	-43.6537
5000.000000	88.123787	-43.0079
5080.000000	88.056587	-41.8067
5150.000000	88.003960	-40.8976
5220.000000	87.936646	-39.9929
5300.000000	87.848938	-38.9433
5380.000000	87.759415	-37.8455
5450.000000	87.661629	-36.8710
5520.000000	87.527863	-35.7873
5600.000000	87.366608	-34.4981
5700.000000	87.165047	-32.7904
5800.000000	86.965485	-30.8464
5900.000000	86.768555	-28.8083
6000.000000	86.565117	-26.3370
6080.000000	86.454666	-24.0623
6150.000000	86.405563	-21.9425
6220.000000	86.421219	-19.6665
6300.000000	86.563896	-17.2252
6400.000000	86.843636	-15.5767
6500.000000	86.968185	-15.5561
6600.000000	86.825668	-15.2516
6700.000000	86.626549	-13.5105
6800.000000	86.494904	-11.1369
6900.000000	86.448868	-7.9734
7000.000000	86.555260	-4.6737
7100.000000	86.776184	-1.4562
7200.000000	87.103012	1.6306
7300.000000	87.568512	4.6116
7400.000000	88.184669	7.0077
7500.000000	88.886398	8.7538
7620.000000	89.914719	9.2659
7750.000000	91.196533	7.0586
7880.000000	92.462234	0.5581
8000.000000	93.265938	-10.2517
8120.000000	93.215073	-23.9035
8250.000000	92.018555	-37.0097
8380.000000	90.238052	-45.0397
8500.000000	88.500366	-48.1888
8620.000000	86.845947	-48.3346
8750.000000	85.246208	-46.3486
8850.000000	84.085815	-43.7097
9000.000000	82.631332	-38.3264
9120.000000	81.614944	-33.3927
9250.000000	80.724686	-27.3102
9380.000000	79.996300	-20.9112
9500.000000	79.546074	-15.1059
9620.000000	79.262611	-10.2003
9750.000000	78.860580	-5.9051
9880.000000	78.432480	-0.7869
10000.000000	78.115761	3.8382
10150.000000	77.841690	10.1743
10300.000000	77.641678	16.2452
10440.000000	77.583710	21.6722
10600.000000	77.613968	27.8506
10750.000000	77.752907	33.4446
10900.000000	78.019615	38.6618
11060.000000	78.427170	43.7100
11200.000000	78.907524	47.3403
11380.000000	79.662964	51.0083
11500.000000	80.278198	52.3776
11720.000000	81.495079	51.9954
11800.000000	81.947754	50.6699
12060.000000	82.911880	41.3330
12200.000000	82.920822	34.6062
12410.000000	82.171738	25.4725
12500.000000	81.676117	22.9268
12650.000000	80.736549	20.6567
12800.000000	79.757996	20.2067
13150.000000	77.939758	24.7204
13200.000000	77.756447	25.9610
13400.000000	77.090347	30.7255
13600.000000	76.689690	36.3182
13800.000000	76.512650	42.1513
14000.000000	76.612358	47.5523
14300.000000	77.264481	55.1351
14500.000000	78.209404	58.7833
14750.000000	79.923790	59.2431
15000.000000	82.170181	48.6286
15250.000000	82.452667	19.7432
15500.000000	78.016869	2.1107
15750.000000	75.546043	23.7707
16000.000000	77.183777	15.4091
16250.000000	75.121590	6.6075
16500.000000	73.164742	8.1648
16750.000000	71.962219	13.4431
17000.000000	71.513840	17.6418
17250.000000	71.373589	20.9373
17500.000000	71.520065	21.4893
17750.000000	71.506149	17.6111
18000.000000	71.435471	13.5909
18250.000000	72.492104	8.2418
18500.000000	74.259720	-5.2203
18750.000000	75.844101	-29.9271
19000.000000	74.872589	-62.2581
19250.000000	72.030861	-85.2421
19500.000000	69.194939	-98.8035
19750.000000	66.882339	-109.7294
