* Measurement data measured by REW V5.20 Beta 47
* Source: Headset (USB-C to 3.5mm Headphone Jack Adapter), MICROPHONE (Master Volume), L, volume: 0.000
* Format: 256k Log Swept Sine, 1 sweep at -3.0 dBFS with no timing reference
* Dated: Aug 11, 2020 4:40:30 AM
* REW Settings:
*  C-weighting compensation: Off
*  Target level: 75.0 dB
* Note: ; 
* Measurement: Itsfit R3 L
* Smoothing: None
* Frequency Step: 1/48 octave
* Start Frequency: 20.000 Hz
*
* Freq(Hz)	SPL(dB)	Phase(degrees)
20.0000	84.3323	27.69
20.3000	84.3386	27.37
20.6000	84.3568	27.20
20.9000	84.3948	27.10
21.2000	84.4556	26.95
21.4000	84.4997	26.79
21.8000	84.5830	26.35
22.0000	84.6188	26.10
22.4000	84.6832	25.59
22.7000	84.7293	25.22
23.0000	84.7794	24.82
23.3000	84.8284	24.30
23.6000	84.8592	23.67
24.0000	84.8486	22.78
24.3000	84.8015	22.27
24.7000	84.7188	22.04
25.0000	84.6846	22.21
25.4000	84.7252	22.57
25.8000	84.8509	22.54
26.2000	84.9833	21.77
26.5000	85.0326	20.84
26.9000	84.9972	19.55
27.2000	84.9104	18.87
27.6000	84.7728	18.60
28.0000	84.6848	18.94
28.5000	84.6958	19.56
29.0000	84.7822	19.84
29.5000	84.8820	19.85
30.0000	84.9989	19.80
30.4000	85.1204	19.55
30.7000	85.2126	19.12
31.1000	85.2932	18.21
31.5000	85.2884	17.20
32.0000	85.1666	16.50
32.5000	85.0432	16.96
33.0000	85.0842	18.06
33.5000	85.2972	18.51
34.0000	85.5074	17.63
34.5000	85.5554	16.06
35.0000	85.4308	14.96
35.5000	85.2827	14.99
36.0000	85.2642	15.61
36.5000	85.3668	15.72
37.0000	85.4456	14.99
37.5000	85.4071	14.05
38.2000	85.2481	13.77
38.7000	85.2076	14.26
39.5000	85.3067	14.60
40.0000	85.3638	14.37
40.6000	85.3926	14.08
41.2000	85.4300	13.92
41.8000	85.4836	13.62
42.5000	85.5081	13.04
43.1000	85.4873	12.65
43.7000	85.4586	12.47
44.4000	85.4388	12.43
45.0000	85.4498	12.46
45.5000	85.4833	12.37
46.2000	85.5232	11.88
46.8000	85.5049	11.35
47.5000	85.4564	11.08
48.2000	85.4572	11.01
48.7000	85.4771	10.77
49.4000	85.4661	10.29
50.0000	85.4264	10.15
50.8000	85.4306	10.31
51.5000	85.4935	10.31
52.2000	85.5515	9.98
53.0000	85.5552	9.50
53.8000	85.5157	9.54
54.5000	85.5569	9.95
55.2000	85.6768	9.79
56.0000	85.7135	8.77
57.0000	85.5801	8.33
58.0000	85.5827	8.59
59.0000	85.5733	8.09
60.0000	85.5050	8.32
60.8000	85.5728	8.66
61.5000	85.6643	8.29
62.2000	85.6690	7.59
63.0000	85.6018	7.33
64.0000	85.6055	7.47
65.0000	85.6061	7.22
66.0000	85.6056	7.40
67.0000	85.6890	7.15
68.0000	85.6848	6.43
69.0000	85.6170	6.14
70.0000	85.5818	6.34
71.0000	85.6189	6.42
72.0000	85.6408	6.21
73.0000	85.6495	6.08
74.0000	85.6720	5.94
75.0000	85.6980	5.63
76.2000	85.6661	5.21
77.5000	85.6185	5.55
78.8000	85.7483	5.88
80.0000	85.7732	5.04
81.2000	85.7286	5.16
82.5000	85.7131	4.94
83.8000	85.7332	5.32
85.0000	85.7801	4.71
86.2000	85.7227	4.43
87.5000	85.7317	4.58
88.5000	85.7836	4.22
90.0000	85.6982	3.88
91.2000	85.7249	4.12
92.5000	85.7420	3.91
93.8000	85.7547	3.70
95.0000	85.7559	3.48
96.2000	85.7256	3.22
97.5000	85.6988	3.67
98.8000	85.7813	3.51
100.0000	85.7158	3.28
101.5000	85.7336	3.55
103.0000	85.7114	2.89
104.4000	85.6255	3.13
106.0000	85.7809	2.88
107.5000	85.7057	1.78
109.0000	85.6985	2.78
110.6000	85.7981	1.95
112.0000	85.7236	2.06
113.8000	85.6867	2.48
115.0000	85.7620	2.22
117.2000	85.7537	1.77
118.0000	85.7667	1.55
120.6000	85.8242	1.56
122.0000	85.8200	1.48
124.1000	85.8290	0.92
125.0000	85.7685	0.93
126.5000	85.7482	1.07
128.0000	85.7360	1.36
131.5000	85.7940	1.26
132.0000	85.8077	0.99
134.0000	85.8199	1.11
136.0000	85.7532	0.58
138.0000	85.7407	0.63
140.0000	85.7382	0.45
143.0000	85.6608	0.19
145.0000	85.7353	0.40
147.5000	85.7348	-0.43
150.0000	85.7435	-0.50
152.5000	85.7615	-0.55
155.0000	85.7208	-0.53
157.5000	85.7853	-0.23
160.0000	85.8018	-0.80
162.5000	85.8110	-1.00
165.0000	85.8754	-0.90
167.5000	85.8586	-1.02
170.0000	85.7971	-0.74
172.5000	85.8129	-1.00
175.0000	85.8165	-1.40
177.5000	85.8030	-1.12
180.0000	85.7718	-1.02
182.5000	85.7362	-1.64
185.0000	85.7033	-1.86
187.5000	85.7462	-1.89
190.0000	85.7768	-1.95
192.5000	85.7115	-2.19
195.0000	85.7433	-2.30
197.5000	85.7779	-2.82
200.0000	85.7480	-2.73
203.0000	85.7581	-2.53
206.0000	85.7180	-2.40
209.0000	85.6703	-2.59
212.0000	85.6669	-3.00
214.0000	85.6934	-3.01
218.0000	85.7230	-3.12
220.0000	85.7243	-3.13
224.0000	85.7149	-3.55
227.0000	85.7303	-3.69
230.0000	85.7400	-3.57
233.0000	85.7265	-3.70
236.0000	85.7293	-3.83
240.0000	85.7448	-4.13
243.0000	85.7367	-4.12
247.0000	85.7253	-4.31
250.0000	85.6990	-4.43
254.0000	85.7223	-4.80
258.0000	85.7294	-4.94
262.0000	85.7416	-4.91
265.0000	85.6899	-4.99
269.0000	85.7046	-5.30
272.0000	85.7186	-5.37
276.0000	85.6993	-5.26
280.0000	85.6908	-5.69
285.0000	85.6960	-5.76
290.0000	85.6829	-5.93
295.0000	85.6822	-6.43
300.0000	85.6684	-6.31
304.0000	85.6545	-6.42
307.0000	85.6661	-6.50
311.0000	85.6457	-6.75
315.0000	85.6635	-7.07
320.0000	85.6823	-7.45
325.0000	85.6647	-7.52
330.0000	85.6664	-7.65
335.0000	85.6214	-7.72
340.0000	85.6049	-7.67
345.0000	85.6265	-7.77
350.0000	85.6228	-7.99
355.0000	85.6115	-8.22
360.0000	85.6078	-8.55
365.0000	85.6034	-8.71
370.0000	85.5825	-8.92
375.0000	85.5778	-9.16
382.0000	85.5446	-9.39
387.0000	85.5500	-9.59
395.0000	85.5487	-9.89
400.0000	85.5318	-10.03
406.0000	85.4971	-10.13
412.0000	85.5219	-10.50
418.0000	85.4703	-10.66
425.0000	85.4561	-10.96
431.0000	85.5398	-10.91
437.0000	85.4019	-10.80
444.0000	85.4566	-11.26
450.0000	85.4128	-11.51
455.0000	85.4747	-11.83
462.0000	85.4195	-11.95
468.0000	85.4036	-12.78
475.0000	85.3870	-12.50
482.0000	85.3719	-13.26
487.0000	85.3800	-13.30
494.0000	85.3552	-13.61
500.0000	85.3085	-13.80
508.0000	85.3672	-13.86
515.0000	85.3115	-14.13
522.0000	85.2586	-14.16
530.0000	85.2513	-14.56
538.0000	85.2289	-15.04
545.0000	85.2038	-15.03
552.0000	85.1738	-15.09
560.0000	85.1623	-15.60
570.0000	85.1034	-15.77
580.0000	85.0632	-15.89
590.0000	85.0205	-16.02
600.0000	84.9928	-16.16
608.0000	84.9769	-16.28
615.0000	84.9432	-16.40
622.0000	84.9230	-16.58
630.0000	84.9204	-16.68
640.0000	84.8833	-16.94
650.0000	84.8662	-16.97
660.0000	84.8353	-17.13
670.0000	84.8077	-17.30
680.0000	84.7886	-17.42
690.0000	84.7553	-17.51
700.0000	84.7252	-17.66
710.0000	84.6868	-17.67
720.0000	84.6499	-17.75
730.0000	84.6312	-17.77
740.0000	84.5913	-17.83
750.0000	84.5713	-17.97
762.0000	84.5317	-17.91
775.0000	84.5017	-17.86
788.0000	84.4576	-17.86
800.0000	84.4250	-17.77
812.0000	84.3952	-17.77
825.0000	84.3620	-17.68
838.0000	84.3419	-17.54
850.0000	84.3151	-17.45
862.0000	84.3087	-17.29
875.0000	84.2850	-17.16
885.0000	84.2695	-17.00
900.0000	84.2589	-16.80
912.0000	84.2561	-16.67
925.0000	84.2575	-16.44
938.0000	84.2482	-16.28
950.0000	84.2742	-16.09
962.0000	84.2838	-15.95
975.0000	84.2917	-15.68
988.0000	84.3349	-15.45
1000.0000	84.4160	-15.08
1015.0000	84.3628	-15.12
1030.0000	84.3758	-14.96
1044.0000	84.4128	-14.86
1060.0000	84.4560	-14.76
1075.0000	84.4972	-14.62
1090.0000	84.5581	-14.55
1106.0000	84.6196	-14.51
1120.0000	84.6720	-14.53
1138.0000	84.7426	-14.56
1150.0000	84.7949	-14.53
1172.0000	84.8829	-14.76
1180.0000	84.9064	-14.80
1206.0000	85.0095	-15.04
1220.0000	85.0664	-15.16
1241.0000	85.1573	-15.41
1250.0000	85.1942	-15.55
1265.0000	85.2597	-15.83
1280.0000	85.3121	-16.05
1315.0000	85.4238	-16.63
1320.0000	85.4487	-16.71
1340.0000	85.5126	-17.03
1360.0000	85.5669	-17.35
1380.0000	85.6225	-17.75
1400.0000	85.6561	-18.12
1430.0000	85.7183	-18.55
1450.0000	85.7442	-18.87
1475.0000	85.7729	-19.24
1500.0000	85.7961	-19.53
1525.0000	85.8131	-19.57
1550.0000	85.8405	-19.68
1575.0000	85.8827	-19.44
1600.0000	85.9648	-19.32
1625.0000	86.0626	-19.30
1650.0000	86.1579	-19.41
1675.0000	86.2671	-19.69
1700.0000	86.3504	-19.95
1725.0000	86.4320	-20.29
1750.0000	86.5025	-20.66
1775.0000	86.5629	-21.01
1800.0000	86.6151	-21.32
1825.0000	86.6553	-21.67
1850.0000	86.7015	-21.98
1875.0000	86.7357	-22.19
1900.0000	86.7635	-22.42
1925.0000	86.7965	-22.56
1950.0000	86.8330	-22.73
1975.0000	86.8411	-22.90
2000.0000	86.8288	-23.30
2030.0000	86.9517	-23.09
2060.0000	87.0027	-23.13
2090.0000	87.0601	-23.26
2120.0000	87.1198	-23.39
2140.0000	87.1535	-23.55
2180.0000	87.2242	-23.87
2200.0000	87.2717	-24.00
2240.0000	87.3474	-24.62
2270.0000	87.3581	-25.30
2300.0000	87.3944	-26.23
2330.0000	87.4038	-27.22
2360.0000	87.4093	-28.07
2400.0000	87.3948	-29.06
2430.0000	87.3930	-29.58
2470.0000	87.3474	-30.04
2500.0000	87.3069	-30.19
2540.0000	87.2354	-30.51
2580.0000	87.1848	-30.60
2620.0000	87.1064	-30.78
2650.0000	87.0517	-30.78
2690.0000	86.9674	-30.72
2720.0000	86.9273	-30.72
2760.0000	86.8377	-30.43
2800.0000	86.7559	-30.30
2850.0000	86.6864	-29.83
2900.0000	86.5844	-29.46
2950.0000	86.5259	-28.76
3000.0000	86.4668	-27.92
3040.0000	86.4634	-27.86
3070.0000	86.4045	-27.47
3110.0000	86.4092	-26.91
3150.0000	86.4088	-26.57
3200.0000	86.4016	-26.00
3250.0000	86.3898	-25.28
3300.0000	86.3615	-24.96
3350.0000	86.4196	-24.34
3400.0000	86.4526	-24.20
3450.0000	86.4910	-24.05
3500.0000	86.5283	-23.59
3550.0000	86.5027	-23.73
3600.0000	86.5833	-23.74
3650.0000	86.5483	-24.16
3700.0000	86.4752	-24.15
3750.0000	86.4261	-24.13
3820.0000	86.2950	-23.45
3870.0000	86.0886	-22.80
3950.0000	86.0186	-21.16
4000.0000	85.9327	-19.86
4060.0000	85.9486	-17.46
4120.0000	86.0765	-15.90
4180.0000	86.1897	-14.80
4250.0000	86.3946	-13.72
4310.0000	86.6767	-12.78
4370.0000	86.8650	-12.83
4440.0000	87.0264	-12.76
4500.0000	87.2649	-12.81
4550.0000	87.3559	-12.41
4620.0000	87.5613	-13.73
4680.0000	87.6342	-14.00
4750.0000	87.7559	-14.67
4820.0000	87.8414	-16.18
4870.0000	87.9563	-17.31
4940.0000	87.9319	-17.84
5000.0000	87.9970	-19.69
5080.0000	87.9404	-20.54
5150.0000	87.8357	-21.25
5220.0000	87.5817	-22.90
5300.0000	87.4414	-23.16
5380.0000	87.2035	-24.05
5450.0000	87.0107	-24.61
5520.0000	86.7851	-25.65
5600.0000	86.4827	-24.92
5700.0000	86.2274	-25.00
5800.0000	85.8166	-24.05
5900.0000	85.3760	-24.48
6000.0000	84.9692	-22.81
6080.0000	84.7466	-21.71
6150.0000	84.6975	-19.95
6220.0000	84.6951	-18.42
6300.0000	84.4875	-19.24
6400.0000	84.3940	-17.36
6500.0000	84.3105	-13.51
6600.0000	84.3107	-14.05
6700.0000	84.3179	-12.22
6800.0000	84.3857	-10.34
6900.0000	84.1109	-8.72
7000.0000	84.6209	-5.99
7100.0000	84.8512	-5.19
7200.0000	85.1189	-5.05
7300.0000	85.8111	-7.16
7400.0000	86.0283	-9.41
7500.0000	86.1937	-13.13
7620.0000	86.2498	-21.39
7750.0000	85.8440	-27.31
7880.0000	84.0178	-29.88
8000.0000	82.9119	-26.21
8120.0000	83.0280	-20.55
8250.0000	83.3531	-15.72
8380.0000	84.2720	-18.91
8500.0000	84.8240	-28.95
8620.0000	84.1713	-33.27
8750.0000	82.9139	-39.60
8850.0000	81.6159	-46.96
9000.0000	79.3525	-47.36
9120.0000	78.7305	-41.88
9250.0000	77.3838	-38.90
9380.0000	75.4680	-37.86
9500.0000	74.6865	-37.81
9620.0000	74.3284	-28.76
9750.0000	73.2840	-22.90
9880.0000	71.7068	-18.73
10000.0000	70.9161	-17.05
10150.0000	71.5295	-6.79
10300.0000	70.9683	-4.46
10440.0000	69.8858	5.93
10600.0000	70.1732	14.77
10750.0000	69.9976	12.44
10900.0000	69.4441	16.25
11060.0000	68.4691	28.55
11200.0000	68.5506	36.57
11380.0000	69.2254	35.98
11500.0000	70.2521	47.86
11720.0000	69.6929	59.56
11800.0000	70.4110	50.81
12060.0000	71.8897	63.81
12200.0000	70.6884	67.93
12410.0000	71.6992	71.78
12500.0000	72.8108	83.85
12650.0000	75.4220	83.71
12800.0000	76.8899	84.13
13150.0000	81.6497	80.69
13200.0000	79.6102	74.55
13400.0000	84.8071	55.51
13600.0000	83.7380	36.12
13800.0000	82.6760	16.87
14000.0000	81.9308	-9.87
14300.0000	81.5839	1.89
14500.0000	81.1425	-1.76
14750.0000	78.9717	-27.26
15000.0000	79.0071	-34.12
15250.0000	82.3370	-56.94
15500.0000	78.1269	-73.52
15750.0000	79.3855	-98.02
16000.0000	77.0189	-86.60
16250.0000	75.9591	-99.67
16500.0000	70.2625	-130.45
16750.0000	73.1172	-142.48
17000.0000	68.8763	-159.56
17250.0000	59.8455	169.60
17500.0000	60.2212	-176.14
17750.0000	56.0201	-175.42
18000.0000	46.5734	155.05
18250.0000	47.4764	178.35
18500.0000	45.8510	171.24
18750.0000	38.2652	-163.57
19000.0000	42.5257	168.01
19250.0000	38.2649	139.88
19500.0000	40.7441	-151.74
19750.0000	45.2341	-109.29
