* Measurement data measured by REW V5.20 Beta 60
* Source: Headset (USB-C to 3.5mm Headphone Jack Adapter), MICROPHONE (Master Volume), R, volume: 0.250
* Format: 256k Log Swept Sine, 1 sweep at -12.0 dBFS with no timing reference
* Dated: Dec 11, 2020 10:20:14 AM
* REW Settings:
*  C-weighting compensation: Off
*  Target level: 75.0 dB
* Note: ; 
* Measurement: Itsfit Fusion L
* Smoothing: None
* Frequency Step: 1/48 octave
* Start Frequency: 20.000 Hz
*
* Freq(Hz)	SPL(dB)	Phase(degrees)
20.000000	94.884796	-7.2216
20.299999	94.877525	-7.6383
20.600000	94.860901	-8.0257
20.900000	94.836525	-8.3505
21.200001	94.813858	-8.6148
21.400000	94.801071	-8.7602
21.799999	94.784119	-9.0065
22.000000	94.781372	-9.1356
22.400000	94.787689	-9.4784
22.700001	94.792358	-9.7988
23.000000	94.791428	-10.1691
23.299999	94.784103	-10.5765
23.600000	94.767181	-10.9858
24.000000	94.729630	-11.4953
24.299999	94.694321	-11.8323
24.700001	94.641983	-12.1919
25.000000	94.603043	-12.3866
25.400000	94.560822	-12.5666
25.799999	94.533157	-12.6729
26.200001	94.524704	-12.7862
26.500000	94.529205	-12.9214
26.900000	94.540489	-13.1826
27.200001	94.548462	-13.4462
27.600000	94.553902	-13.8669
28.000000	94.547440	-14.3317
28.500000	94.524529	-14.9448
29.000000	94.484909	-15.5259
29.500000	94.434311	-16.0442
30.000000	94.375999	-16.4651
30.400000	94.330101	-16.7575
30.700001	94.294853	-16.9547
31.100000	94.244637	-17.1961
31.500000	94.189690	-17.3915
32.000000	94.118385	-17.4890
32.500000	94.064102	-17.4331
33.000000	94.035522	-17.3250
33.500000	94.021149	-17.2606
34.000000	94.010284	-17.1490
34.500000	94.032776	-16.9092
35.000000	94.121429	-16.7242
35.500000	94.265190	-17.0724
36.000000	94.380791	-18.1879
36.500000	94.382324	-19.7694
37.000000	94.253334	-21.1034
37.500000	94.065735	-21.6994
38.200001	93.875046	-21.5348
38.700001	93.820099	-21.3703
39.500000	93.754807	-21.5146
40.000000	93.698669	-21.6084
40.599998	93.639534	-21.6488
41.200001	93.598465	-21.7550
41.799999	93.556084	-21.9797
42.500000	93.490562	-22.2644
43.099998	93.432205	-22.4653
43.700001	93.380737	-22.6491
44.400002	93.327194	-22.8954
45.000000	93.280182	-23.1255
45.500000	93.241096	-23.2822
46.200001	93.199135	-23.4382
46.799999	93.175568	-23.6555
47.500000	93.125320	-24.0062
48.200001	93.051102	-24.0905
48.700001	93.026390	-23.9936
49.400002	93.040985	-24.1158
50.000000	93.021027	-24.6176
50.799999	92.900146	-25.1469
51.500000	92.801697	-25.0467
52.200001	92.761917	-24.9925
53.000000	92.708176	-25.2518
53.799999	92.634331	-25.4149
54.500000	92.587578	-25.5578
55.200001	92.536758	-25.8070
56.000000	92.466782	-25.9872
57.000000	92.408249	-26.1487
58.000000	92.340004	-26.4446
59.000000	92.257095	-26.5114
60.000000	92.212814	-26.5556
60.799999	92.160362	-26.7693
61.500000	92.096901	-26.8757
62.200001	92.042480	-26.8961
63.000000	91.991699	-26.9781
64.000000	91.922768	-27.1494
65.000000	91.855209	-27.3367
66.000000	91.776131	-27.4771
67.000000	91.720139	-27.4970
68.000000	91.668304	-27.6673
69.000000	91.599884	-27.7208
70.000000	91.546738	-27.7256
71.000000	91.485168	-27.8056
72.000000	91.420563	-27.8163
73.000000	91.363342	-27.8836
74.000000	91.300705	-28.0009
75.000000	91.235115	-28.1465
76.199997	91.135132	-28.2439
77.500000	91.079155	-27.9866
78.800003	91.052765	-28.3389
80.000000	90.956650	-28.4441
81.199997	90.892067	-28.4301
82.500000	90.805939	-28.4039
83.800003	90.727844	-28.2421
85.000000	90.686829	-28.1468
86.199997	90.640358	-28.2465
87.500000	90.562859	-28.4833
88.500000	90.494766	-28.3497
90.000000	90.467606	-28.5563
91.199997	90.360214	-28.6229
92.500000	90.298470	-28.3422
93.800003	90.250519	-28.1716
95.000000	90.207352	-28.2122
96.199997	90.113983	-28.1627
97.500000	90.070076	-28.0658
98.800003	89.956573	-28.1633
100.000000	89.918816	-27.9314
101.500000	89.824821	-27.9912
103.000000	89.800018	-27.9121
104.400002	89.708923	-27.9181
106.000000	89.652046	-27.7679
107.500000	89.577393	-27.6813
109.000000	89.525642	-27.5296
110.599998	89.449242	-27.5107
112.000000	89.402222	-27.4074
113.800003	89.319656	-27.3092
115.000000	89.277679	-27.2749
117.199997	89.190338	-26.9702
118.000000	89.178627	-26.9731
120.599998	89.091949	-26.6949
122.000000	89.039391	-26.7463
124.099998	88.969536	-26.4965
125.000000	88.925186	-26.4340
126.500000	88.872467	-26.3533
128.000000	88.795166	-26.1415
131.500000	88.700546	-26.1235
132.000000	88.669693	-26.1029
134.000000	88.612892	-25.6177
136.000000	88.561996	-25.1297
138.000000	88.492699	-25.3910
140.000000	88.406723	-25.2595
143.000000	88.331238	-24.8868
145.000000	88.269150	-24.6908
147.500000	88.194305	-24.4282
150.000000	88.124695	-24.1369
152.500000	88.039688	-23.8763
155.000000	87.988304	-23.6827
157.500000	87.923882	-23.4379
160.000000	87.887611	-23.1026
162.500000	87.830734	-22.9840
165.000000	87.769653	-22.8277
167.500000	87.724510	-22.5037
170.000000	87.675789	-22.2512
172.500000	87.610321	-22.0563
175.000000	87.548798	-21.8072
177.500000	87.487968	-21.5230
180.000000	87.433487	-21.2459
182.500000	87.369751	-21.0305
185.000000	87.305710	-20.6306
187.500000	87.252258	-20.5194
190.000000	87.197266	-20.2146
192.500000	87.140121	-20.0664
195.000000	87.076370	-19.7697
197.500000	87.035461	-19.5263
200.000000	86.974358	-19.4213
203.000000	86.927162	-18.9984
206.000000	86.868423	-18.7354
209.000000	86.818947	-18.4574
212.000000	86.756615	-18.1329
214.000000	86.723404	-17.9252
218.000000	86.669540	-17.5439
220.000000	86.647766	-17.3741
224.000000	86.598015	-16.9624
227.000000	86.545868	-16.6679
230.000000	86.523003	-16.3775
233.000000	86.469757	-15.9634
236.000000	86.452560	-15.8859
240.000000	86.413765	-15.6076
243.000000	86.370956	-15.2335
247.000000	86.326149	-14.7387
250.000000	86.262558	-14.8669
254.000000	86.204628	-14.2477
258.000000	86.165009	-13.9315
262.000000	86.131607	-13.5665
265.000000	86.082619	-13.3686
269.000000	86.038254	-12.9598
272.000000	86.009727	-12.7255
276.000000	85.973625	-12.3637
280.000000	85.933022	-12.0275
285.000000	85.881943	-11.6588
290.000000	85.824730	-11.2863
295.000000	85.776833	-10.8294
300.000000	85.750214	-10.3011
304.000000	85.706879	-10.1357
307.000000	85.680077	-9.8093
311.000000	85.624619	-9.1439
315.000000	85.599472	-9.2490
320.000000	85.551849	-8.9420
325.000000	85.524063	-8.6025
330.000000	85.484215	-8.1485
335.000000	85.443504	-7.7533
340.000000	85.405655	-7.3990
345.000000	85.363434	-7.1253
350.000000	85.341507	-6.7822
355.000000	85.298820	-6.4272
360.000000	85.254990	-6.1222
365.000000	85.228012	-5.7895
370.000000	85.184601	-5.4415
375.000000	85.153717	-5.1850
382.000000	85.105751	-4.7599
387.000000	85.073235	-4.4357
395.000000	85.035080	-3.9742
400.000000	84.986725	-3.7160
406.000000	84.966141	-3.3299
412.000000	84.939301	-2.9392
418.000000	84.912033	-2.5910
425.000000	84.854126	-2.3907
431.000000	84.825996	-2.0977
437.000000	84.795670	-1.7771
444.000000	84.762405	-1.4421
450.000000	84.709061	-1.2298
455.000000	84.710426	-0.9605
462.000000	84.669479	-0.7403
468.000000	84.629677	-0.5718
475.000000	84.584442	-0.4364
482.000000	84.544945	-0.1905
487.000000	84.510025	-0.1268
494.000000	84.456383	0.0305
500.000000	84.438354	0.2245
508.000000	84.361855	0.4808
515.000000	84.319412	0.6904
522.000000	84.267242	0.9321
530.000000	84.214462	1.0427
538.000000	84.125694	1.2717
545.000000	84.065132	1.4885
552.000000	83.986893	1.6172
560.000000	83.910393	1.7926
570.000000	83.808144	1.9832
580.000000	83.704727	2.2326
590.000000	83.573792	2.4072
600.000000	83.447327	2.6889
608.000000	83.337921	2.8443
615.000000	83.235229	3.0655
622.000000	83.138580	3.3709
630.000000	83.010040	3.6007
640.000000	82.854187	3.9471
650.000000	82.672684	4.3401
660.000000	82.510498	4.8020
670.000000	82.330780	5.3502
680.000000	82.141556	6.0488
690.000000	81.936920	6.7195
700.000000	81.731689	7.5629
710.000000	81.532799	8.5197
720.000000	81.337875	9.5780
730.000000	81.138084	10.6947
740.000000	80.930458	11.8705
750.000000	80.784264	13.2361
762.000000	80.547020	15.0405
775.000000	80.305840	17.0501
788.000000	80.114021	19.1423
800.000000	79.937027	21.3174
812.000000	79.796272	23.4057
825.000000	79.645088	25.8780
838.000000	79.533943	28.2733
850.000000	79.451599	30.7114
862.000000	79.415695	32.8203
875.000000	79.389618	35.4715
885.000000	79.372543	37.2649
900.000000	79.375320	40.0433
912.000000	79.404739	42.3395
925.000000	79.489471	44.8208
938.000000	79.540787	46.6310
950.000000	79.569504	48.4033
962.000000	79.667992	50.1171
975.000000	79.698532	51.8640
988.000000	79.805122	53.9712
1000.000000	79.970253	55.7353
1015.000000	79.995789	57.7360
1030.000000	80.091385	59.6479
1044.000000	80.229454	61.3220
1060.000000	80.372391	63.2448
1075.000000	80.527832	64.9628
1090.000000	80.677200	66.4120
1106.000000	80.840416	67.8306
1120.000000	80.986115	68.9822
1138.000000	81.173965	70.4832
1150.000000	81.284470	71.3786
1172.000000	81.489243	72.8516
1180.000000	81.554100	73.3096
1206.000000	81.771118	75.0416
1220.000000	81.887177	75.9226
1241.000000	82.061378	77.1971
1250.000000	82.112946	77.6443
1265.000000	82.238632	78.5128
1280.000000	82.341629	79.3342
1315.000000	82.585083	81.2429
1320.000000	82.623863	81.5568
1340.000000	82.753456	82.5640
1360.000000	82.865730	83.6124
1380.000000	83.000603	84.6948
1400.000000	83.118675	85.7315
1430.000000	83.286125	87.2872
1450.000000	83.393951	88.3364
1475.000000	83.534180	89.6427
1500.000000	83.664589	90.9764
1525.000000	83.810959	92.2496
1550.000000	83.950180	93.6631
1575.000000	84.107697	94.9880
1600.000000	84.245270	96.3607
1625.000000	84.392212	97.6895
1650.000000	84.552177	99.0212
1675.000000	84.709755	100.4188
1700.000000	84.870064	101.8112
1725.000000	85.034325	103.1795
1750.000000	85.212212	104.4366
1775.000000	85.402222	105.7489
1800.000000	85.579567	107.0791
1825.000000	85.771667	108.4109
1850.000000	85.971970	109.5663
1875.000000	86.185951	110.8089
1900.000000	86.392990	112.0398
1925.000000	86.615112	113.1973
1950.000000	86.840668	114.2795
1975.000000	87.058273	115.2900
2000.000000	87.235451	116.0708
2030.000000	87.603790	117.5409
2060.000000	87.930191	118.6655
2090.000000	88.247986	119.6272
2120.000000	88.583321	120.4874
2140.000000	88.814484	120.9881
2180.000000	89.283974	121.7446
2200.000000	89.524544	122.0565
2240.000000	90.026871	122.2427
2270.000000	90.395576	121.9359
2300.000000	90.766441	121.2048
2330.000000	91.148941	120.2328
2360.000000	91.518723	118.9851
2400.000000	91.995338	117.1437
2430.000000	92.345612	115.6753
2470.000000	92.758644	113.4104
2500.000000	93.028084	111.3312
2540.000000	93.308281	108.2080
2580.000000	93.486267	104.6943
2620.000000	93.559601	101.0426
2650.000000	93.535019	98.2071
2690.000000	93.392181	94.5962
2720.000000	93.215652	92.0761
2760.000000	92.875824	89.0972
2800.000000	92.450401	86.6920
2850.000000	91.858017	84.7119
2900.000000	91.249138	83.7614
2950.000000	90.670494	83.6283
3000.000000	90.148911	84.4847
3040.000000	89.771851	84.8392
3070.000000	89.497040	85.3814
3110.000000	89.156967	86.3311
3150.000000	88.833633	87.4132
3200.000000	88.462349	88.9026
3250.000000	88.112541	90.5859
3300.000000	87.798790	92.4415
3350.000000	87.501793	94.3423
3400.000000	87.227310	96.4611
3450.000000	86.996902	98.6184
3500.000000	86.789963	100.7710
3550.000000	86.613548	103.0587
3600.000000	86.466370	105.4189
3650.000000	86.323647	107.8274
3700.000000	86.200012	110.3502
3750.000000	86.109161	112.9035
3820.000000	86.027077	116.7608
3870.000000	85.993004	119.4488
3950.000000	86.018997	123.9497
4000.000000	86.072296	126.3247
4060.000000	86.222717	129.5127
4120.000000	86.373085	132.0989
4180.000000	86.509796	134.6414
4250.000000	86.715416	137.5730
4310.000000	86.911827	139.9296
4370.000000	87.130363	142.2790
4440.000000	87.432213	144.8912
4500.000000	87.727715	146.9737
4550.000000	87.994881	148.6045
4620.000000	88.428116	150.6364
4680.000000	88.830940	152.0979
4750.000000	89.354599	153.4250
4820.000000	89.932381	154.1808
4870.000000	90.377930	154.3489
4940.000000	91.035172	153.7736
5000.000000	91.620049	152.4146
5080.000000	92.379654	149.6171
5150.000000	92.984894	145.5293
5220.000000	93.427094	139.9964
5300.000000	93.591736	132.3040
5380.000000	93.316742	124.3200
5450.000000	92.718285	118.2114
5520.000000	91.854340	113.6293
5600.000000	90.749390	110.3538
5700.000000	89.334892	109.0130
5800.000000	88.011635	109.8632
5900.000000	86.829750	112.2644
6000.000000	85.779671	115.8674
6080.000000	85.042725	119.4081
6150.000000	84.491714	122.7585
6220.000000	84.010277	126.3118
6300.000000	83.506195	130.6373
6400.000000	83.018158	136.4615
6500.000000	82.623436	142.2270
6600.000000	82.352722	148.4440
6700.000000	82.215736	154.6702
6800.000000	82.135849	161.0373
6900.000000	82.282326	167.4887
7000.000000	82.566330	173.7742
7100.000000	82.977608	179.6269
7200.000000	83.551453	-174.8507
7300.000000	84.294487	-170.2656
7400.000000	85.150513	-166.4408
7500.000000	86.129677	-164.2558
7620.000000	87.323181	-164.4259
7750.000000	88.320259	-167.1055
7880.000000	88.883041	-171.1113
8000.000000	89.122360	-174.0983
8120.000000	89.331963	-175.9656
8250.000000	89.708542	-178.0231
8380.000000	90.154999	178.2283
8500.000000	90.441628	172.7480
8620.000000	90.390976	165.9047
8750.000000	89.887619	158.3888
8850.000000	89.245392	153.1258
9000.000000	87.895561	146.8914
9120.000000	86.589310	144.0061
9250.000000	85.121605	143.5050
9380.000000	83.753517	145.1913
9500.000000	82.608688	147.9169
9620.000000	81.626953	151.4229
9750.000000	80.713089	155.8787
9880.000000	79.914421	160.6883
10000.000000	79.296204	165.2422
10150.000000	78.738403	171.0555
10300.000000	78.241478	176.5444
10440.000000	77.929291	-178.2925
10600.000000	77.696480	-173.2052
10750.000000	77.597221	-168.9283
10900.000000	77.511444	-165.5268
11060.000000	77.442368	-163.1056
11200.000000	77.349495	-161.6975
11380.000000	77.055893	-161.0133
11500.000000	76.647888	-160.5667
11720.000000	75.714279	-158.6745
11800.000000	75.336342	-157.2814
12060.000000	73.937706	-150.3235
12200.000000	73.323547	-145.6221
12410.000000	72.345078	-136.7145
12500.000000	72.445259	-131.1957
12650.000000	72.134514	-124.3775
12800.000000	72.093613	-116.1573
13150.000000	72.858536	-95.7188
13200.000000	73.008972	-93.1463
13400.000000	74.235435	-82.3778
13600.000000	75.851692	-73.6212
13800.000000	77.934769	-67.6945
14000.000000	80.476273	-66.4529
14300.000000	84.200623	-78.4245
14500.000000	85.403732	-93.8265
14750.000000	85.426468	-108.3413
15000.000000	85.618866	-115.6107
15250.000000	87.047112	-122.6394
15500.000000	89.968445	-142.5890
15750.000000	91.429749	165.6234
16000.000000	85.484825	114.6322
16250.000000	78.896324	91.1887
16500.000000	70.668083	67.1647
16750.000000	52.434933	26.8680
17000.000000	59.910793	-128.2625
17250.000000	63.909355	-134.5876
17500.000000	65.286629	-139.7793
17750.000000	66.300819	-145.1564
18000.000000	66.880333	-156.9334
18250.000000	66.514816	-169.0617
18500.000000	66.871643	177.2236
18750.000000	66.338394	161.9032
19000.000000	65.044731	149.7169
19250.000000	63.572250	140.0823
19500.000000	62.451897	133.2435
19750.000000	61.519684	122.5192
