* Measurement data measured by REW V5.20 Beta 47
* Source: Microphone (Realtek Audio), MICROPHONE (Master Volume), R, volume: 0.250
* Format: 256k Log Swept Sine, 1 sweep at -12.0 dBFS with no timing reference
* Dated: Aug 19, 2020 9:18:42 AM
* REW Settings:
*  C-weighting compensation: Off
*  Target level: 75.0 dB
* Note: ; 
* Measurement: Jabra Elite 75t R
* Smoothing: None
* Frequency Step: 1/48 octave
* Start Frequency: 20.000 Hz
*
* Freq(Hz)	SPL(dB)	Phase(degrees)
20.0000	96.8284	-143.87
20.3000	96.8824	-145.06
20.6000	96.9346	-146.26
20.9000	96.9834	-147.41
21.2000	97.0415	-148.53
21.4000	97.0817	-149.25
21.8000	97.1601	-150.68
22.0000	97.1996	-151.38
22.4000	97.2888	-152.70
22.7000	97.3532	-153.65
23.0000	97.4176	-154.56
23.3000	97.4872	-155.40
23.6000	97.5614	-156.23
24.0000	97.6613	-157.32
24.3000	97.7311	-158.14
24.7000	97.8142	-159.22
25.0000	97.8658	-160.03
25.4000	97.9160	-161.05
25.8000	97.9618	-161.98
26.2000	98.0052	-162.85
26.5000	98.0358	-163.49
26.9000	98.0785	-164.37
27.2000	98.1075	-165.09
27.6000	98.1407	-166.08
28.0000	98.1671	-167.05
28.5000	98.1974	-168.29
29.0000	98.2329	-169.54
29.5000	98.2715	-170.84
30.0000	98.3007	-172.16
30.4000	98.3251	-173.18
30.7000	98.3424	-173.91
31.1000	98.3694	-174.83
31.5000	98.4043	-175.71
32.0000	98.4529	-176.83
32.5000	98.5006	-177.93
33.0000	98.5416	-179.01
33.5000	98.5794	-179.98
34.0000	98.6180	179.07
34.5000	98.6553	178.09
35.0000	98.6882	177.10
35.5000	98.7061	176.09
36.0000	98.7182	175.12
36.5000	98.7301	174.18
37.0000	98.7482	173.25
37.5000	98.7712	172.24
38.2000	98.8006	170.76
38.7000	98.8175	169.68
39.5000	98.8464	167.95
40.0000	98.8657	166.88
40.6000	98.8921	165.58
41.2000	98.9182	164.29
41.8000	98.9444	162.99
42.5000	98.9689	161.46
43.1000	98.9809	160.16
43.7000	98.9886	158.91
44.4000	99.0000	157.49
45.0000	99.0121	156.26
45.5000	99.0219	155.20
46.2000	99.0321	153.70
46.8000	99.0353	152.37
47.5000	99.0307	150.83
48.2000	99.0205	149.29
48.7000	99.0119	148.19
49.4000	98.9907	146.61
50.0000	98.9626	145.28
50.8000	98.9218	143.57
51.5000	98.8896	142.03
52.2000	98.8450	140.41
53.0000	98.7754	138.60
53.8000	98.6998	136.81
54.5000	98.6278	135.23
55.2000	98.5463	133.69
56.0000	98.4582	131.98
57.0000	98.3470	129.74
58.0000	98.2109	127.54
59.0000	98.0657	125.40
60.0000	97.8981	123.32
60.8000	97.7527	121.75
61.5000	97.6220	120.41
62.2000	97.4825	119.08
63.0000	97.3150	117.63
64.0000	97.1000	115.83
65.0000	96.8752	114.03
66.0000	96.6314	112.29
67.0000	96.3886	110.68
68.0000	96.1540	109.03
69.0000	95.8994	107.45
70.0000	95.6465	106.04
71.0000	95.3940	104.69
72.0000	95.1415	103.49
73.0000	94.8972	102.29
74.0000	94.6283	101.14
75.0000	94.3622	100.19
76.2000	94.0525	99.00
77.5000	93.7021	97.77
78.8000	93.3506	96.70
80.0000	93.0451	95.78
81.2000	92.7394	94.91
82.5000	92.4183	94.11
83.8000	92.0977	93.35
85.0000	91.7987	92.83
86.2000	91.4914	92.13
87.5000	91.1418	91.76
88.5000	90.8743	90.99
90.0000	90.4034	91.42
91.2000	90.2637	90.71
92.5000	89.8871	90.06
93.8000	89.6174	89.65
95.0000	89.3322	89.45
96.2000	89.0714	89.21
97.5000	88.7821	89.15
98.8000	88.4774	89.11
100.0000	88.2314	89.16
101.5000	87.8775	89.14
103.0000	87.5680	89.31
104.4000	87.2659	89.34
106.0000	86.9213	89.59
107.5000	86.5869	89.63
109.0000	86.2700	90.19
110.6000	85.9595	90.43
112.0000	85.6996	90.83
113.8000	85.3559	91.28
115.0000	85.1086	91.30
117.2000	84.6625	92.35
118.0000	84.4937	92.55
120.6000	84.0250	93.61
122.0000	83.7722	94.23
124.1000	83.4660	95.14
125.0000	83.2468	95.34
126.5000	82.9898	96.51
128.0000	82.7388	97.13
131.5000	82.1868	99.04
132.0000	82.1060	99.31
134.0000	81.8075	100.45
136.0000	81.4967	101.58
138.0000	81.1868	103.15
140.0000	80.9225	104.40
143.0000	80.5751	106.52
145.0000	80.3236	108.08
147.5000	80.0307	109.54
150.0000	79.7427	111.78
152.5000	79.5182	113.60
155.0000	79.2861	115.73
157.5000	79.0784	117.74
160.0000	78.8658	119.65
162.5000	78.7077	121.74
165.0000	78.5331	123.77
167.5000	78.3911	126.00
170.0000	78.2492	128.10
172.5000	78.1723	129.98
175.0000	78.0314	131.95
177.5000	77.9553	133.94
180.0000	77.8735	136.08
182.5000	77.8287	137.62
185.0000	77.7787	139.39
187.5000	77.6840	140.89
190.0000	77.6650	142.88
192.5000	77.6838	144.49
195.0000	77.7098	146.01
197.5000	77.6746	147.68
200.0000	77.6666	149.24
203.0000	77.6861	150.70
206.0000	77.7076	152.55
209.0000	77.7812	154.07
212.0000	77.7751	155.48
214.0000	77.8218	156.24
218.0000	77.8792	158.19
220.0000	77.9379	159.09
224.0000	78.0777	160.58
227.0000	78.1408	161.86
230.0000	78.2199	163.01
233.0000	78.2526	163.89
236.0000	78.3400	164.96
240.0000	78.4196	166.28
243.0000	78.4798	167.42
247.0000	78.5778	168.29
250.0000	78.6612	169.11
254.0000	78.7443	170.18
258.0000	78.8328	170.88
262.0000	78.8527	171.71
265.0000	78.9289	172.69
269.0000	78.9805	173.48
272.0000	79.0258	174.14
276.0000	79.1329	174.89
280.0000	79.1852	175.69
285.0000	79.3097	176.31
290.0000	79.3730	177.25
295.0000	79.4357	177.95
300.0000	79.5387	178.54
304.0000	79.6100	179.01
307.0000	79.6596	179.65
311.0000	79.6812	179.96
315.0000	79.7554	-179.51
320.0000	79.8178	-179.07
325.0000	79.8743	-178.66
330.0000	79.9521	-177.73
335.0000	79.9892	-177.30
340.0000	80.0677	-176.77
345.0000	80.1032	-176.49
350.0000	80.2040	-176.04
355.0000	80.2528	-175.61
360.0000	80.2721	-175.10
365.0000	80.3130	-174.74
370.0000	80.3918	-174.27
375.0000	80.3795	-173.88
382.0000	80.4726	-173.46
387.0000	80.5254	-172.99
395.0000	80.5766	-172.47
400.0000	80.6179	-172.24
406.0000	80.6707	-171.92
412.0000	80.7349	-171.27
418.0000	80.8028	-170.79
425.0000	80.7935	-170.69
431.0000	80.8697	-170.31
437.0000	80.9159	-170.03
444.0000	80.9691	-169.35
450.0000	80.9649	-169.13
455.0000	81.0255	-168.87
462.0000	81.0699	-168.54
468.0000	81.1073	-168.31
475.0000	81.1676	-168.04
482.0000	81.1953	-167.63
487.0000	81.2247	-167.16
494.0000	81.2602	-166.80
500.0000	81.3274	-166.77
508.0000	81.3578	-166.52
515.0000	81.3837	-166.01
522.0000	81.4246	-165.69
530.0000	81.4696	-165.35
538.0000	81.5068	-164.71
545.0000	81.5151	-164.43
552.0000	81.5716	-164.11
560.0000	81.5986	-163.83
570.0000	81.6427	-163.26
580.0000	81.6710	-162.86
590.0000	81.6825	-162.39
600.0000	81.7376	-162.04
608.0000	81.7548	-161.62
615.0000	81.8031	-161.29
622.0000	81.8120	-160.77
630.0000	81.8782	-160.62
640.0000	81.8567	-160.02
650.0000	81.8935	-159.44
660.0000	81.9472	-158.91
670.0000	81.9627	-158.62
680.0000	81.9864	-158.42
690.0000	82.0074	-157.57
700.0000	82.0479	-157.03
710.0000	82.0844	-156.67
720.0000	82.1423	-156.31
730.0000	82.1382	-155.57
740.0000	82.1886	-155.03
750.0000	82.1863	-154.24
762.0000	82.2803	-153.84
775.0000	82.3336	-152.83
788.0000	82.3396	-152.57
800.0000	82.3942	-152.06
812.0000	82.4182	-151.21
825.0000	82.5171	-150.78
838.0000	82.5258	-149.95
850.0000	82.6153	-149.38
862.0000	82.6873	-148.77
875.0000	82.7065	-148.11
885.0000	82.7639	-147.65
900.0000	82.8608	-146.93
912.0000	82.9391	-146.19
925.0000	83.0220	-145.90
938.0000	83.1302	-145.04
950.0000	83.1976	-144.62
962.0000	83.2898	-144.36
975.0000	83.3879	-143.61
988.0000	83.5025	-143.05
1000.0000	83.5442	-142.74
1015.0000	83.6778	-142.10
1030.0000	83.7865	-141.81
1044.0000	83.8790	-141.24
1060.0000	84.0072	-141.24
1075.0000	84.1489	-140.66
1090.0000	84.2789	-140.60
1106.0000	84.3987	-140.17
1120.0000	84.5565	-139.92
1138.0000	84.7076	-139.84
1150.0000	84.7925	-139.52
1172.0000	84.9900	-139.60
1180.0000	85.0374	-139.59
1206.0000	85.2424	-139.78
1220.0000	85.3380	-139.56
1241.0000	85.4728	-139.75
1250.0000	85.5482	-139.84
1265.0000	85.6613	-139.89
1280.0000	85.7324	-140.00
1315.0000	85.9457	-140.19
1320.0000	85.9917	-140.35
1340.0000	86.1196	-140.18
1360.0000	86.2030	-140.56
1380.0000	86.3062	-140.66
1400.0000	86.3982	-140.80
1430.0000	86.5228	-140.88
1450.0000	86.6389	-140.99
1475.0000	86.7659	-140.98
1500.0000	86.8816	-141.10
1525.0000	87.0105	-141.12
1550.0000	87.0952	-140.97
1575.0000	87.2174	-141.09
1600.0000	87.3112	-140.83
1625.0000	87.4301	-140.82
1650.0000	87.5393	-140.76
1675.0000	87.6346	-140.64
1700.0000	87.7617	-140.67
1725.0000	87.8897	-140.47
1750.0000	88.0031	-140.45
1775.0000	88.1532	-140.32
1800.0000	88.3011	-140.31
1825.0000	88.4213	-140.26
1850.0000	88.5288	-140.36
1875.0000	88.6871	-140.25
1900.0000	88.8245	-140.42
1925.0000	88.9694	-140.49
1950.0000	89.0727	-140.59
1975.0000	89.2044	-140.71
2000.0000	89.3538	-140.87
2030.0000	89.4981	-141.19
2060.0000	89.6449	-141.72
2090.0000	89.8280	-142.05
2120.0000	89.9734	-142.65
2140.0000	90.0938	-143.06
2180.0000	90.3187	-143.80
2200.0000	90.3734	-144.28
2240.0000	90.5718	-145.31
2270.0000	90.7158	-146.18
2300.0000	90.8401	-147.09
2330.0000	90.9593	-148.13
2360.0000	91.0646	-149.01
2400.0000	91.2058	-150.41
2430.0000	91.2732	-151.55
2470.0000	91.3400	-153.05
2500.0000	91.3819	-154.18
2540.0000	91.4192	-155.61
2580.0000	91.4312	-157.15
2620.0000	91.4030	-158.55
2650.0000	91.3485	-159.76
2690.0000	91.2934	-161.02
2720.0000	91.2279	-161.77
2760.0000	91.1358	-163.08
2800.0000	91.0271	-164.09
2850.0000	90.8562	-165.04
2900.0000	90.7114	-166.10
2950.0000	90.5116	-166.84
3000.0000	90.3270	-167.15
3040.0000	90.2083	-167.42
3070.0000	90.1106	-167.56
3110.0000	89.9527	-167.60
3150.0000	89.8610	-167.35
3200.0000	89.6991	-167.16
3250.0000	89.5503	-166.90
3300.0000	89.4801	-166.63
3350.0000	89.3383	-166.08
3400.0000	89.2803	-165.49
3450.0000	89.2478	-164.71
3500.0000	89.2008	-164.41
3550.0000	89.1981	-164.44
3600.0000	89.1449	-163.47
3650.0000	89.1900	-162.99
3700.0000	89.2072	-162.88
3750.0000	89.1849	-162.33
3820.0000	89.1530	-161.55
3870.0000	89.1919	-161.97
3950.0000	89.2309	-161.03
4000.0000	89.2481	-160.85
4060.0000	89.2108	-160.99
4120.0000	89.2290	-160.58
4180.0000	89.3584	-160.63
4250.0000	89.3325	-160.33
4310.0000	89.3063	-159.75
4370.0000	89.4029	-159.70
4440.0000	89.4592	-159.96
4500.0000	89.4650	-159.52
4550.0000	89.4243	-160.01
4620.0000	89.5841	-159.80
4680.0000	89.5631	-160.01
4750.0000	89.5631	-159.84
4820.0000	89.6203	-159.51
4870.0000	89.7094	-158.83
4940.0000	89.6454	-159.25
5000.0000	89.8378	-158.32
5080.0000	89.9121	-158.25
5150.0000	89.9455	-158.82
5220.0000	90.1674	-159.34
5300.0000	90.1851	-160.12
5380.0000	90.3233	-160.51
5450.0000	90.3911	-161.27
5520.0000	90.5260	-161.41
5600.0000	90.3899	-162.28
5700.0000	90.4361	-162.11
5800.0000	90.3464	-163.65
5900.0000	90.5350	-164.48
6000.0000	90.2987	-166.00
6080.0000	90.2820	-166.46
6150.0000	89.9989	-166.90
6220.0000	89.8652	-167.27
6300.0000	89.9596	-166.70
6400.0000	89.8149	-166.62
6500.0000	89.4051	-168.03
6600.0000	89.4811	-165.91
6700.0000	89.4423	-165.68
6800.0000	89.2148	-162.91
6900.0000	89.3991	-163.01
7000.0000	89.3705	-160.33
7100.0000	89.7863	-157.26
7200.0000	90.4990	-157.08
7300.0000	91.5558	-153.59
7400.0000	92.5549	-156.27
7500.0000	93.6347	-158.60
7620.0000	94.7748	-163.81
7750.0000	95.7060	-172.12
7880.0000	96.0372	172.85
8000.0000	95.5315	163.17
8120.0000	94.3956	158.75
8250.0000	93.6707	150.00
8380.0000	92.6595	146.53
8500.0000	91.6779	148.40
8620.0000	90.5557	143.99
8750.0000	89.8128	145.71
8850.0000	89.8672	148.98
9000.0000	89.4246	147.07
9120.0000	88.0641	146.48
9250.0000	87.7315	147.71
9380.0000	87.7095	147.17
9500.0000	88.0260	150.51
9620.0000	86.6457	151.07
9750.0000	86.6181	151.03
9880.0000	86.9605	147.75
10000.0000	87.2480	149.52
10150.0000	86.4070	155.11
10300.0000	86.7274	150.87
10440.0000	86.1498	144.29
10600.0000	85.5053	146.71
10750.0000	85.9582	148.90
10900.0000	85.7773	147.66
11060.0000	84.8418	140.55
11200.0000	84.5320	139.85
11380.0000	84.5530	143.72
11500.0000	82.5144	144.27
11720.0000	81.9776	141.67
11800.0000	83.0165	145.99
12060.0000	80.9705	152.29
12200.0000	81.5090	139.50
12410.0000	81.5956	145.34
12500.0000	80.0327	143.81
12650.0000	79.2064	153.85
12800.0000	79.0636	158.95
13150.0000	77.5438	161.64
13200.0000	79.4280	152.12
13400.0000	78.9919	165.71
13600.0000	77.6689	156.59
13800.0000	76.8571	160.81
14000.0000	77.8649	172.64
14300.0000	74.9080	-174.12
14500.0000	75.1672	-168.42
14750.0000	79.9845	-159.13
15000.0000	80.7951	-160.08
15250.0000	82.5351	-138.74
15500.0000	86.7199	-157.14
15750.0000	89.4181	-158.88
16000.0000	87.6800	159.40
16250.0000	87.6680	139.75
16500.0000	90.2915	107.39
16750.0000	82.7205	106.90
17000.0000	80.7602	91.47
17250.0000	83.9223	70.20
17500.0000	75.4953	67.11
17750.0000	73.9849	59.03
18000.0000	79.0693	53.26
18250.0000	69.9888	57.36
18500.0000	67.6774	60.97
18750.0000	70.5957	20.56
19000.0000	71.3405	64.24
19250.0000	72.2549	34.82
19500.0000	69.8242	34.36
19750.0000	59.9836	15.00
