* Measurement data measured by REW V5.20 Beta 47
* Source: Microphone (Realtek Audio), MICROPHONE (Master Volume), R, volume: 0.250
* Format: 256k Log Swept Sine, 1 sweep at -12.0 dBFS with no timing reference
* Dated: Aug 15, 2020 1:10:49 AM
* REW Settings:
*  C-weighting compensation: Off
*  Target level: 75.0 dB
* Note: ; 
* Measurement: JBL C150Sl L
* Smoothing: None
* Frequency Step: 1/48 octave
* Start Frequency: 20.000 Hz
*
* Freq(Hz)	SPL(dB)	Phase(degrees)
20.0000	96.7244	-161.07
20.3000	96.7587	-161.76
20.6000	96.7883	-162.48
20.9000	96.8105	-163.18
21.2000	96.8304	-163.84
21.4000	96.8432	-164.25
21.8000	96.8720	-165.03
22.0000	96.8922	-165.41
22.4000	96.9534	-166.13
22.7000	96.9994	-166.72
23.0000	97.0395	-167.32
23.3000	97.0756	-167.90
23.6000	97.1061	-168.43
24.0000	97.1406	-169.05
24.3000	97.1683	-169.42
24.7000	97.2119	-169.86
25.0000	97.2471	-170.20
25.4000	97.2905	-170.64
25.8000	97.3296	-171.06
26.2000	97.3632	-171.46
26.5000	97.3876	-171.75
26.9000	97.4241	-172.15
27.2000	97.4494	-172.50
27.6000	97.4751	-173.03
28.0000	97.4911	-173.57
28.5000	97.5039	-174.26
29.0000	97.5218	-174.94
29.5000	97.5412	-175.78
30.0000	97.5411	-176.69
30.4000	97.5235	-177.37
30.7000	97.5060	-177.78
31.1000	97.4953	-178.20
31.5000	97.5121	-178.58
32.0000	97.5605	-179.20
32.5000	97.6067	179.98
33.0000	97.6161	179.09
33.5000	97.6035	178.43
34.0000	97.5982	177.99
34.5000	97.6194	177.63
35.0000	97.6548	177.17
35.5000	97.6788	176.64
36.0000	97.6911	176.13
36.5000	97.6959	175.67
37.0000	97.7019	175.21
37.5000	97.6918	174.76
38.2000	97.6707	174.28
38.7000	97.6706	174.02
39.5000	97.6982	173.33
40.0000	97.6902	172.69
40.6000	97.6346	171.98
41.2000	97.5667	171.59
41.8000	97.5311	171.35
42.5000	97.5253	170.95
43.1000	97.5191	170.46
43.7000	97.5025	169.90
44.4000	97.4691	169.27
45.0000	97.4345	168.82
45.5000	97.4185	168.51
46.2000	97.4154	167.97
46.8000	97.3942	167.34
47.5000	97.3266	166.81
48.2000	97.2817	166.66
48.7000	97.2906	166.52
49.4000	97.3041	165.93
50.0000	97.2626	165.34
50.8000	97.1816	164.99
51.5000	97.1620	164.81
52.2000	97.1466	164.35
53.0000	97.0897	163.91
53.8000	97.0764	163.65
54.5000	97.0902	163.00
55.2000	97.0326	162.12
56.0000	96.9089	161.66
57.0000	96.8634	161.58
58.0000	96.8447	160.94
59.0000	96.7769	160.48
60.0000	96.7291	160.09
60.8000	96.6579	159.86
61.5000	96.6142	159.95
62.2000	96.6165	159.93
63.0000	96.6002	159.59
64.0000	96.5776	159.32
65.0000	96.5703	158.33
66.0000	96.3961	157.48
67.0000	96.3040	157.61
68.0000	96.3061	157.25
69.0000	96.3126	156.48
70.0000	96.2091	155.44
71.0000	96.1014	155.66
72.0000	96.1553	155.19
73.0000	96.0241	154.55
74.0000	95.9997	154.85
75.0000	95.9863	154.11
76.2000	95.8738	153.86
77.5000	95.8158	153.29
78.8000	95.7166	152.93
80.0000	95.6319	152.66
81.2000	95.6035	152.50
82.5000	95.5305	151.85
83.8000	95.4454	151.66
85.0000	95.3913	151.39
86.2000	95.3520	151.10
87.5000	95.2758	150.65
88.5000	95.2258	150.55
90.0000	95.1689	150.16
91.2000	95.0928	149.80
92.5000	95.0000	149.61
93.8000	94.9303	149.25
95.0000	94.8358	149.09
96.2000	94.8074	148.89
97.5000	94.7284	148.47
98.8000	94.6602	148.44
100.0000	94.6116	148.27
101.5000	94.5219	148.19
103.0000	94.4407	148.00
104.4000	94.3538	147.73
106.0000	94.2543	147.35
107.5000	94.1322	147.20
109.0000	94.1390	146.90
110.6000	94.0038	146.66
112.0000	93.9714	146.38
113.8000	93.8732	146.21
115.0000	93.7796	146.22
117.2000	93.7385	145.62
118.0000	93.6812	145.64
120.6000	93.5573	145.47
122.0000	93.5154	145.29
124.1000	93.3954	145.16
125.0000	93.3494	145.17
126.5000	93.2754	145.10
128.0000	93.2456	145.03
131.5000	93.0473	144.56
132.0000	93.0049	144.61
134.0000	92.9168	144.39
136.0000	92.7678	144.37
138.0000	92.7656	144.32
140.0000	92.6242	144.22
143.0000	92.4891	144.22
145.0000	92.3835	143.86
147.5000	92.2611	143.94
150.0000	92.1541	143.88
152.5000	92.0509	144.00
155.0000	91.9305	143.76
157.5000	91.8535	143.54
160.0000	91.8314	143.03
162.5000	91.7007	143.84
165.0000	91.6144	143.95
167.5000	91.4870	143.69
170.0000	91.3966	143.52
172.5000	91.3306	143.49
175.0000	91.2099	143.67
177.5000	91.0960	143.50
180.0000	90.9725	143.58
182.5000	90.8848	143.54
185.0000	90.7311	143.76
187.5000	90.7074	144.06
190.0000	90.6016	144.08
192.5000	90.5209	144.23
195.0000	90.4294	144.21
197.5000	90.3189	144.05
200.0000	90.1882	143.87
203.0000	90.1245	143.84
206.0000	90.0315	144.11
209.0000	89.9784	144.25
212.0000	89.8853	144.50
214.0000	89.8632	145.45
218.0000	89.6528	145.71
220.0000	89.5509	145.00
224.0000	89.3939	145.17
227.0000	89.3444	145.18
230.0000	89.2220	145.35
233.0000	89.1789	145.34
236.0000	89.0809	145.73
240.0000	88.9898	146.06
243.0000	88.8713	146.19
247.0000	88.7287	146.24
250.0000	88.6701	146.36
254.0000	88.5253	146.67
258.0000	88.3968	146.92
262.0000	88.3227	147.02
265.0000	88.2416	147.56
269.0000	88.1096	147.82
272.0000	88.0120	148.10
276.0000	87.8864	148.43
280.0000	87.8070	148.49
285.0000	87.6750	148.99
290.0000	87.5373	149.35
295.0000	87.4073	149.57
300.0000	87.2864	149.96
304.0000	87.2066	150.28
307.0000	87.1340	150.57
311.0000	87.0559	150.94
315.0000	86.9828	151.38
320.0000	86.8789	151.78
325.0000	86.7505	151.95
330.0000	86.6693	152.47
335.0000	86.5738	152.77
340.0000	86.4735	153.46
345.0000	86.3965	153.82
350.0000	86.2396	154.27
355.0000	86.1877	154.76
360.0000	86.0339	155.27
365.0000	85.9551	155.67
370.0000	85.8226	156.23
375.0000	85.7590	156.59
382.0000	85.5955	157.25
387.0000	85.4685	157.63
395.0000	85.3355	158.51
400.0000	85.2591	158.83
406.0000	85.1499	159.38
412.0000	85.0301	160.13
418.0000	84.9182	160.74
425.0000	84.8361	161.58
431.0000	84.7144	162.17
437.0000	84.6660	162.71
444.0000	84.5088	163.34
450.0000	84.4151	163.80
455.0000	84.4010	164.45
462.0000	84.2840	165.12
468.0000	84.2063	165.86
475.0000	84.1144	166.41
482.0000	83.9863	166.98
487.0000	83.9183	167.64
494.0000	83.8033	168.45
500.0000	83.7063	169.17
508.0000	83.6073	170.07
515.0000	83.5224	170.45
522.0000	83.4648	171.31
530.0000	83.3055	171.95
538.0000	83.2390	172.98
545.0000	83.1568	173.71
552.0000	83.0588	174.35
560.0000	82.9427	175.44
570.0000	82.8297	176.56
580.0000	82.7859	177.67
590.0000	82.6930	178.67
600.0000	82.5053	179.75
608.0000	82.4019	-179.15
615.0000	82.3148	-178.52
622.0000	82.2654	-177.78
630.0000	82.1527	-177.07
640.0000	82.1379	-175.89
650.0000	82.0088	-174.47
660.0000	81.8682	-173.82
670.0000	81.8808	-172.61
680.0000	81.7796	-171.27
690.0000	81.6623	-170.13
700.0000	81.5503	-168.79
710.0000	81.4990	-167.73
720.0000	81.4390	-166.97
730.0000	81.3484	-165.56
740.0000	81.2577	-164.41
750.0000	81.2097	-162.91
762.0000	81.1057	-161.71
775.0000	81.0541	-160.22
788.0000	80.9465	-158.53
800.0000	80.9287	-157.36
812.0000	80.8333	-155.65
825.0000	80.7418	-153.80
838.0000	80.6791	-152.02
850.0000	80.5902	-150.16
862.0000	80.6121	-148.12
875.0000	80.7813	-146.47
885.0000	80.7018	-146.53
900.0000	80.5571	-145.04
912.0000	80.4676	-143.88
925.0000	80.3996	-142.14
938.0000	80.4459	-140.08
950.0000	80.2999	-138.88
962.0000	80.3085	-137.03
975.0000	80.2060	-135.28
988.0000	80.1043	-132.91
1000.0000	79.9138	-130.00
1015.0000	80.0869	-124.51
1030.0000	80.9927	-121.14
1044.0000	81.4605	-123.01
1060.0000	81.5059	-123.99
1075.0000	81.4790	-123.78
1090.0000	81.3893	-123.43
1106.0000	81.3818	-122.66
1120.0000	81.3153	-121.28
1138.0000	81.2982	-120.42
1150.0000	81.3113	-118.95
1172.0000	81.4202	-117.63
1180.0000	81.3606	-117.23
1206.0000	81.4202	-115.14
1220.0000	81.5275	-114.24
1241.0000	81.5166	-112.62
1250.0000	81.4490	-111.79
1265.0000	81.4770	-111.05
1280.0000	81.4894	-109.32
1315.0000	81.5556	-107.00
1320.0000	81.5734	-106.40
1340.0000	81.6772	-104.71
1360.0000	81.6871	-103.26
1380.0000	81.6741	-101.28
1400.0000	81.7527	-99.63
1430.0000	81.8762	-97.18
1450.0000	81.8942	-95.18
1475.0000	82.0491	-93.04
1500.0000	82.2208	-90.41
1525.0000	82.3272	-88.21
1550.0000	82.5593	-86.06
1575.0000	82.7850	-84.18
1600.0000	83.0728	-82.54
1625.0000	83.2914	-81.13
1650.0000	83.5864	-79.56
1675.0000	83.8315	-78.39
1700.0000	84.0630	-77.60
1725.0000	84.2805	-76.95
1750.0000	84.4627	-76.25
1775.0000	84.6037	-75.67
1800.0000	84.7556	-75.16
1825.0000	84.8925	-74.57
1850.0000	84.9830	-74.14
1875.0000	85.0916	-73.15
1900.0000	85.1656	-72.83
1925.0000	85.2510	-71.80
1950.0000	85.3080	-71.14
1975.0000	85.3754	-70.03
2000.0000	85.4401	-69.26
2030.0000	85.5372	-68.16
2060.0000	85.5932	-66.86
2090.0000	85.6773	-65.77
2120.0000	85.7679	-64.60
2140.0000	85.8223	-63.79
2180.0000	85.9229	-62.19
2200.0000	85.9956	-61.39
2240.0000	86.1282	-59.81
2270.0000	86.2279	-58.65
2300.0000	86.3474	-57.52
2330.0000	86.4356	-56.18
2360.0000	86.5544	-55.04
2400.0000	86.6783	-53.54
2430.0000	86.8287	-52.31
2470.0000	86.9746	-50.81
2500.0000	87.0826	-49.68
2540.0000	87.2650	-48.10
2580.0000	87.3910	-46.83
2620.0000	87.5938	-45.59
2650.0000	87.7023	-44.55
2690.0000	87.9202	-43.37
2720.0000	88.0438	-42.29
2760.0000	88.2230	-41.48
2800.0000	88.4058	-40.76
2850.0000	88.5079	-40.58
2900.0000	88.3890	-38.66
2950.0000	88.5683	-36.06
3000.0000	88.8410	-34.26
3040.0000	89.0773	-33.10
3070.0000	89.2188	-32.36
3110.0000	89.4255	-31.65
3150.0000	89.6296	-30.80
3200.0000	89.8385	-29.98
3250.0000	90.0436	-29.12
3300.0000	90.2549	-28.40
3350.0000	90.4598	-27.75
3400.0000	90.6597	-27.10
3450.0000	90.8569	-26.62
3500.0000	91.1153	-26.30
3550.0000	91.3041	-25.91
3600.0000	91.4779	-25.75
3650.0000	91.6702	-25.60
3700.0000	91.8424	-25.40
3750.0000	92.0069	-25.22
3820.0000	92.2265	-25.19
3870.0000	92.3462	-25.59
3950.0000	92.4777	-26.52
4000.0000	92.1986	-28.45
4060.0000	91.6101	-18.62
4120.0000	92.6615	-19.10
4180.0000	92.9985	-19.74
4250.0000	93.2316	-20.29
4310.0000	93.3883	-20.41
4370.0000	93.5183	-20.48
4440.0000	93.7033	-20.53
4500.0000	93.8278	-20.48
4550.0000	93.9586	-20.53
4620.0000	94.0917	-20.48
4680.0000	94.2177	-20.52
4750.0000	94.3703	-20.50
4820.0000	94.5167	-20.50
4870.0000	94.6310	-20.70
4940.0000	94.7958	-20.93
5000.0000	94.8794	-21.15
5080.0000	95.0412	-21.68
5150.0000	95.1572	-22.07
5220.0000	95.2552	-22.64
5300.0000	95.3349	-23.08
5380.0000	95.4337	-23.86
5450.0000	95.5005	-24.41
5520.0000	95.5278	-25.05
5600.0000	95.5143	-25.82
5700.0000	95.4210	-26.68
5800.0000	95.3138	-27.50
5900.0000	95.1670	-27.77
6000.0000	95.0575	-27.86
6080.0000	94.9518	-27.79
6150.0000	94.9092	-28.02
6220.0000	94.8687	-28.15
6300.0000	94.7901	-28.54
6400.0000	94.6813	-28.85
6500.0000	94.5662	-29.08
6600.0000	94.4022	-29.43
6700.0000	94.2493	-29.56
6800.0000	94.0885	-29.42
6900.0000	93.9760	-29.35
7000.0000	93.8903	-28.94
7100.0000	93.8203	-28.36
7200.0000	93.7620	-27.83
7300.0000	93.7956	-26.88
7400.0000	93.8562	-26.23
7500.0000	93.9769	-25.91
7620.0000	94.1687	-25.77
7750.0000	94.4203	-26.47
7880.0000	94.6428	-28.58
8000.0000	94.7511	-31.29
8120.0000	94.7714	-35.54
8250.0000	94.5201	-40.51
8380.0000	94.0090	-45.66
8500.0000	93.2786	-49.72
8620.0000	92.3927	-52.62
8750.0000	91.2893	-54.30
8850.0000	90.4625	-55.07
9000.0000	89.1820	-54.19
9120.0000	88.2322	-52.64
9250.0000	87.2429	-50.23
9380.0000	86.3928	-47.25
9500.0000	85.5976	-44.31
9620.0000	84.9302	-41.66
9750.0000	84.3165	-37.16
9880.0000	83.6589	-32.88
10000.0000	83.2085	-29.25
10150.0000	82.5791	-23.61
10300.0000	82.2758	-18.97
10440.0000	81.7053	-14.76
10600.0000	81.3166	-8.41
10750.0000	81.0370	-3.07
10900.0000	80.7954	2.74
11060.0000	80.5720	8.84
11200.0000	80.4951	14.45
11380.0000	80.4542	21.14
11500.0000	80.6951	26.19
11720.0000	80.9479	33.62
11800.0000	81.1170	36.78
12060.0000	81.7999	45.91
12200.0000	82.3788	50.51
12410.0000	83.5821	56.20
12500.0000	84.2341	58.50
12650.0000	85.4079	61.44
12800.0000	86.8730	62.23
13150.0000	91.3167	50.58
13200.0000	91.9204	45.77
13400.0000	92.8413	19.51
13600.0000	90.8234	-2.68
13800.0000	88.1168	-11.44
14000.0000	85.8322	-12.41
14300.0000	83.2838	-7.26
14500.0000	82.1305	-0.97
14750.0000	81.0847	5.14
15000.0000	80.3649	12.13
15250.0000	80.4421	18.31
15500.0000	80.4359	24.72
15750.0000	80.9829	29.05
16000.0000	81.7880	30.18
16250.0000	82.7922	24.68
16500.0000	83.0732	12.26
16750.0000	81.9227	-1.82
17000.0000	79.4702	-9.74
17250.0000	76.5437	-11.25
17500.0000	74.6600	-6.88
17750.0000	72.0160	-0.99
18000.0000	69.8612	7.19
18250.0000	68.0320	16.43
18500.0000	66.9389	28.87
18750.0000	65.9938	38.25
19000.0000	64.1253	54.85
19250.0000	64.3153	64.68
19500.0000	61.8211	72.29
19750.0000	62.0765	88.89
