* Measurement data measured by REW V5.20 Beta 60
* Source: Headset (USB-C to 3.5mm Headphone Jack Adapter), MICROPHONE (Master Volume), R, volume: 0.258
* Format: 256k Log Swept Sine, 1 sweep at -12.0 dBFS with no timing reference
* Dated: Jun 20, 2021 6:18:29 PM
* REW Settings:
*  C-weighting compensation: Off
*  Target level: 75.0 dB
* Note: ; 
* Measurement: Kinera Nanna L
* Smoothing: None
* Frequency Step: 1/48 octave
* Start Frequency: 20.000 Hz
*
* Freq(Hz)	SPL(dB)	Phase(degrees)
20.000000	88.669136	166.5102
20.299999	88.681511	166.0436
20.600000	88.683044	165.5728
20.900000	88.672951	165.1190
21.200001	88.655838	164.6808
21.400000	88.639061	164.4116
21.799999	88.595047	163.9596
22.000000	88.571289	163.7816
22.400000	88.531113	163.5047
22.700001	88.509834	163.3741
23.000000	88.501564	163.2634
23.299999	88.507790	163.1047
23.600000	88.520508	162.8679
24.000000	88.532761	162.4123
24.299999	88.529663	161.9991
24.700001	88.504669	161.4658
25.000000	88.477066	161.1496
25.400000	88.448456	160.8484
25.799999	88.441917	160.6078
26.200001	88.456116	160.2570
26.500000	88.467201	159.8712
26.900000	88.461594	159.2622
27.200001	88.438446	158.8257
27.600000	88.393417	158.3962
28.000000	88.355263	158.1720
28.500000	88.348518	157.9668
29.000000	88.368790	157.5661
29.500000	88.370468	156.9413
30.000000	88.329163	156.3927
30.400000	88.287605	156.1541
30.700001	88.265755	156.0878
31.100000	88.258514	156.0235
31.500000	88.269226	155.8656
32.000000	88.279816	155.5087
32.500000	88.272614	155.0704
33.000000	88.251175	154.6692
33.500000	88.223648	154.2850
34.000000	88.186852	153.9126
34.500000	88.146927	153.5927
35.000000	88.112785	153.3578
35.500000	88.095680	153.1021
36.000000	88.082687	152.7250
36.500000	88.053726	152.2564
37.000000	88.010010	151.8671
37.500000	87.976578	151.5977
38.200001	87.962067	151.1754
38.700001	87.951309	150.7260
39.500000	87.908356	150.0778
40.000000	87.888733	149.8063
40.599998	87.882904	149.4358
41.200001	87.873383	148.9698
41.799999	87.852921	148.5415
42.500000	87.833076	148.1140
43.099998	87.815414	147.6922
43.700001	87.783379	147.3038
44.400002	87.752167	146.9926
45.000000	87.747986	146.6588
45.500000	87.738106	146.2309
46.200001	87.686157	145.6415
46.799999	87.634079	145.3287
47.500000	87.599846	144.9877
48.200001	87.560699	144.5272
48.700001	87.520287	144.2363
49.400002	87.472572	144.0109
50.000000	87.457031	143.8725
50.799999	87.476082	143.4758
51.500000	87.491364	142.8295
52.200001	87.455521	142.0456
53.000000	87.372177	141.5068
53.799999	87.334991	141.2479
54.500000	87.319939	140.8152
55.200001	87.280174	140.3592
56.000000	87.239746	140.0054
57.000000	87.202919	139.4454
58.000000	87.147873	138.9675
59.000000	87.118950	138.5339
60.000000	87.090767	137.9636
60.799999	87.055687	137.5161
61.500000	87.030304	137.1400
62.200001	87.002724	136.7074
63.000000	86.953644	136.2604
64.000000	86.910751	135.8694
65.000000	86.879471	135.2592
66.000000	86.814758	134.7503
67.000000	86.782379	134.2626
68.000000	86.719788	133.6361
69.000000	86.664780	133.2970
70.000000	86.640549	132.8662
71.000000	86.611275	132.3579
72.000000	86.577492	131.8209
73.000000	86.525253	131.3545
74.000000	86.489616	131.0504
75.000000	86.466446	130.5608
76.199997	86.399323	130.0565
77.500000	86.364914	129.5001
78.800003	86.301315	128.9327
80.000000	86.281296	128.2031
81.199997	86.188599	127.6795
82.500000	86.187561	127.2084
83.800003	86.116531	126.5738
85.000000	86.083221	126.2047
86.199997	86.040390	125.7935
87.500000	85.977379	125.1187
88.500000	85.908722	125.0176
90.000000	85.921768	124.3790
91.199997	85.867470	123.6487
92.500000	85.791496	123.0153
93.800003	85.743660	122.6506
95.000000	85.702744	122.1208
96.199997	85.659515	121.6908
97.500000	85.610695	121.0957
98.800003	85.545349	120.7103
100.000000	85.536316	120.3130
101.500000	85.476189	119.5645
103.000000	85.424408	119.1243
104.400002	85.367889	118.5007
106.000000	85.303482	118.1297
107.500000	85.247276	117.5001
109.000000	85.210144	117.0103
110.599998	85.167870	116.2946
112.000000	85.084839	115.7296
113.800003	85.041756	115.2715
115.000000	85.005806	114.8308
117.199997	84.928841	114.2262
118.000000	84.904327	113.8915
120.599998	84.824234	113.0537
122.000000	84.770706	112.7039
124.099998	84.706139	112.0859
125.000000	84.689240	111.5919
126.500000	84.626266	111.2826
128.000000	84.580185	110.6255
131.500000	84.498131	109.7402
132.000000	84.487030	109.6232
134.000000	84.415359	109.0647
136.000000	84.365250	108.4679
138.000000	84.288765	107.9686
140.000000	84.235771	107.2737
143.000000	84.144539	106.6177
145.000000	84.078133	106.0563
147.500000	84.030670	105.4263
150.000000	83.953636	104.7820
152.500000	83.889984	104.0995
155.000000	83.838570	103.6006
157.500000	83.784363	102.9244
160.000000	83.728676	102.3211
162.500000	83.659866	101.7503
165.000000	83.613159	101.2739
167.500000	83.569199	100.5278
170.000000	83.542747	99.9502
172.500000	83.461922	99.4463
175.000000	83.411522	99.0559
177.500000	83.337692	98.4010
180.000000	83.283920	97.9297
182.500000	83.227295	97.4115
185.000000	83.166214	97.0655
187.500000	83.107346	96.5893
190.000000	83.041656	96.0350
192.500000	82.999100	95.5701
195.000000	82.937424	95.0895
197.500000	82.885391	94.6442
200.000000	82.828804	94.2508
203.000000	82.770164	93.7369
206.000000	82.715446	93.1189
209.000000	82.649429	92.5991
212.000000	82.592430	92.2319
214.000000	82.563858	91.9067
218.000000	82.491425	91.2225
220.000000	82.455933	91.0443
224.000000	82.415543	90.3237
227.000000	82.379654	89.8095
230.000000	82.306732	89.3829
233.000000	82.306648	89.1545
236.000000	82.251305	88.7525
240.000000	82.232254	88.0986
243.000000	82.160690	87.7448
247.000000	82.144394	87.2859
250.000000	82.056305	86.8472
254.000000	82.013199	86.4113
258.000000	81.964790	86.1413
262.000000	81.928627	85.3367
265.000000	81.859161	84.9745
269.000000	81.812485	84.4598
272.000000	81.777847	84.2452
276.000000	81.770775	83.8792
280.000000	81.739624	83.2565
285.000000	81.621246	83.0075
290.000000	81.582802	82.8427
295.000000	81.583267	82.1464
300.000000	81.545349	81.5077
304.000000	81.475182	81.4786
307.000000	81.428589	81.1591
311.000000	81.413307	80.5530
315.000000	81.418999	80.4032
320.000000	81.343933	80.2563
325.000000	81.290634	79.8590
330.000000	81.241463	79.3115
335.000000	81.249359	79.0112
340.000000	81.169304	78.6726
345.000000	81.156349	78.3365
350.000000	81.092865	77.9496
355.000000	81.072243	77.5571
360.000000	81.004234	77.2723
365.000000	80.985382	76.9229
370.000000	80.917877	76.7609
375.000000	80.870392	76.4199
382.000000	80.775009	76.0316
387.000000	80.736214	75.9904
395.000000	80.672806	75.8824
400.000000	80.633118	75.9481
406.000000	80.599396	75.7552
412.000000	80.567291	75.7932
418.000000	80.544266	75.6532
425.000000	80.513863	75.5624
431.000000	80.479233	75.5554
437.000000	80.470589	75.4755
444.000000	80.427002	75.3695
450.000000	80.442207	75.3994
455.000000	80.421593	75.2923
462.000000	80.398956	75.1219
468.000000	80.366257	75.0534
475.000000	80.338722	74.9568
482.000000	80.307228	74.8079
487.000000	80.305283	74.7554
494.000000	80.278999	74.7203
500.000000	80.260910	74.7243
508.000000	80.235443	74.7751
515.000000	80.209503	74.8917
522.000000	80.187126	74.8539
530.000000	80.158798	74.9573
538.000000	80.123573	75.0338
545.000000	80.103867	75.1453
552.000000	80.080383	75.2761
560.000000	80.058815	75.3750
570.000000	80.037918	75.5457
580.000000	79.994629	75.7722
590.000000	79.972168	76.0414
600.000000	79.936142	76.3653
608.000000	79.919739	76.5352
615.000000	79.906502	76.7930
622.000000	79.894455	76.9365
630.000000	79.872589	77.2903
640.000000	79.860397	77.5988
650.000000	79.825340	77.9574
660.000000	79.819138	78.3794
670.000000	79.793449	78.7922
680.000000	79.760262	79.3184
690.000000	79.739227	79.8700
700.000000	79.715408	80.2749
710.000000	79.677689	80.9030
720.000000	79.649597	81.4158
730.000000	79.628990	82.1627
740.000000	79.591949	82.8481
750.000000	79.562103	83.7185
762.000000	79.530952	84.8538
775.000000	79.503410	86.1506
788.000000	79.490036	87.5294
800.000000	79.495163	89.0994
812.000000	79.556915	90.7472
825.000000	79.643105	92.6091
838.000000	79.798523	94.3152
850.000000	79.982635	95.7820
862.000000	80.198593	97.0497
875.000000	80.429710	98.0394
885.000000	80.619972	98.5777
900.000000	80.853310	99.0599
912.000000	81.031311	99.2888
925.000000	81.207878	99.5904
938.000000	81.361275	99.8544
950.000000	81.473732	100.0265
962.000000	81.599907	100.2286
975.000000	81.709404	100.6330
988.000000	81.840912	101.0148
1000.000000	82.009377	101.4247
1015.000000	82.060669	101.6361
1030.000000	82.173157	102.0123
1044.000000	82.294075	102.3912
1060.000000	82.443497	102.7785
1075.000000	82.571579	103.1728
1090.000000	82.721725	103.4973
1106.000000	82.879860	103.8072
1120.000000	83.007126	104.1119
1138.000000	83.185585	104.3257
1150.000000	83.308228	104.4905
1172.000000	83.516701	104.7286
1180.000000	83.583687	104.7809
1206.000000	83.821373	104.9819
1220.000000	83.952713	105.0578
1241.000000	84.144196	105.0743
1250.000000	84.225243	105.0470
1265.000000	84.352966	105.0973
1280.000000	84.483353	105.0572
1315.000000	84.762314	105.0386
1320.000000	84.804649	105.0128
1340.000000	84.953629	104.9579
1360.000000	85.103989	104.8596
1380.000000	85.250237	104.8099
1400.000000	85.385063	104.7592
1430.000000	85.589920	104.6665
1450.000000	85.723480	104.5909
1475.000000	85.889793	104.4887
1500.000000	86.050278	104.3257
1525.000000	86.208748	104.1688
1550.000000	86.366905	104.0766
1575.000000	86.526512	103.8372
1600.000000	86.686424	103.6014
1625.000000	86.834305	103.4016
1650.000000	86.991348	103.0889
1675.000000	87.136223	102.7663
1700.000000	87.281281	102.3931
1725.000000	87.419662	101.9343
1750.000000	87.551697	101.4647
1775.000000	87.679642	100.9260
1800.000000	87.802521	100.3326
1825.000000	87.909203	99.6618
1850.000000	88.009575	98.9762
1875.000000	88.099602	98.2607
1900.000000	88.175430	97.4352
1925.000000	88.242828	96.6553
1950.000000	88.287521	95.8314
1975.000000	88.304359	94.8787
2000.000000	88.257996	93.7271
2030.000000	88.325188	92.9929
2060.000000	88.308685	91.9991
2090.000000	88.254868	90.9930
2120.000000	88.186829	90.0301
2140.000000	88.127121	89.4805
2180.000000	87.981796	88.3658
2200.000000	87.891510	87.9226
2240.000000	87.697716	86.9172
2270.000000	87.517471	86.0720
2300.000000	87.330948	85.1525
2330.000000	87.143570	84.4278
2360.000000	86.934135	83.7971
2400.000000	86.648666	83.3866
2430.000000	86.457039	83.5329
2470.000000	86.178848	84.1146
2500.000000	85.975746	84.6523
2540.000000	85.728943	85.5622
2580.000000	85.489738	86.7794
2620.000000	85.289398	87.9535
2650.000000	85.153435	88.9731
2690.000000	84.994545	90.2902
2720.000000	84.891205	91.3442
2760.000000	84.770500	92.7180
2800.000000	84.658112	94.0487
2850.000000	84.532913	95.6778
2900.000000	84.436897	97.1884
2950.000000	84.336128	98.6827
3000.000000	84.231201	100.5255
3040.000000	84.159515	101.5011
3070.000000	84.102753	102.3441
3110.000000	84.033890	103.4996
3150.000000	83.975533	104.7076
3200.000000	83.883743	106.2759
3250.000000	83.829414	107.9089
3300.000000	83.774780	109.5167
3350.000000	83.744614	111.3061
3400.000000	83.738220	112.9352
3450.000000	83.766754	114.5882
3500.000000	83.816589	116.0714
3550.000000	83.870438	117.5254
3600.000000	83.926239	118.8987
3650.000000	83.992485	120.3611
3700.000000	84.068367	121.7450
3750.000000	84.155716	123.1484
3820.000000	84.308640	125.0693
3870.000000	84.441528	126.3672
3950.000000	84.646210	128.0861
4000.000000	84.776451	129.0249
4060.000000	84.989563	130.1949
4120.000000	85.194641	131.0490
4180.000000	85.409248	131.8223
4250.000000	85.690544	132.5724
4310.000000	85.942444	132.9460
4370.000000	86.203331	132.9573
4440.000000	86.496681	132.5514
4500.000000	86.743950	131.9155
4550.000000	86.922974	131.2919
4620.000000	87.170654	130.1109
4680.000000	87.364388	128.6245
4750.000000	87.514633	126.5000
4820.000000	87.573677	124.2098
4870.000000	87.566978	122.5403
4940.000000	87.490662	120.1918
5000.000000	87.361267	118.1701
5080.000000	87.125954	116.0896
5150.000000	86.850449	114.5744
5220.000000	86.529381	113.3459
5300.000000	86.138885	112.4866
5380.000000	85.734322	112.1638
5450.000000	85.376335	112.2843
5520.000000	84.985260	112.7482
5600.000000	84.549919	113.6776
5700.000000	84.043846	115.3549
5800.000000	83.616859	117.4063
5900.000000	83.241371	119.9477
6000.000000	82.922310	122.6253
6080.000000	82.730438	125.0329
6150.000000	82.589226	127.2296
6220.000000	82.496613	129.4077
6300.000000	82.413727	131.9582
6400.000000	82.359207	135.1671
6500.000000	82.394753	138.6727
6600.000000	82.492035	141.7562
6700.000000	82.622040	145.0557
6800.000000	82.836281	148.2416
6900.000000	83.138428	151.3280
7000.000000	83.521385	154.1956
7100.000000	84.002625	156.6354
7200.000000	84.557961	158.7677
7300.000000	85.173187	160.2437
7400.000000	85.865311	160.9364
7500.000000	86.548286	160.5521
7620.000000	87.363823	158.5163
7750.000000	88.042107	154.3469
7880.000000	88.371750	148.5964
8000.000000	88.236755	142.9222
8120.000000	87.772011	138.1600
8250.000000	86.861931	135.4387
8380.000000	85.922974	136.9972
8500.000000	85.567558	140.3504
8620.000000	85.407112	141.6996
8750.000000	85.041504	142.9658
8850.000000	84.728516	144.5562
9000.000000	84.368736	147.7093
9120.000000	84.190125	150.2560
9250.000000	84.061676	152.9304
9380.000000	84.000252	155.3112
9500.000000	83.998764	157.1162
9620.000000	84.022301	158.3718
9750.000000	84.016678	159.1701
9880.000000	83.941826	159.1007
10000.000000	83.720169	158.5516
10150.000000	83.256500	158.4731
10300.000000	82.594086	159.6893
10440.000000	81.971642	162.0954
10600.000000	81.336273	166.5391
10750.000000	80.929276	171.6436
10900.000000	80.726631	176.8596
11060.000000	80.708252	-177.6723
11200.000000	80.819443	-173.7461
11380.000000	81.103050	-170.1947
11500.000000	81.302940	-168.9013
11720.000000	81.466316	-168.5829
11800.000000	81.423126	-168.8859
12060.000000	80.856873	-170.1055
12200.000000	80.370712	-169.7392
12410.000000	79.492218	-167.7899
12500.000000	79.123802	-166.1107
12650.000000	78.527657	-162.7774
12800.000000	77.998917	-158.7133
13150.000000	77.060379	-147.0303
13200.000000	76.963234	-145.3703
13400.000000	76.646774	-138.2947
13600.000000	76.470322	-131.4984
13800.000000	76.395378	-125.5465
14000.000000	76.340675	-119.9187
14300.000000	76.058418	-111.5795
14500.000000	75.841911	-105.3564
14750.000000	75.595718	-96.4549
15000.000000	75.679253	-86.2600
15250.000000	76.332619	-76.4722
15500.000000	77.448006	-68.9081
15750.000000	79.113121	-67.3731
16000.000000	80.465759	-76.4263
16250.000000	79.817169	-92.3563
16500.000000	77.318436	-100.3729
16750.000000	74.620972	-97.9994
17000.000000	72.360458	-89.7424
17250.000000	70.734131	-79.0743
17500.000000	69.273506	-67.1783
17750.000000	68.298401	-55.7390
18000.000000	67.496979	-47.5879
18250.000000	67.046585	-39.2200
18500.000000	66.698578	-30.0665
18750.000000	66.807365	-18.9396
19000.000000	66.846626	-7.0354
19250.000000	67.297729	4.6218
19500.000000	67.739319	16.7678
19750.000000	68.166382	27.6037
