* Measurement data measured by REW V5.20 Beta 47
* Source: Microphone (Realtek Audio), MICROPHONE (Master Volume), R, volume: 0.250
* Format: 256k Log Swept Sine, 1 sweep at -12.0 dBFS with no timing reference
* Dated: Aug 19, 2020 9:35:00 AM
* REW Settings:
*  C-weighting compensation: Off
*  Target level: 75.0 dB
* Note: ; 
* Measurement: Kinera Sif R
* Smoothing: None
* Frequency Step: 1/48 octave
* Start Frequency: 20.000 Hz
*
* Freq(Hz)	SPL(dB)	Phase(degrees)
20.0000	92.3058	29.85
20.3000	92.3228	29.52
20.6000	92.3638	29.20
20.9000	92.4247	28.84
21.2000	92.4971	28.36
21.4000	92.5430	28.00
21.8000	92.6234	27.19
22.0000	92.6609	26.80
22.4000	92.7472	26.10
22.7000	92.8133	25.58
23.0000	92.8775	25.02
23.3000	92.9337	24.45
23.6000	92.9717	23.91
24.0000	92.9938	23.40
24.3000	93.0090	23.29
24.7000	93.0667	23.42
25.0000	93.1535	23.53
25.4000	93.3110	23.37
25.8000	93.4586	22.69
26.2000	93.5312	21.70
26.5000	93.5282	21.01
26.9000	93.4846	20.47
27.2000	93.4602	20.35
27.6000	93.4797	20.31
28.0000	93.5509	19.98
28.5000	93.6135	18.88
29.0000	93.5541	17.68
29.5000	93.4208	17.20
30.0000	93.3845	17.64
30.4000	93.4922	17.91
30.7000	93.6217	17.67
31.1000	93.7687	16.67
31.5000	93.8150	15.31
32.0000	93.7256	14.17
32.5000	93.6442	14.41
33.0000	93.7669	15.17
33.5000	94.0526	14.92
34.0000	94.2456	13.28
34.5000	94.2007	11.64
35.0000	94.0375	11.43
35.5000	94.0350	12.54
36.0000	94.2789	13.07
36.5000	94.5328	11.86
37.0000	94.5627	9.81
37.5000	94.3693	8.55
38.2000	94.1485	9.10
38.7000	94.1986	9.70
39.5000	94.3230	8.99
40.0000	94.3071	8.38
40.6000	94.2893	8.05
41.2000	94.3207	7.57
41.8000	94.3129	6.77
42.5000	94.2352	6.26
43.1000	94.2198	6.30
43.7000	94.2674	6.12
44.4000	94.3001	5.48
45.0000	94.2827	5.02
45.5000	94.2735	4.81
46.2000	94.2871	4.49
46.8000	94.2928	4.06
47.5000	94.2686	3.62
48.2000	94.2430	3.39
48.7000	94.2415	3.28
49.4000	94.2586	3.06
50.0000	94.2796	2.77
50.8000	94.2934	2.23
51.5000	94.2817	1.83
52.2000	94.2870	1.58
53.0000	94.3230	1.00
53.8000	94.2745	0.16
54.5000	94.1868	0.05
55.2000	94.1887	0.31
56.0000	94.2647	0.08
57.0000	94.2906	-0.71
58.0000	94.2735	-1.18
59.0000	94.3241	-1.60
60.0000	94.3096	-2.88
60.8000	94.1510	-3.21
61.5000	94.1064	-2.64
62.2000	94.1816	-2.57
63.0000	94.2017	-3.26
64.0000	94.1368	-3.59
65.0000	94.1602	-3.84
66.0000	94.1277	-4.57
67.0000	94.0669	-4.37
68.0000	94.1887	-4.70
69.0000	94.0901	-5.51
70.0000	94.1463	-4.98
71.0000	94.1043	-6.99
72.0000	93.6903	-5.44
73.0000	94.0994	-3.71
74.0000	94.1929	-6.62
75.0000	93.9745	-6.85
76.2000	94.0146	-7.47
77.5000	93.9313	-7.85
78.8000	93.9369	-8.38
80.0000	93.8973	-8.60
81.2000	93.8837	-8.94
82.5000	93.8220	-9.30
83.8000	93.8262	-9.57
85.0000	93.7850	-10.15
86.2000	93.7915	-10.30
87.5000	93.7561	-10.74
88.5000	93.7712	-10.50
90.0000	93.8120	-11.31
91.2000	93.7058	-11.78
92.5000	93.6192	-12.02
93.8000	93.5382	-12.30
95.0000	93.5166	-12.41
96.2000	93.5082	-12.80
97.5000	93.5114	-13.10
98.8000	93.4671	-13.50
100.0000	93.4477	-13.63
101.5000	93.3867	-13.96
103.0000	93.3064	-14.12
104.4000	93.3728	-14.23
106.0000	93.2429	-14.59
107.5000	93.1939	-14.93
109.0000	93.2446	-13.49
110.6000	93.2112	-15.52
112.0000	93.1458	-15.59
113.8000	93.0030	-15.98
115.0000	93.0299	-16.49
117.2000	92.9386	-16.80
118.0000	92.9470	-16.67
120.6000	92.9302	-17.41
122.0000	92.9081	-17.27
124.1000	92.8804	-17.60
125.0000	92.8556	-17.88
126.5000	92.7423	-18.26
128.0000	92.7011	-18.11
131.5000	92.5920	-18.94
132.0000	92.5774	-19.05
134.0000	92.5477	-19.09
136.0000	92.4634	-19.52
138.0000	92.4121	-19.50
140.0000	92.3363	-19.73
143.0000	92.1891	-20.54
145.0000	92.1027	-20.89
147.5000	92.1322	-21.07
150.0000	92.0703	-21.34
152.5000	91.9556	-20.90
155.0000	91.8101	-20.87
157.5000	91.8114	-21.31
160.0000	91.7848	-21.59
162.5000	91.7296	-21.69
165.0000	91.6976	-21.97
167.5000	91.5893	-22.87
170.0000	91.5727	-22.68
172.5000	91.4642	-22.55
175.0000	91.3764	-23.04
177.5000	91.4022	-22.72
180.0000	90.9560	-23.89
182.5000	91.1462	-23.45
185.0000	90.9838	-23.47
187.5000	91.0712	-22.84
190.0000	90.9383	-23.36
192.5000	90.9241	-23.63
195.0000	90.8918	-23.41
197.5000	90.7320	-24.76
200.0000	90.6946	-24.54
203.0000	90.5481	-23.71
206.0000	90.4643	-24.39
209.0000	90.3557	-24.04
212.0000	90.2641	-24.71
214.0000	90.1464	-23.89
218.0000	90.1289	-24.06
220.0000	90.0470	-24.25
224.0000	89.9826	-24.97
227.0000	89.8914	-24.56
230.0000	89.8170	-25.06
233.0000	89.7801	-24.78
236.0000	89.7100	-24.37
240.0000	89.5767	-24.78
243.0000	89.4485	-24.72
247.0000	89.4157	-24.17
250.0000	89.3774	-24.92
254.0000	89.2889	-24.94
258.0000	89.1369	-24.47
262.0000	88.9685	-24.28
265.0000	88.9289	-24.75
269.0000	88.7802	-24.07
272.0000	88.6938	-24.34
276.0000	88.6461	-24.07
280.0000	88.5052	-24.01
285.0000	88.2894	-24.28
290.0000	88.2257	-24.15
295.0000	88.1329	-23.76
300.0000	88.0412	-23.07
304.0000	87.9281	-23.09
307.0000	87.9197	-23.12
311.0000	87.7209	-23.21
315.0000	87.6316	-22.83
320.0000	87.5805	-22.64
325.0000	87.4881	-22.44
330.0000	87.4335	-22.22
335.0000	87.2753	-22.04
340.0000	87.1881	-21.76
345.0000	87.0996	-20.88
350.0000	86.9123	-20.99
355.0000	86.8686	-20.67
360.0000	86.7473	-20.40
365.0000	86.6001	-20.35
370.0000	86.5397	-19.83
375.0000	86.4536	-20.19
382.0000	86.2876	-19.25
387.0000	86.1380	-18.62
395.0000	85.9318	-17.91
400.0000	85.8769	-18.20
406.0000	85.7361	-17.33
412.0000	85.6073	-17.38
418.0000	85.4701	-16.47
425.0000	85.4226	-15.93
431.0000	85.2061	-15.59
437.0000	85.1456	-15.19
444.0000	84.9883	-14.96
450.0000	84.8864	-14.01
455.0000	84.8558	-13.93
462.0000	84.6729	-13.13
468.0000	84.5701	-12.46
475.0000	84.4728	-11.97
482.0000	84.3196	-11.48
487.0000	84.2600	-10.95
494.0000	84.1283	-10.31
500.0000	84.0162	-9.55
508.0000	83.8478	-8.93
515.0000	83.7128	-8.25
522.0000	83.6367	-7.94
530.0000	83.4818	-6.91
538.0000	83.3403	-6.06
545.0000	83.2120	-5.16
552.0000	83.0875	-4.46
560.0000	83.0020	-4.02
570.0000	82.7984	-2.74
580.0000	82.5929	-1.53
590.0000	82.4500	-0.09
600.0000	82.2977	0.51
608.0000	82.1689	1.79
615.0000	82.1227	2.40
622.0000	81.9841	3.38
630.0000	81.8097	4.48
640.0000	81.7279	6.05
650.0000	81.4716	6.78
660.0000	81.4792	8.33
670.0000	81.3585	9.50
680.0000	81.1517	10.88
690.0000	81.1070	12.11
700.0000	80.8311	13.80
710.0000	80.7805	15.56
720.0000	80.6561	16.99
730.0000	80.4852	17.93
740.0000	80.3636	20.05
750.0000	80.2202	22.17
762.0000	80.0481	24.18
775.0000	80.0034	26.10
788.0000	79.7717	28.94
800.0000	79.6522	31.55
812.0000	79.5267	34.71
825.0000	79.5881	37.61
838.0000	79.7097	40.07
850.0000	79.6835	42.35
862.0000	79.6687	44.40
875.0000	79.7046	46.34
885.0000	79.6324	48.13
900.0000	79.5877	50.95
912.0000	79.7470	54.31
925.0000	79.8183	56.71
938.0000	79.9465	60.36
950.0000	80.0267	62.19
962.0000	80.1767	64.53
975.0000	80.4419	66.11
988.0000	80.6816	69.30
1000.0000	80.8036	71.36
1015.0000	81.0587	73.22
1030.0000	81.3269	74.14
1044.0000	81.5787	75.62
1060.0000	82.3747	78.58
1075.0000	82.2600	81.59
1090.0000	82.4789	80.65
1106.0000	82.9786	81.57
1120.0000	82.8198	81.10
1138.0000	83.3118	82.75
1150.0000	83.5010	82.57
1172.0000	83.8107	83.59
1180.0000	83.8460	83.49
1206.0000	84.1557	84.62
1220.0000	84.2904	85.06
1241.0000	84.4854	85.42
1250.0000	84.6261	85.50
1265.0000	84.7264	86.12
1280.0000	84.9578	85.93
1315.0000	85.1701	86.59
1320.0000	85.1923	86.32
1340.0000	85.3405	86.65
1360.0000	85.4377	86.71
1380.0000	85.4904	87.28
1400.0000	85.6152	87.57
1430.0000	85.7266	88.56
1450.0000	85.8255	88.96
1475.0000	85.8671	89.52
1500.0000	85.9907	90.04
1525.0000	85.9756	91.03
1550.0000	86.0756	92.13
1575.0000	86.2258	92.76
1600.0000	86.3292	93.30
1625.0000	86.3359	94.55
1650.0000	86.4480	95.53
1675.0000	86.5325	96.69
1700.0000	86.6670	97.65
1725.0000	86.7400	98.66
1750.0000	86.8663	99.49
1775.0000	86.9453	100.28
1800.0000	87.0442	101.36
1825.0000	87.1743	102.26
1850.0000	87.2969	103.15
1875.0000	87.4110	104.23
1900.0000	87.5352	105.26
1925.0000	87.6619	106.19
1950.0000	87.8164	106.97
1975.0000	87.8683	107.94
2000.0000	88.0245	108.58
2030.0000	88.1695	109.61
2060.0000	88.3257	110.45
2090.0000	88.5132	111.50
2120.0000	88.6723	112.19
2140.0000	88.8002	112.52
2180.0000	89.0055	113.42
2200.0000	89.1286	113.69
2240.0000	89.3659	114.46
2270.0000	89.5227	114.84
2300.0000	89.6674	115.19
2330.0000	89.8394	115.33
2360.0000	90.0107	115.50
2400.0000	90.1780	115.61
2430.0000	90.3105	115.64
2470.0000	90.4735	115.42
2500.0000	90.5749	115.21
2540.0000	90.6830	114.95
2580.0000	90.7753	114.53
2620.0000	90.8222	114.26
2650.0000	90.8490	113.97
2690.0000	90.8715	113.63
2720.0000	90.8662	113.43
2760.0000	90.8187	113.08
2800.0000	90.7618	112.96
2850.0000	90.6624	112.82
2900.0000	90.5303	112.83
2950.0000	90.3740	113.07
3000.0000	90.2462	113.52
3040.0000	90.0933	114.09
3070.0000	90.0113	114.60
3110.0000	89.8537	115.08
3150.0000	89.7302	116.10
3200.0000	89.5922	117.28
3250.0000	89.4485	118.54
3300.0000	89.3173	119.98
3350.0000	89.1696	121.35
3400.0000	89.0648	123.33
3450.0000	89.0397	125.02
3500.0000	89.0003	126.40
3550.0000	88.9960	128.19
3600.0000	88.9839	129.85
3650.0000	88.9822	131.51
3700.0000	89.0123	133.35
3750.0000	88.9916	135.30
3820.0000	89.0648	137.86
3870.0000	89.1176	139.81
3950.0000	89.2925	143.12
4000.0000	89.4088	144.78
4060.0000	89.6043	146.58
4120.0000	89.7403	148.28
4180.0000	89.8651	150.11
4250.0000	90.1063	151.77
4310.0000	90.2897	153.37
4370.0000	90.5217	154.66
4440.0000	90.7903	156.36
4500.0000	91.0442	157.29
4550.0000	91.2840	158.21
4620.0000	91.6156	159.64
4680.0000	91.8826	160.03
4750.0000	92.2416	160.76
4820.0000	92.6421	160.90
4870.0000	92.9021	160.97
4940.0000	93.2780	160.51
5000.0000	93.5491	159.65
5080.0000	93.9310	157.98
5150.0000	94.1912	156.27
5220.0000	94.3893	153.93
5300.0000	94.4900	150.92
5380.0000	94.4891	147.91
5450.0000	94.3476	145.42
5520.0000	94.0805	143.21
5600.0000	93.6601	141.20
5700.0000	93.0670	139.76
5800.0000	92.4233	139.54
5900.0000	91.7848	140.02
6000.0000	91.1431	141.24
6080.0000	90.7124	142.86
6150.0000	90.2949	144.88
6220.0000	90.0234	146.64
6300.0000	89.6463	149.55
6400.0000	89.3455	153.14
6500.0000	89.0678	157.17
6600.0000	88.9687	161.36
6700.0000	88.8990	165.51
6800.0000	88.9724	169.48
6900.0000	89.1554	173.51
7000.0000	89.4116	177.54
7100.0000	89.8238	-179.10
7200.0000	90.2727	-175.68
7300.0000	90.9125	-172.73
7400.0000	91.6810	-170.61
7500.0000	92.4773	-169.30
7620.0000	93.5899	-169.34
7750.0000	94.9244	-171.86
7880.0000	96.1599	-178.57
8000.0000	96.9134	170.31
8120.0000	96.8101	156.92
8250.0000	95.6452	144.71
8380.0000	93.9485	137.60
8500.0000	92.3280	135.06
8620.0000	90.6390	135.14
8750.0000	89.1056	140.14
8850.0000	88.5918	143.45
9000.0000	87.4787	147.57
9120.0000	86.6894	152.29
9250.0000	85.9982	157.80
9380.0000	85.5551	163.73
9500.0000	85.1869	168.60
9620.0000	85.0424	175.00
9750.0000	84.8886	-179.51
9880.0000	84.9499	-173.22
10000.0000	85.1271	-168.15
10150.0000	85.5433	-161.90
10300.0000	86.1566	-156.40
10440.0000	87.0615	-151.03
10600.0000	88.3033	-147.96
10750.0000	89.9176	-147.21
10900.0000	91.7883	-151.87
11060.0000	93.5197	-165.32
11200.0000	93.7679	176.59
11380.0000	91.8676	157.74
11500.0000	90.1238	152.28
11720.0000	87.3410	151.21
11800.0000	86.4793	152.38
12060.0000	84.5664	159.86
12200.0000	83.9206	164.57
12410.0000	83.3309	171.75
12500.0000	83.2550	175.03
12650.0000	83.2788	179.12
12800.0000	83.3521	-177.32
13150.0000	84.3904	-170.87
13200.0000	84.7411	-170.63
13400.0000	86.0575	-172.18
13600.0000	87.4825	176.85
13800.0000	87.3895	156.79
14000.0000	85.0770	140.99
14300.0000	80.9586	137.14
14500.0000	78.8806	141.42
14750.0000	76.6068	151.88
15000.0000	75.3117	161.80
15250.0000	74.9271	175.82
15500.0000	74.6203	-176.74
15750.0000	74.9696	-169.64
16000.0000	76.2041	-165.19
16250.0000	77.6004	-168.96
16500.0000	78.6061	173.25
16750.0000	76.0883	151.27
17000.0000	72.1459	148.98
17250.0000	68.6387	155.08
17500.0000	65.7262	169.63
17750.0000	65.2608	170.37
18000.0000	62.8726	-174.82
18250.0000	60.8124	-154.39
18500.0000	60.9597	-147.44
18750.0000	59.8727	-129.82
19000.0000	60.9102	-131.46
19250.0000	59.8674	-107.54
19500.0000	59.6241	-104.09
19750.0000	60.9404	-94.88
