* Measurement data measured by REW V5.20 Beta 60
* Source: Headset (USB-C to 3.5mm Headphone Jack Adapter), MICROPHONE (Master Volume), R, volume: 0.000
* Format: 256k Log Swept Sine, 1 sweep at -12.0 dBFS with no timing reference
* Dated: Dec 12, 2020 5:31:47 PM
* REW Settings:
*  C-weighting compensation: Off
*  Target level: 75.0 dB
* Note: ; 
* Measurement: Moondrop SSP L
* Smoothing: None
* Frequency Step: 1/48 octave
* Start Frequency: 20.000 Hz
*
* Freq(Hz)	SPL(dB)	Phase(degrees)
20.000000	87.557236	-140.1323
20.299999	87.641174	-140.7329
20.600000	87.704895	-141.3565
20.900000	87.745918	-141.9091
21.200001	87.777298	-142.3178
21.400000	87.801331	-142.4944
21.799999	87.872391	-142.7022
22.000000	87.923927	-142.8098
22.400000	88.053322	-143.2325
22.700001	88.144196	-143.7592
23.000000	88.204941	-144.4003
23.299999	88.230896	-144.9971
23.600000	88.231857	-145.3938
24.000000	88.233597	-145.5051
24.299999	88.271484	-145.3930
24.700001	88.383957	-145.3223
25.000000	88.489174	-145.5481
25.400000	88.602066	-146.2598
25.799999	88.635300	-147.0522
26.200001	88.612404	-147.4413
26.500000	88.608849	-147.3660
26.900000	88.678658	-147.0168
27.200001	88.793503	-146.9412
27.600000	88.979301	-147.4648
28.000000	89.108521	-148.6507
28.500000	89.123466	-150.3159
29.000000	89.049500	-151.3004
29.500000	89.026169	-151.7164
30.000000	89.065376	-152.3769
30.400000	89.065590	-153.2449
30.700001	89.018211	-153.8455
31.100000	88.922958	-154.1712
31.500000	88.873459	-153.8801
32.000000	88.974266	-153.3594
32.500000	89.190842	-153.7923
33.000000	89.329185	-155.2289
33.500000	89.308762	-156.6826
34.000000	89.221016	-157.2929
34.500000	89.206635	-157.2836
35.000000	89.271851	-157.3864
35.500000	89.328667	-157.8339
36.000000	89.336838	-158.1888
36.500000	89.348038	-158.1862
37.000000	89.416962	-158.0936
37.500000	89.524231	-158.3392
38.200001	89.620041	-159.2744
38.700001	89.616135	-159.9789
39.500000	89.555389	-160.4799
40.000000	89.551178	-160.3865
40.599998	89.631508	-160.3241
41.200001	89.758682	-160.9146
41.799999	89.817589	-162.0830
42.500000	89.759369	-163.1597
43.099998	89.718292	-163.4302
43.700001	89.744102	-163.6761
44.400002	89.767181	-164.2875
45.000000	89.747063	-164.6345
45.500000	89.750626	-164.6947
46.200001	89.800560	-164.8906
46.799999	89.825661	-165.2948
47.500000	89.825745	-165.6191
48.200001	89.853172	-165.8811
48.700001	89.874756	-166.2828
49.400002	89.852432	-166.9256
50.000000	89.810440	-167.1761
50.799999	89.823143	-167.3512
51.500000	89.867928	-167.8086
52.200001	89.881485	-168.4251
53.000000	89.877792	-168.9417
53.799999	89.890800	-169.3042
54.500000	89.909424	-169.5921
55.200001	89.935074	-169.8501
56.000000	89.973335	-170.1958
57.000000	89.998528	-170.9110
58.000000	89.935204	-171.6110
59.000000	89.866455	-171.6850
60.000000	89.895584	-171.8667
60.799999	89.906693	-172.3800
61.500000	89.899460	-172.8312
62.200001	89.881157	-173.2557
63.000000	89.844330	-173.5126
64.000000	89.860321	-173.5196
65.000000	89.906273	-174.0127
66.000000	89.870880	-174.5166
67.000000	89.846481	-174.7574
68.000000	89.824417	-175.1418
69.000000	89.809555	-175.4701
70.000000	89.806297	-175.9398
71.000000	89.786591	-176.2232
72.000000	89.826340	-176.2001
73.000000	89.941589	-176.3283
74.000000	90.073975	-177.4154
75.000000	89.915825	-178.9325
76.199997	89.697289	-177.6947
77.500000	89.806557	-177.8541
78.800003	89.720985	-178.0499
80.000000	89.718452	-178.7851
81.199997	89.651665	-178.8864
82.500000	89.690445	-179.4825
83.800003	89.653053	-179.7498
85.000000	89.644363	-179.9575
86.199997	89.634689	179.8106
87.500000	89.577835	179.4293
88.500000	89.552643	179.2714
90.000000	89.532509	178.8080
91.199997	89.483437	178.3380
92.500000	89.481674	178.5198
93.800003	89.506897	177.8730
95.000000	89.473625	177.7854
96.199997	89.468246	177.2796
97.500000	89.402573	177.1603
98.800003	89.396126	176.8950
100.000000	89.353966	176.7465
101.500000	89.346367	176.5020
103.000000	89.301941	176.4607
104.400002	89.293579	175.5434
106.000000	89.131943	176.1688
107.500000	89.204002	175.5543
109.000000	89.146866	175.4550
110.599998	89.091858	175.0623
112.000000	89.039085	175.0115
113.800003	88.927414	174.4867
115.000000	89.036331	175.5281
117.199997	88.948189	173.8415
118.000000	88.971352	174.3955
120.599998	88.903671	173.5618
122.000000	88.871933	173.6936
124.099998	88.931038	173.6683
125.000000	88.743889	171.9444
126.500000	88.729355	174.6857
128.000000	88.795273	173.0454
131.500000	88.633347	173.0565
132.000000	88.653748	172.7978
134.000000	88.645020	172.5977
136.000000	88.386887	171.3204
138.000000	88.582619	172.0206
140.000000	88.605850	170.7065
143.000000	88.523544	172.0799
145.000000	88.418198	172.6590
147.500000	88.159325	171.9216
150.000000	88.118637	170.9252
152.500000	88.090919	171.1460
155.000000	88.328606	171.5858
157.500000	87.959572	172.1049
160.000000	87.986664	171.3732
162.500000	87.713287	169.8960
165.000000	87.832764	170.1932
167.500000	87.793762	169.9789
170.000000	87.688629	169.3559
172.500000	87.748932	169.0279
175.000000	87.643684	169.6413
177.500000	87.607819	170.0835
180.000000	87.588814	169.9933
182.500000	87.566833	170.4143
185.000000	87.594482	170.8105
187.500000	87.431870	169.1526
190.000000	87.296516	172.0053
192.500000	87.212639	170.4741
195.000000	87.154343	170.6390
197.500000	87.104004	170.6078
200.000000	87.036316	170.5374
203.000000	86.949829	170.3844
206.000000	86.863586	170.7931
209.000000	86.850777	170.6826
212.000000	86.775902	170.5131
214.000000	86.768250	170.6076
218.000000	86.642296	171.4660
220.000000	86.570480	171.2202
224.000000	86.577080	171.1470
227.000000	86.451324	171.4022
230.000000	86.468941	171.7410
233.000000	86.367676	171.8126
236.000000	86.368744	172.4809
240.000000	86.268471	171.0673
243.000000	86.240417	172.4366
247.000000	86.170761	171.7647
250.000000	86.025314	172.1634
254.000000	85.951828	173.0313
258.000000	85.839165	173.3998
262.000000	85.872253	173.7963
265.000000	85.749763	171.8638
269.000000	85.707947	172.3256
272.000000	85.675400	173.7639
276.000000	85.445862	173.6381
280.000000	85.501419	173.3668
285.000000	85.450363	174.5705
290.000000	85.286774	174.3110
295.000000	85.330078	174.9844
300.000000	85.187614	175.3627
304.000000	85.106155	175.8337
307.000000	85.056122	175.9432
311.000000	85.051071	175.8065
315.000000	85.012901	175.9268
320.000000	84.762894	175.9497
325.000000	84.667557	176.8179
330.000000	84.690338	177.2337
335.000000	84.679184	177.7116
340.000000	84.610275	178.8307
345.000000	84.511055	178.8240
350.000000	84.452904	179.2609
355.000000	84.305016	-179.7308
360.000000	84.272194	179.5834
365.000000	84.274231	-179.1710
370.000000	84.100372	-178.6456
375.000000	84.117325	-179.1638
382.000000	83.879639	-177.8614
387.000000	83.945984	-177.5442
395.000000	83.807213	-176.4055
400.000000	83.886658	-176.5666
406.000000	83.718033	-175.7854
412.000000	83.648178	-174.6684
418.000000	83.607101	-173.9412
425.000000	83.573875	-174.5421
431.000000	83.506508	-172.7801
437.000000	83.316917	-172.9633
444.000000	83.300964	-171.9993
450.000000	83.284065	-171.5503
455.000000	83.239937	-170.8731
462.000000	83.184036	-170.4230
468.000000	83.098656	-170.0489
475.000000	83.034973	-168.9311
482.000000	82.986473	-168.5235
487.000000	82.931015	-168.0608
494.000000	82.860214	-166.9156
500.000000	82.818810	-166.6188
508.000000	82.746353	-165.8282
515.000000	82.712410	-165.1622
522.000000	82.684715	-164.3165
530.000000	82.592911	-163.7160
538.000000	82.544960	-162.6512
545.000000	82.488350	-162.1250
552.000000	82.425827	-161.2430
560.000000	82.393768	-160.4498
570.000000	82.332001	-159.2812
580.000000	82.311615	-158.1841
590.000000	82.162086	-157.3995
600.000000	82.231300	-156.4906
608.000000	82.081299	-155.4027
615.000000	82.014862	-154.2777
622.000000	82.034271	-153.6330
630.000000	81.996414	-152.7436
640.000000	81.988037	-151.6572
650.000000	81.941574	-150.6907
660.000000	81.912842	-149.5563
670.000000	81.869164	-148.4077
680.000000	81.842194	-147.3072
690.000000	81.821136	-146.3590
700.000000	81.770042	-145.1240
710.000000	81.778938	-143.9656
720.000000	81.750847	-142.8659
730.000000	81.760658	-141.6446
740.000000	81.709579	-140.6328
750.000000	81.680443	-139.5988
762.000000	81.670609	-138.2394
775.000000	81.638603	-136.8397
788.000000	81.621536	-135.4088
800.000000	81.591301	-133.8469
812.000000	81.574501	-132.6362
825.000000	81.566315	-131.0001
838.000000	81.566147	-129.5007
850.000000	81.560616	-127.9416
862.000000	81.576088	-126.5907
875.000000	81.598984	-125.0385
885.000000	81.611603	-123.8964
900.000000	81.656601	-122.0901
912.000000	81.679230	-120.6155
925.000000	81.735847	-119.1641
938.000000	81.794418	-117.7366
950.000000	81.849754	-116.3987
962.000000	81.903999	-114.9637
975.000000	81.972000	-113.6057
988.000000	82.069038	-112.2487
1000.000000	82.187798	-110.7191
1015.000000	82.199196	-109.4914
1030.000000	82.281555	-107.9853
1044.000000	82.357613	-106.7465
1060.000000	82.458405	-105.2377
1075.000000	82.577515	-103.8708
1090.000000	82.693138	-102.6117
1106.000000	82.820915	-101.3064
1120.000000	82.943672	-100.2458
1138.000000	83.095543	-98.9289
1150.000000	83.192413	-98.0736
1172.000000	83.378044	-96.6910
1180.000000	83.433434	-96.1203
1206.000000	83.647858	-94.6565
1220.000000	83.752213	-93.8471
1241.000000	83.939354	-92.7439
1250.000000	83.979942	-92.3478
1265.000000	84.104950	-91.5608
1280.000000	84.218430	-90.8286
1315.000000	84.451752	-89.2038
1320.000000	84.489723	-88.9844
1340.000000	84.608170	-88.1070
1360.000000	84.733078	-87.2598
1380.000000	84.841766	-86.3737
1400.000000	84.968292	-85.5193
1430.000000	85.116661	-84.2114
1450.000000	85.219223	-83.3379
1475.000000	85.346931	-82.3260
1500.000000	85.468002	-81.1982
1525.000000	85.585495	-80.0539
1550.000000	85.700630	-78.9190
1575.000000	85.822685	-77.7916
1600.000000	85.940460	-76.5719
1625.000000	86.061478	-75.3088
1650.000000	86.205872	-74.1035
1675.000000	86.360977	-72.8848
1700.000000	86.514870	-71.7838
1725.000000	86.665230	-70.8076
1750.000000	86.813850	-69.8578
1775.000000	86.942551	-68.8840
1800.000000	87.070778	-67.9339
1825.000000	87.205391	-66.9007
1850.000000	87.334320	-65.9085
1875.000000	87.468781	-64.9192
1900.000000	87.610703	-63.9870
1925.000000	87.746307	-63.0090
1950.000000	87.884964	-62.0307
1975.000000	88.000191	-61.1160
2000.000000	88.079575	-60.4972
2030.000000	88.319580	-59.0796
2060.000000	88.500717	-57.9488
2090.000000	88.672714	-56.9080
2120.000000	88.854599	-55.9240
2140.000000	88.974564	-55.2817
2180.000000	89.212982	-54.0376
2200.000000	89.329964	-53.4107
2240.000000	89.576637	-52.4570
2270.000000	89.749100	-52.0115
2300.000000	89.920502	-51.8089
2330.000000	90.101318	-51.6211
2360.000000	90.274261	-51.4832
2400.000000	90.500832	-51.1425
2430.000000	90.684219	-50.6856
2470.000000	90.911659	-50.0007
2500.000000	91.084785	-49.5529
2540.000000	91.306465	-49.0495
2580.000000	91.518074	-48.6478
2620.000000	91.718353	-48.2958
2650.000000	91.865891	-48.1149
2690.000000	92.055069	-47.8425
2720.000000	92.196732	-47.5707
2760.000000	92.374214	-47.2846
2800.000000	92.575653	-47.0401
2850.000000	92.842758	-47.0074
2900.000000	93.106361	-47.4436
2950.000000	93.317818	-48.2483
3000.000000	93.460251	-48.8127
3040.000000	93.534462	-49.8509
3070.000000	93.566765	-50.4225
3110.000000	93.592743	-50.9968
3150.000000	93.602371	-51.4629
3200.000000	93.601395	-51.8356
3250.000000	93.601349	-52.0133
3300.000000	93.626549	-52.1065
3350.000000	93.682312	-52.3411
3400.000000	93.734634	-52.8490
3450.000000	93.764008	-53.4504
3500.000000	93.769257	-54.0962
3550.000000	93.747643	-54.6855
3600.000000	93.711037	-55.1799
3650.000000	93.668449	-55.5818
3700.000000	93.621841	-56.0350
3750.000000	93.550499	-56.5192
3820.000000	93.412132	-57.0712
3870.000000	93.294540	-57.3416
3950.000000	93.058975	-57.6148
4000.000000	92.876534	-57.7740
4060.000000	92.711647	-57.4720
4120.000000	92.526138	-57.1766
4180.000000	92.332474	-56.8219
4250.000000	92.125107	-56.0665
4310.000000	91.949394	-55.4164
4370.000000	91.782463	-54.7011
4440.000000	91.599861	-53.8037
4500.000000	91.449585	-52.9785
4550.000000	91.322311	-52.2162
4620.000000	91.157677	-51.1400
4680.000000	91.027885	-50.2265
4750.000000	90.881111	-49.0542
4820.000000	90.738289	-47.8523
4870.000000	90.639519	-46.9810
4940.000000	90.512825	-45.8232
5000.000000	90.402115	-44.8611
5080.000000	90.292297	-43.2249
5150.000000	90.199524	-41.9011
5220.000000	90.106178	-40.6253
5300.000000	90.003067	-39.1776
5380.000000	89.918320	-37.6806
5450.000000	89.839989	-36.3432
5520.000000	89.723404	-34.9953
5600.000000	89.603500	-33.4250
5700.000000	89.474388	-31.4041
5800.000000	89.367188	-29.5142
5900.000000	89.274017	-27.6153
6000.000000	89.193359	-25.7922
6080.000000	89.150772	-24.3320
6150.000000	89.124237	-23.0189
6220.000000	89.107117	-21.7980
6300.000000	89.108238	-20.4655
6400.000000	89.131912	-18.8431
6500.000000	89.160599	-17.2952
6600.000000	89.200531	-16.0020
6700.000000	89.265121	-14.7524
6800.000000	89.326790	-13.7070
6900.000000	89.412399	-12.7365
7000.000000	89.528511	-11.9444
7100.000000	89.637581	-11.3334
7200.000000	89.766808	-10.7405
7300.000000	89.918251	-10.2640
7400.000000	90.089394	-10.0855
7500.000000	90.259743	-10.3202
7620.000000	90.432930	-11.1274
7750.000000	90.575485	-12.6668
7880.000000	90.601166	-14.8229
8000.000000	90.518143	-17.3472
8120.000000	90.315102	-20.0448
8250.000000	89.935448	-23.0832
8380.000000	89.396187	-25.7248
8500.000000	88.794655	-27.6154
8620.000000	88.106537	-28.8688
8750.000000	87.290352	-29.4638
8850.000000	86.628036	-29.4179
9000.000000	85.652496	-28.5872
9120.000000	84.905937	-27.4068
9250.000000	84.122597	-25.6630
9380.000000	83.380203	-23.5538
9500.000000	82.722908	-21.3815
9620.000000	82.106194	-19.0362
9750.000000	81.487610	-16.4437
9880.000000	80.911110	-13.7468
10000.000000	80.377205	-11.5670
10150.000000	79.750969	-8.4393
10300.000000	79.144791	-5.3427
10440.000000	78.545868	-2.4341
10600.000000	77.835403	0.9415
10750.000000	77.184174	5.0099
10900.000000	76.575035	9.0622
11060.000000	75.963112	13.8226
11200.000000	75.496841	18.4694
11380.000000	74.971359	24.3583
11500.000000	74.690170	28.4175
11720.000000	74.290710	35.8198
11800.000000	74.128998	38.2417
12060.000000	73.906029	46.9566
12200.000000	73.774940	51.3469
12410.000000	73.822250	57.5948
12500.000000	73.845657	60.4602
12650.000000	73.950111	64.8487
12800.000000	74.109207	69.1897
13150.000000	74.652649	78.6276
13200.000000	74.731461	80.2040
13400.000000	75.223076	84.8718
13600.000000	75.822319	89.2611
13800.000000	76.523468	92.9392
14000.000000	77.350243	95.4362
14300.000000	78.769730	96.7767
14500.000000	79.764648	95.5300
14750.000000	80.947495	90.8003
15000.000000	81.765724	82.0198
15250.000000	81.876991	71.2557
15500.000000	81.306183	61.8006
15750.000000	80.389961	54.9997
16000.000000	79.457581	51.2036
16250.000000	78.658630	49.0053
16500.000000	78.122086	47.4233
16750.000000	77.876671	46.0463
17000.000000	77.882347	43.0865
17250.000000	78.139679	37.9253
17500.000000	78.425903	29.1753
17750.000000	78.445206	14.1499
18000.000000	77.638420	-5.9928
18250.000000	76.032463	-25.9142
18500.000000	74.030281	-41.8429
18750.000000	72.008308	-52.0714
19000.000000	70.190201	-59.5758
19250.000000	68.822021	-66.9737
19500.000000	67.444603	-74.9508
19750.000000	66.303001	-85.9971
