* Measurement data measured by REW V5.20 Beta 47
* Source: Headset (USB-C to 3.5mm Headphone Jack Adapter), MICROPHONE (Master Volume), L, volume: 0.000
* Format: 256k Log Swept Sine, 2 sweeps at -3.0 dBFS with no timing reference
* Dated: Jun 28, 2020 8:08:18 AM
* REW Settings:
*  C-weighting compensation: Off
*  Target level: 75.0 dB
* Note: ; 
* Measurement: Moondrop Spaceship R
* Smoothing: None
* Frequency Step: 1/48 octave
* Start Frequency: 20.000 Hz
*
* Freq(Hz)	SPL(dB)	Phase(degrees)
20.0000	83.3193	-134.20
20.3000	83.4172	-134.71
20.6000	83.5110	-135.27
20.9000	83.5939	-135.86
21.2000	83.6667	-136.46
21.4000	83.7096	-136.82
21.8000	83.7917	-137.45
22.0000	83.8371	-137.73
22.4000	83.9478	-138.32
22.7000	84.0399	-138.85
23.0000	84.1278	-139.50
23.3000	84.1996	-140.25
23.6000	84.2454	-141.02
24.0000	84.2668	-141.89
24.3000	84.2703	-142.33
24.7000	84.2886	-142.62
25.0000	84.3295	-142.72
25.4000	84.4255	-142.91
25.8000	84.5398	-143.30
26.2000	84.6406	-143.90
26.5000	84.6987	-144.38
26.9000	84.7573	-144.92
27.2000	84.8009	-145.24
27.6000	84.8736	-145.60
28.0000	84.9583	-146.04
28.5000	85.0564	-146.80
29.0000	85.1175	-147.60
29.5000	85.1544	-148.25
30.0000	85.1964	-148.71
30.4000	85.2460	-149.07
30.7000	85.2874	-149.37
31.1000	85.3400	-149.84
31.5000	85.3853	-150.34
32.0000	85.4301	-150.95
32.5000	85.4666	-151.52
33.0000	85.4943	-151.99
33.5000	85.5252	-152.30
34.0000	85.5883	-152.46
34.5000	85.7007	-152.79
35.0000	85.8209	-153.51
35.5000	85.8882	-154.53
36.0000	85.8859	-155.40
36.5000	85.8645	-155.87
37.0000	85.8873	-156.09
37.5000	85.9519	-156.51
38.2000	85.9954	-157.53
38.7000	85.9697	-158.08
39.5000	85.9797	-158.36
40.0000	86.0348	-158.70
40.6000	86.0687	-159.40
41.2000	86.0651	-159.80
41.8000	86.1235	-159.92
42.5000	86.2621	-160.68
43.1000	86.2959	-161.87
43.7000	86.2383	-162.61
44.4000	86.2203	-162.70
45.0000	86.2888	-162.96
45.5000	86.3264	-163.51
46.2000	86.3089	-164.08
46.8000	86.3162	-164.16
47.5000	86.3995	-164.50
48.2000	86.4397	-165.42
48.7000	86.4051	-166.01
49.4000	86.3475	-166.24
50.0000	86.3693	-166.23
50.8000	86.4623	-166.83
51.5000	86.4826	-167.73
52.2000	86.4570	-168.36
53.0000	86.4596	-168.83
53.8000	86.4698	-169.38
54.5000	86.4780	-169.74
55.2000	86.5181	-170.17
56.0000	86.5265	-170.97
57.0000	86.4678	-171.43
58.0000	86.4988	-171.74
59.0000	86.4987	-172.41
60.0000	86.5052	-172.95
60.8000	86.4832	-173.61
61.5000	86.4363	-173.91
62.2000	86.4323	-174.01
63.0000	86.4633	-174.39
64.0000	86.4608	-175.05
65.0000	86.4562	-175.51
66.0000	86.4525	-176.07
67.0000	86.4127	-176.45
68.0000	86.4187	-176.56
69.0000	86.4476	-177.01
70.0000	86.4417	-177.51
71.0000	86.4162	-178.02
72.0000	86.3996	-178.26
73.0000	86.4267	-178.86
74.0000	86.3851	-179.53
75.0000	86.3675	-179.94
76.2000	86.3212	179.56
77.5000	86.3414	179.32
78.8000	86.3081	178.63
80.0000	86.2701	178.38
81.2000	86.2449	177.89
82.5000	86.2022	177.35
83.8000	86.1908	176.85
85.0000	86.1979	176.26
86.2000	86.2014	176.33
87.5000	86.2768	175.37
88.5000	86.0567	176.50
90.0000	86.6747	176.57
91.2000	86.2351	173.67
92.5000	86.1260	175.09
93.8000	85.9440	174.29
95.0000	85.9803	174.34
96.2000	85.9192	173.38
97.5000	85.9363	172.92
98.8000	85.8888	172.38
100.0000	85.8508	172.24
101.5000	85.8278	172.34
103.0000	85.7989	171.79
104.4000	85.7396	171.52
106.0000	85.6881	170.70
107.5000	85.6109	170.88
109.0000	85.6321	170.48
110.6000	85.5831	170.34
112.0000	85.5529	169.97
113.8000	85.4964	169.49
115.0000	85.4282	169.25
117.2000	85.4225	169.04
118.0000	85.3995	168.79
120.6000	85.3799	168.47
122.0000	85.2783	168.32
124.1000	85.2733	168.20
125.0000	85.2184	167.90
126.5000	85.1906	167.98
128.0000	85.1184	167.49
131.5000	85.0815	167.17
132.0000	85.0781	167.02
134.0000	85.0128	166.89
136.0000	84.9343	166.84
138.0000	84.8771	166.70
140.0000	84.8249	165.97
143.0000	84.7605	165.87
145.0000	84.7071	165.83
147.5000	84.5597	165.65
150.0000	84.5665	165.31
152.5000	84.4958	165.04
155.0000	84.4926	164.85
157.5000	84.4267	165.09
160.0000	84.3386	164.83
162.5000	84.2936	164.40
165.0000	84.3515	164.39
167.5000	84.1803	164.43
170.0000	84.1803	164.01
172.5000	84.1567	163.76
175.0000	84.1080	164.12
177.5000	83.9709	163.68
180.0000	83.9509	164.24
182.5000	83.8483	164.03
185.0000	83.8374	163.68
187.5000	83.7551	163.81
190.0000	83.7186	163.75
192.5000	83.6555	163.65
195.0000	83.5976	163.57
197.5000	83.5086	163.62
200.0000	83.4421	163.56
203.0000	83.4077	163.82
206.0000	83.3568	163.72
209.0000	83.2751	163.54
212.0000	83.2137	163.53
214.0000	83.1693	163.83
218.0000	83.0884	163.68
220.0000	83.0242	163.78
224.0000	83.0129	163.89
227.0000	82.9616	163.68
230.0000	82.9213	163.64
233.0000	82.8725	163.91
236.0000	82.8531	164.56
240.0000	82.8029	164.34
243.0000	82.6715	164.36
247.0000	82.6345	164.34
250.0000	82.5684	164.43
254.0000	82.5399	164.30
258.0000	82.4562	164.74
262.0000	82.3876	164.77
265.0000	82.3790	164.91
269.0000	82.3295	164.54
272.0000	82.3259	165.06
276.0000	82.2559	165.05
280.0000	82.1730	165.88
285.0000	82.0197	165.83
290.0000	82.0122	165.73
295.0000	81.9453	166.37
300.0000	81.8895	166.50
304.0000	81.8681	166.59
307.0000	81.8101	166.62
311.0000	81.7236	167.06
315.0000	81.7004	167.33
320.0000	81.6164	167.53
325.0000	81.5441	167.96
330.0000	81.3818	167.89
335.0000	81.5131	168.20
340.0000	81.4186	168.43
345.0000	81.4254	168.61
350.0000	81.3115	169.10
355.0000	81.2925	169.54
360.0000	81.2340	169.76
365.0000	81.1947	170.08
370.0000	81.1722	170.14
375.0000	81.1753	170.15
382.0000	81.0381	170.86
387.0000	80.9510	171.20
395.0000	80.9207	172.17
400.0000	80.9004	171.95
406.0000	80.9091	173.16
412.0000	80.8266	172.22
418.0000	80.7999	173.25
425.0000	80.7088	173.57
431.0000	80.7054	174.10
437.0000	80.6703	174.50
444.0000	80.6064	174.73
450.0000	80.5724	175.21
455.0000	80.5593	175.66
462.0000	80.5501	175.67
468.0000	80.5011	176.06
475.0000	80.5011	176.53
482.0000	80.4562	177.09
487.0000	80.3192	177.35
494.0000	80.3824	177.51
500.0000	80.3664	177.87
508.0000	80.3233	178.64
515.0000	80.2498	178.86
522.0000	80.1255	179.02
530.0000	80.3345	-180.00
538.0000	80.2087	-179.61
545.0000	80.1600	-179.38
552.0000	80.1961	-178.50
560.0000	80.0817	-178.56
570.0000	79.9152	-177.17
580.0000	80.0169	-176.86
590.0000	80.0564	-176.18
600.0000	80.0255	-175.31
608.0000	79.9920	-174.79
615.0000	79.9690	-174.38
622.0000	79.9458	-173.88
630.0000	79.9136	-173.48
640.0000	79.9119	-172.83
650.0000	79.9484	-171.73
660.0000	79.9227	-170.48
670.0000	79.8499	-170.48
680.0000	79.8961	-169.47
690.0000	79.9122	-168.88
700.0000	79.9103	-168.05
710.0000	79.9413	-167.41
720.0000	79.8970	-166.85
730.0000	79.9064	-165.99
740.0000	79.8861	-165.35
750.0000	79.8999	-164.38
762.0000	79.9269	-163.58
775.0000	79.9215	-162.64
788.0000	79.9459	-161.58
800.0000	79.9763	-160.88
812.0000	79.9826	-160.04
825.0000	80.0032	-158.87
838.0000	80.0953	-158.02
850.0000	80.1068	-157.23
862.0000	80.1069	-156.04
875.0000	80.1490	-155.30
885.0000	80.1826	-154.48
900.0000	80.2682	-153.42
912.0000	80.3283	-152.56
925.0000	80.3725	-151.85
938.0000	80.4550	-150.61
950.0000	80.5307	-149.93
962.0000	80.5915	-149.05
975.0000	80.7032	-148.27
988.0000	80.7955	-147.24
1000.0000	80.9433	-146.38
1015.0000	80.9809	-145.67
1030.0000	81.0728	-144.96
1044.0000	81.1798	-144.11
1060.0000	81.2956	-143.33
1075.0000	81.4213	-142.69
1090.0000	81.5572	-142.01
1106.0000	81.7078	-141.38
1120.0000	81.8369	-140.90
1138.0000	81.9996	-140.33
1150.0000	82.1078	-139.98
1172.0000	82.3065	-139.49
1180.0000	82.3731	-139.32
1206.0000	82.5915	-138.87
1220.0000	82.7007	-138.64
1241.0000	82.8511	-138.43
1250.0000	82.9125	-138.39
1265.0000	83.0001	-138.19
1280.0000	83.1056	-137.89
1315.0000	83.3174	-137.19
1320.0000	83.3514	-137.08
1340.0000	83.4906	-136.76
1360.0000	83.6196	-136.41
1380.0000	83.7471	-136.04
1400.0000	83.8700	-135.77
1430.0000	84.0535	-135.24
1450.0000	84.1837	-134.87
1475.0000	84.3437	-134.45
1500.0000	84.4893	-134.02
1525.0000	84.6381	-133.56
1550.0000	84.8030	-133.09
1575.0000	84.9645	-132.58
1600.0000	85.1390	-132.15
1625.0000	85.3198	-131.71
1650.0000	85.4862	-131.36
1675.0000	85.6677	-130.99
1700.0000	85.8471	-130.62
1725.0000	86.0338	-130.32
1750.0000	86.2018	-130.04
1775.0000	86.3837	-129.75
1800.0000	86.5578	-129.49
1825.0000	86.7328	-129.22
1850.0000	86.9093	-128.96
1875.0000	87.0943	-128.69
1900.0000	87.2777	-128.49
1925.0000	87.4642	-128.23
1950.0000	87.6435	-128.06
1975.0000	87.8191	-127.92
2000.0000	87.9551	-128.01
2030.0000	88.2588	-127.51
2060.0000	88.5099	-127.32
2090.0000	88.7528	-127.25
2120.0000	89.0130	-127.22
2140.0000	89.1829	-127.22
2180.0000	89.5335	-127.31
2200.0000	89.7134	-127.39
2240.0000	90.0797	-127.87
2270.0000	90.3469	-128.54
2300.0000	90.6177	-129.48
2330.0000	90.9042	-130.55
2360.0000	91.1779	-131.71
2400.0000	91.5518	-133.18
2430.0000	91.8377	-134.22
2470.0000	92.2010	-135.60
2500.0000	92.4701	-136.84
2540.0000	92.8128	-138.69
2580.0000	93.1372	-140.78
2620.0000	93.4426	-143.17
2650.0000	93.6510	-145.06
2690.0000	93.8950	-147.82
2720.0000	94.0465	-150.07
2760.0000	94.2075	-153.10
2800.0000	94.2925	-156.29
2850.0000	94.3497	-160.37
2900.0000	94.2980	-164.29
2950.0000	94.1938	-168.09
3000.0000	94.0017	-171.31
3040.0000	93.8082	-174.41
3070.0000	93.6417	-176.16
3110.0000	93.4238	-178.48
3150.0000	93.1565	179.38
3200.0000	92.8108	177.13
3250.0000	92.4630	175.34
3300.0000	92.0678	173.92
3350.0000	91.7486	172.56
3400.0000	91.3878	171.42
3450.0000	91.0712	170.59
3500.0000	90.7838	170.00
3550.0000	90.4620	169.65
3600.0000	90.2020	169.00
3650.0000	89.8871	168.71
3700.0000	89.6072	168.63
3750.0000	89.3529	168.55
3820.0000	89.0299	168.73
3870.0000	88.7466	169.31
3950.0000	88.3621	169.70
4000.0000	88.1067	170.20
4060.0000	87.9221	171.68
4120.0000	87.7634	172.63
4180.0000	87.6068	173.56
4250.0000	87.4958	174.51
4310.0000	87.4627	174.71
4370.0000	87.3242	174.95
4440.0000	87.1752	175.55
4500.0000	87.0915	175.74
4550.0000	87.0327	176.57
4620.0000	86.8512	176.71
4680.0000	86.7546	177.70
4750.0000	86.6722	178.41
4820.0000	86.5205	179.06
4870.0000	86.4624	179.13
4940.0000	86.4480	-179.68
5000.0000	86.3540	-179.76
5080.0000	86.3224	-178.62
5150.0000	86.2966	-177.48
5220.0000	86.1704	-176.26
5300.0000	86.2204	-175.17
5380.0000	86.2146	-174.13
5450.0000	86.2212	-173.33
5520.0000	86.1472	-172.92
5600.0000	86.2302	-171.81
5700.0000	86.2903	-171.37
5800.0000	86.3162	-170.12
5900.0000	86.2324	-169.62
6000.0000	86.3405	-168.41
6080.0000	86.3923	-168.14
6150.0000	86.5960	-167.63
6220.0000	86.7261	-167.75
6300.0000	86.7019	-168.14
6400.0000	86.9131	-168.13
6500.0000	87.2120	-167.43
6600.0000	87.2731	-168.62
6700.0000	87.4264	-169.03
6800.0000	87.7670	-169.83
6900.0000	87.8762	-169.42
7000.0000	88.2797	-171.39
7100.0000	88.5209	-172.73
7200.0000	88.6088	-173.71
7300.0000	88.8064	-177.30
7400.0000	88.9052	-178.25
7500.0000	89.0778	179.73
7620.0000	89.2408	176.21
7750.0000	89.4891	171.00
7880.0000	89.3589	168.13
8000.0000	89.2608	164.04
8120.0000	89.3944	158.58
8250.0000	89.1156	155.32
8380.0000	88.9829	149.70
8500.0000	88.7654	142.22
8620.0000	88.5620	138.45
8750.0000	87.8554	131.28
8850.0000	86.8765	125.67
9000.0000	85.5074	121.60
9120.0000	85.0278	117.99
9250.0000	83.9442	115.53
9380.0000	82.5483	115.13
9500.0000	81.4116	111.85
9620.0000	81.0038	111.33
9750.0000	79.9657	110.30
9880.0000	78.6981	112.61
10000.0000	77.6574	111.70
10150.0000	77.1953	109.93
10300.0000	75.8043	110.09
10440.0000	75.2080	115.62
10600.0000	74.6745	115.56
10750.0000	73.4129	113.92
10900.0000	72.4663	115.57
11060.0000	72.1079	122.48
11200.0000	71.6054	124.33
11380.0000	70.4576	123.03
11500.0000	71.1124	125.48
11720.0000	70.3526	130.51
11800.0000	69.4060	126.51
12060.0000	69.6032	131.11
12200.0000	68.4767	138.26
12410.0000	68.0528	139.19
12500.0000	68.8372	142.93
12650.0000	68.9739	139.65
12800.0000	68.9158	140.70
13150.0000	68.8914	144.39
13200.0000	67.7666	149.98
13400.0000	68.2809	144.91
13600.0000	68.3179	157.42
13800.0000	68.6821	159.80
14000.0000	67.9789	155.20
14300.0000	70.2471	160.16
14500.0000	70.7389	162.30
14750.0000	69.5804	162.77
15000.0000	70.9780	166.24
15250.0000	73.1426	152.13
15500.0000	73.9828	156.19
15750.0000	76.6788	134.17
16000.0000	80.4446	116.13
16250.0000	79.6909	74.44
16500.0000	74.4298	53.85
16750.0000	73.5212	31.81
17000.0000	70.6633	22.82
17250.0000	65.6808	21.48
17500.0000	66.4979	6.81
17750.0000	64.7037	-1.26
18000.0000	60.0506	-12.67
18250.0000	62.3335	-34.89
18500.0000	61.4833	-54.68
18750.0000	59.5133	-57.84
19000.0000	59.1669	-105.53
19250.0000	55.8677	-120.71
19500.0000	57.8149	-154.92
19750.0000	61.8954	-176.25
