* Measurement data measured by REW V5.20 Beta 60
* Source: Headset (USB-C to 3.5mm Headphone Jack Adapter), MICROPHONE (Master Volume), R, volume: 0.000
* Format: 256k Log Swept Sine, 1 sweep at -12.0 dBFS with no timing reference
* Dated: Oct 10, 2020 3:15:31 PM
* REW Settings:
*  C-weighting compensation: Off
*  Target level: 75.0 dB
* Note: ; 
* Measurement: Moondrop KXXS R
* Smoothing: None
* Frequency Step: 1/48 octave
* Start Frequency: 20.000 Hz
*
* Freq(Hz)	SPL(dB)	Phase(degrees)
20.000000	91.910881	-159.9885
20.299999	91.886551	-160.1884
20.600000	91.898109	-160.4990
20.900000	91.923965	-160.8948
21.200001	91.963486	-161.2736
21.400000	92.005066	-161.4847
21.799999	92.138062	-161.9297
22.000000	92.229263	-162.2618
22.400000	92.436752	-163.3801
22.700001	92.566368	-164.5930
23.000000	92.637260	-165.9592
23.299999	92.644997	-167.2246
23.600000	92.603821	-168.1717
24.000000	92.521805	-168.7635
24.299999	92.485535	-168.7832
24.700001	92.501419	-168.5498
25.000000	92.554893	-168.4252
25.400000	92.651917	-168.5237
25.799999	92.735832	-168.8941
26.200001	92.785721	-169.4137
26.500000	92.799965	-169.8030
26.900000	92.796173	-170.1992
27.200001	92.793091	-170.3808
27.600000	92.813156	-170.5366
28.000000	92.868637	-170.8214
28.500000	92.949669	-171.7079
29.000000	92.954475	-173.0203
29.500000	92.863144	-174.0818
30.000000	92.774796	-174.4031
30.400000	92.787201	-174.4656
30.700001	92.841354	-174.7302
31.100000	92.909309	-175.5951
31.500000	92.904533	-176.8281
32.000000	92.767265	-178.0482
32.500000	92.595665	-178.2419
33.000000	92.540459	-177.7492
33.500000	92.614815	-177.5263
34.000000	92.716980	-177.9827
34.500000	92.783737	-178.8860
35.000000	92.802933	179.9898
35.500000	92.756462	178.7242
36.000000	92.612572	177.6756
36.500000	92.407326	177.4462
37.000000	92.279251	178.2542
37.500000	92.343163	179.3251
38.200001	92.631683	179.3392
38.700001	92.776901	178.1700
39.500000	92.761871	176.2889
40.000000	92.704857	175.7831
40.599998	92.696487	175.3898
41.200001	92.695389	174.5284
41.799999	92.589989	173.5616
42.500000	92.410934	173.4001
43.099998	92.382339	173.5271
43.700001	92.358871	172.7953
44.400002	92.123329	172.2020
45.000000	91.981308	173.5491
45.500000	92.145798	174.6420
46.200001	92.490105	173.4284
46.799999	92.470901	171.2466
47.500000	92.296707	170.7167
48.200001	92.400299	170.5681
48.700001	92.456314	169.1646
49.400002	92.197197	167.4689
50.000000	91.956650	168.2190
50.799999	92.040588	169.1948
51.500000	92.042496	168.5040
52.200001	91.960220	169.0629
53.000000	92.238159	169.3286
53.799999	92.323166	166.4156
54.500000	91.953888	165.4212
55.200001	91.857315	167.3177
56.000000	92.204948	166.9984
57.000000	91.968048	163.8959
58.000000	91.635521	165.9658
59.000000	91.865883	165.9667
60.000000	91.628952	164.6900
60.799999	91.460022	165.3654
61.500000	91.424477	165.7562
62.200001	91.426910	166.0662
63.000000	91.550537	165.7374
64.000000	91.509590	163.5222
65.000000	91.206604	163.3285
66.000000	91.244339	164.2439
67.000000	91.340668	163.3158
68.000000	91.198364	162.3076
69.000000	91.057785	162.6097
70.000000	91.056763	162.6129
71.000000	91.017006	162.2003
72.000000	91.023224	161.6148
73.000000	90.942833	160.4893
74.000000	90.800674	160.2786
75.000000	90.768486	160.5339
76.199997	90.827057	160.7162
77.500000	90.889992	160.0419
78.800003	90.847153	159.5280
80.000000	90.745140	158.5859
81.199997	90.496376	158.8330
82.500000	90.481522	159.5675
83.800003	90.480064	159.1028
85.000000	90.400620	158.6894
86.199997	90.334915	158.4573
87.500000	90.274529	158.3657
88.500000	90.274132	157.8549
90.000000	90.070419	157.3719
91.199997	90.015656	157.5730
92.500000	89.946136	157.7390
93.800003	89.979729	157.6041
95.000000	89.900307	157.1317
96.199997	89.844490	157.2494
97.500000	89.761765	157.0754
98.800003	89.740677	157.4055
100.000000	89.687721	156.8581
101.500000	89.608604	156.6925
103.000000	89.511681	156.6064
104.400002	89.498291	156.4227
106.000000	89.555977	156.1536
107.500000	89.451866	155.6542
109.000000	89.382828	156.0160
110.599998	89.373276	155.5615
112.000000	89.145935	155.6725
113.800003	89.082901	155.4131
115.000000	88.971199	155.5214
117.199997	88.817383	154.7668
118.000000	88.765091	155.2192
120.599998	88.644028	155.2937
122.000000	88.678024	155.4298
124.099998	88.607697	155.3165
125.000000	88.635567	155.3627
126.500000	88.585144	154.8136
128.000000	88.436066	155.2981
131.500000	88.371193	155.5058
132.000000	88.362228	155.4400
134.000000	88.225594	155.2765
136.000000	88.228165	155.2885
138.000000	88.164360	155.5863
140.000000	88.072845	155.9948
143.000000	87.928284	155.9409
145.000000	87.806831	155.6277
147.500000	87.804024	155.4092
150.000000	87.722275	155.1395
152.500000	87.680603	155.7919
155.000000	87.577774	155.7544
157.500000	87.488808	156.0751
160.000000	87.427872	155.9114
162.500000	87.421623	156.4145
165.000000	87.316711	156.0779
167.500000	87.234970	156.3492
170.000000	87.134262	156.3907
172.500000	87.056541	156.4398
175.000000	87.018105	156.7103
177.500000	86.879982	156.3803
180.000000	86.840218	156.6995
182.500000	86.809067	156.6963
185.000000	86.768814	157.1324
187.500000	86.655022	157.4403
190.000000	86.563126	157.6557
192.500000	86.499802	157.6733
195.000000	86.435822	157.8586
197.500000	86.371529	158.2787
200.000000	86.266426	158.3455
203.000000	86.197800	158.4717
206.000000	86.154877	158.4890
209.000000	86.097015	158.7704
212.000000	86.045715	159.1288
214.000000	85.913635	159.2758
218.000000	85.852669	159.6029
220.000000	85.861687	159.4630
224.000000	85.793640	159.7706
227.000000	85.754440	160.3499
230.000000	85.664749	160.5446
233.000000	85.612213	160.5974
236.000000	85.595352	160.9473
240.000000	85.514542	161.1836
243.000000	85.461761	161.1508
247.000000	85.378380	161.5854
250.000000	85.338043	161.9251
254.000000	85.249443	162.3896
258.000000	85.161407	162.6689
262.000000	85.111679	162.9991
265.000000	85.044037	163.4116
269.000000	84.977028	163.5978
272.000000	84.932327	163.9735
276.000000	84.856857	164.3193
280.000000	84.811157	164.6025
285.000000	84.738083	164.9888
290.000000	84.678787	165.3888
295.000000	84.619804	165.7861
300.000000	84.562241	166.2150
304.000000	84.528694	166.5883
307.000000	84.494942	166.8253
311.000000	84.421333	167.3457
315.000000	84.387222	167.3940
320.000000	84.328957	168.0027
325.000000	84.276703	168.4115
330.000000	84.224976	168.8143
335.000000	84.155502	169.2376
340.000000	84.090706	169.7117
345.000000	84.047905	170.0976
350.000000	83.963928	170.5436
355.000000	83.943710	171.0220
360.000000	83.874344	171.5806
365.000000	83.861145	171.8364
370.000000	83.775993	172.3975
375.000000	83.747231	172.7175
382.000000	83.668106	173.1641
387.000000	83.672661	173.5122
395.000000	83.650803	174.2413
400.000000	83.596458	174.6313
406.000000	83.548698	175.1503
412.000000	83.503304	175.5445
418.000000	83.494514	175.9980
425.000000	83.474518	176.5715
431.000000	83.423798	177.0619
437.000000	83.387512	177.5000
444.000000	83.319427	178.1351
450.000000	83.318733	178.6300
455.000000	83.269058	179.0062
462.000000	83.228729	179.4273
468.000000	83.180542	179.7599
475.000000	83.176041	-179.7659
482.000000	83.127205	-179.3189
487.000000	83.131096	-178.8734
494.000000	83.066208	-178.4717
500.000000	83.077316	-178.0041
508.000000	83.039108	-177.3482
515.000000	83.005974	-177.1497
522.000000	82.982391	-176.4758
530.000000	82.945381	-175.9145
538.000000	82.904068	-175.3423
545.000000	82.887611	-174.7850
552.000000	82.849174	-174.3508
560.000000	82.808121	-173.7072
570.000000	82.745110	-172.9039
580.000000	82.720642	-172.3600
590.000000	82.660889	-171.5590
600.000000	82.614304	-170.8206
608.000000	82.570984	-169.9876
615.000000	82.557877	-169.5793
622.000000	82.549393	-169.1745
630.000000	82.531685	-168.7410
640.000000	82.515915	-167.9101
650.000000	82.536407	-167.4318
660.000000	82.583328	-166.5794
670.000000	82.586700	-166.0940
680.000000	82.549568	-165.0770
690.000000	82.517853	-164.4885
700.000000	82.591629	-163.4703
710.000000	82.464897	-162.8887
720.000000	82.493019	-162.2302
730.000000	82.459045	-161.6237
740.000000	82.456543	-160.8131
750.000000	82.431755	-159.9084
762.000000	82.441437	-159.1216
775.000000	82.408951	-158.2040
788.000000	82.380356	-157.3261
800.000000	82.396378	-156.3776
812.000000	82.382111	-155.4146
825.000000	82.402115	-154.6501
838.000000	82.396637	-153.7258
850.000000	82.411858	-152.7219
862.000000	82.444504	-151.7896
875.000000	82.474045	-150.8152
885.000000	82.502083	-150.2446
900.000000	82.566330	-149.1647
912.000000	82.599152	-148.3621
925.000000	82.609955	-147.2710
938.000000	82.673706	-146.2433
950.000000	82.737518	-145.2577
962.000000	82.780708	-144.4156
975.000000	82.792267	-143.5230
988.000000	82.858353	-141.9544
1000.000000	83.054474	-140.8371
1015.000000	83.161369	-140.1502
1030.000000	83.282883	-139.4813
1044.000000	83.430069	-138.9165
1060.000000	83.574341	-138.3780
1075.000000	83.688438	-137.8180
1090.000000	83.798889	-137.4283
1106.000000	83.922531	-137.0652
1120.000000	84.024406	-136.8510
1138.000000	84.162361	-136.6287
1150.000000	84.256454	-136.3944
1172.000000	84.423561	-136.2557
1180.000000	84.486809	-136.1527
1206.000000	84.673241	-136.0062
1220.000000	84.760757	-135.9165
1241.000000	84.885612	-135.7219
1250.000000	84.928665	-135.6901
1265.000000	84.999161	-135.5511
1280.000000	85.071823	-135.5079
1315.000000	85.241913	-135.4591
1320.000000	85.265076	-135.4301
1340.000000	85.353516	-135.4151
1360.000000	85.434540	-135.4057
1380.000000	85.491524	-135.3489
1400.000000	85.548271	-135.2080
1430.000000	85.618507	-135.1173
1450.000000	85.673141	-135.0778
1475.000000	85.733162	-134.9319
1500.000000	85.793968	-134.8177
1525.000000	85.841431	-134.7152
1550.000000	85.909988	-134.5613
1575.000000	85.970856	-134.4111
1600.000000	86.032745	-134.1959
1625.000000	86.113297	-134.0276
1650.000000	86.189125	-133.9001
1675.000000	86.259438	-133.6600
1700.000000	86.319916	-133.4387
1725.000000	86.390289	-133.2307
1750.000000	86.455215	-133.0169
1775.000000	86.510719	-132.7976
1800.000000	86.562737	-132.4954
1825.000000	86.618286	-132.3081
1850.000000	86.679047	-132.1050
1875.000000	86.735115	-131.8148
1900.000000	86.786491	-131.5649
1925.000000	86.844330	-131.2910
1950.000000	86.891708	-131.0551
1975.000000	86.933083	-130.9139
2000.000000	86.928497	-131.0043
2030.000000	87.072327	-130.4148
2060.000000	87.165634	-130.1238
2090.000000	87.242027	-129.9035
2120.000000	87.325394	-129.6713
2140.000000	87.379433	-129.4934
2180.000000	87.475540	-129.1998
2200.000000	87.529297	-129.0307
2240.000000	87.622192	-128.9411
2270.000000	87.680466	-129.1169
2300.000000	87.739136	-129.5136
2330.000000	87.803345	-129.8622
2360.000000	87.863243	-130.2554
2400.000000	87.973000	-130.5347
2430.000000	88.085938	-130.5782
2470.000000	88.218185	-130.5097
2500.000000	88.309158	-130.4817
2540.000000	88.414925	-130.4060
2580.000000	88.508102	-130.4225
2620.000000	88.605194	-130.3863
2650.000000	88.689301	-130.4409
2690.000000	88.811966	-130.5632
2720.000000	88.905472	-130.6712
2760.000000	89.017578	-130.8293
2800.000000	89.127289	-131.0435
2850.000000	89.244919	-131.3966
2900.000000	89.348740	-131.7360
2950.000000	89.472000	-132.2189
3000.000000	89.587631	-132.4273
3040.000000	89.689392	-133.3121
3070.000000	89.762222	-133.7808
3110.000000	89.853767	-134.4389
3150.000000	89.933311	-135.0704
3200.000000	90.042633	-136.0038
3250.000000	90.134697	-137.0810
3300.000000	90.238663	-138.1737
3350.000000	90.331192	-139.3662
3400.000000	90.412743	-140.7222
3450.000000	90.477829	-142.0503
3500.000000	90.528259	-143.3273
3550.000000	90.544197	-144.7108
3600.000000	90.561790	-145.8766
3650.000000	90.601776	-147.0824
3700.000000	90.673965	-148.2743
3750.000000	90.758842	-149.4718
3820.000000	90.864899	-151.3096
3870.000000	90.920883	-153.0874
3950.000000	90.918564	-156.0812
4000.000000	90.850616	-158.1216
4060.000000	90.817261	-160.2102
4120.000000	90.724991	-162.5511
4180.000000	90.599525	-164.8862
4250.000000	90.409149	-167.4515
4310.000000	90.196465	-169.3966
4370.000000	89.978477	-171.2779
4440.000000	89.715530	-173.3519
4500.000000	89.468849	-174.8936
4550.000000	89.248840	-176.0664
4620.000000	88.950356	-177.5583
4680.000000	88.673584	-178.7526
4750.000000	88.353065	179.9260
4820.000000	88.002289	179.0088
4870.000000	87.764755	178.3387
4940.000000	87.427536	177.5910
5000.000000	87.136658	177.0992
5080.000000	86.784737	177.0906
5150.000000	86.487846	177.1229
5220.000000	86.234779	177.2746
5300.000000	85.977951	177.4850
5380.000000	85.742355	177.7474
5450.000000	85.541779	178.0147
5520.000000	85.336983	178.1784
5600.000000	85.109596	178.5969
5700.000000	84.830956	179.1158
5800.000000	84.600212	179.7362
5900.000000	84.406845	-179.2088
6000.000000	84.306107	-178.5058
6080.000000	84.223236	-178.1262
6150.000000	84.161156	-177.7864
6220.000000	84.117653	-177.3633
6300.000000	84.075729	-177.0429
6400.000000	84.060455	-176.4655
6500.000000	84.081375	-176.1784
6600.000000	84.153511	-175.5826
6700.000000	84.257263	-175.4513
6800.000000	84.411926	-175.3604
6900.000000	84.619614	-175.5086
7000.000000	84.927963	-175.8960
7100.000000	85.261757	-176.5520
7200.000000	85.655098	-177.6187
7300.000000	86.085426	-179.2408
7400.000000	86.574577	178.4714
7500.000000	87.039093	175.2842
7620.000000	87.579803	170.2437
7750.000000	87.994415	163.1986
7880.000000	88.111572	154.8929
8000.000000	87.967705	147.1335
8120.000000	87.633240	139.4090
8250.000000	87.012260	131.3550
8380.000000	86.133476	124.1663
8500.000000	85.189301	118.7316
8620.000000	84.153191	114.5979
8750.000000	82.980133	111.3339
8850.000000	82.108147	109.6815
9000.000000	80.841675	108.4038
9120.000000	79.876266	107.9190
9250.000000	78.918434	107.9950
9380.000000	78.025146	108.5657
9500.000000	77.223770	109.5206
9620.000000	76.491333	110.7307
9750.000000	75.735909	112.2048
9880.000000	75.057213	114.0737
10000.000000	74.490372	116.0371
10150.000000	73.835930	119.1915
10300.000000	73.225929	122.6877
10440.000000	72.759872	126.0332
10600.000000	72.359795	131.4363
10750.000000	72.181099	137.0722
10900.000000	72.287636	143.6076
11060.000000	72.868874	150.0937
11200.000000	73.730667	154.0293
11380.000000	75.071060	155.2230
11500.000000	75.851898	153.5667
11720.000000	76.913345	148.8929
11800.000000	77.173790	146.9282
12060.000000	77.830894	142.0914
12200.000000	78.214775	140.3395
12410.000000	78.965706	137.6585
12500.000000	79.363922	136.8218
12650.000000	80.141571	135.2737
12800.000000	81.072563	133.4564
13150.000000	84.094177	126.7313
13200.000000	84.642380	125.2119
13400.000000	87.233734	116.3934
13600.000000	90.404823	99.0812
13800.000000	92.912872	64.6672
14000.000000	91.744858	24.8685
14300.000000	87.499245	-5.0254
14500.000000	85.368126	-14.3895
14750.000000	83.469376	-23.4482
15000.000000	82.126114	-30.9493
15250.000000	81.268311	-38.2107
15500.000000	80.758926	-46.4288
15750.000000	80.569954	-56.3541
16000.000000	80.520370	-68.5137
16250.000000	80.495888	-83.8615
16500.000000	80.339409	-101.6461
16750.000000	79.854431	-121.7175
17000.000000	78.906235	-142.6740
17250.000000	77.620529	-162.4132
17500.000000	76.097237	179.1479
17750.000000	74.620239	160.4218
18000.000000	73.228935	139.8628
18250.000000	71.985344	117.6384
18500.000000	70.944595	96.3760
18750.000000	69.850815	75.3099
19000.000000	68.879379	54.1725
19250.000000	68.175903	31.2015
19500.000000	67.170662	5.4711
19750.000000	66.339500	-23.4030
