* Measurement data measured by REW V5.20 Beta 60
* Source: Headset (USB-C to 3.5mm Headphone Jack Adapter), MICROPHONE (Master Volume), R, volume: 0.258
* Format: 256k Log Swept Sine, 1 sweep at -12.0 dBFS with no timing reference
* Dated: Dec 2, 2021 3:32:22 AM
* REW Settings:
*  C-weighting compensation: Off
*  Target level: 75.0 dB
* Note: ; 
* Measurement: ANC On L
* Smoothing: None
* Frequency Step: 1/48 octave
* Start Frequency: 20.000 Hz
*
* Freq(Hz)	SPL(dB)	Phase(degrees)
20.000000	86.718956	167.1557
20.299999	86.702843	167.3560
20.600000	86.683296	167.5491
20.900000	86.657257	167.7489
21.200001	86.629326	167.9611
21.400000	86.610382	168.1225
21.799999	86.578506	168.4855
22.000000	86.569740	168.6606
22.400000	86.573036	168.8996
22.700001	86.584152	168.9475
23.000000	86.592934	168.8487
23.299999	86.591217	168.6183
23.600000	86.570801	168.3276
24.000000	86.513229	167.9761
24.299999	86.459213	167.8250
24.700001	86.395393	167.8211
25.000000	86.369293	167.9121
25.400000	86.374130	167.9974
25.799999	86.406189	167.8988
26.200001	86.437393	167.5633
26.500000	86.445747	167.2214
26.900000	86.428925	166.7997
27.200001	86.402824	166.5908
27.600000	86.367256	166.5070
28.000000	86.346634	166.6064
28.500000	86.358345	166.8000
29.000000	86.399422	166.8739
29.500000	86.440292	166.7136
30.000000	86.442581	166.4428
30.400000	86.415833	166.3129
30.700001	86.389374	166.3436
31.100000	86.369102	166.5069
31.500000	86.376503	166.6377
32.000000	86.395584	166.5217
32.500000	86.371346	166.1661
33.000000	86.294891	166.0450
33.500000	86.236771	166.3589
34.000000	86.255829	166.6942
34.500000	86.309769	166.5263
35.000000	86.307617	166.0236
35.500000	86.247421	165.7964
36.000000	86.216797	166.0228
36.500000	86.260361	166.1664
37.000000	86.308792	165.8345
37.500000	86.290665	165.3665
38.200001	86.228027	165.3946
38.700001	86.255249	165.5702
39.500000	86.292206	164.9602
40.000000	86.215126	164.6911
40.599998	86.139938	165.1954
41.200001	86.220367	165.6361
41.799999	86.311111	164.9823
42.500000	86.202934	163.9769
43.099998	86.063377	164.3226
43.700001	86.092026	165.0489
44.400002	86.226799	164.7221
45.000000	86.228317	163.7609
45.500000	86.151199	163.2642
46.200001	86.045670	163.2704
46.799999	86.008278	163.5351
47.500000	86.022903	163.8771
48.200001	86.106384	163.9266
48.700001	86.169266	163.4802
49.400002	86.151527	162.4262
50.000000	86.021400	161.9094
50.799999	85.867920	162.3750
51.500000	85.887222	163.0789
52.200001	85.981674	163.0352
53.000000	86.010002	162.1918
53.799999	85.911194	161.5585
54.500000	85.816101	161.6420
55.200001	85.797066	161.9308
56.000000	85.823792	161.8537
57.000000	85.795433	161.4390
58.000000	85.760712	161.3333
59.000000	85.751335	160.9834
60.000000	85.688316	160.6190
60.799999	85.640884	160.5628
61.500000	85.619102	160.4767
62.200001	85.590141	160.3507
63.000000	85.561371	160.3206
64.000000	85.558510	160.1510
65.000000	85.526917	159.7856
66.000000	85.476471	159.5716
67.000000	85.428902	159.4274
68.000000	85.398209	159.3815
69.000000	85.385681	159.1092
70.000000	85.325172	158.7884
71.000000	85.267807	158.7089
72.000000	85.229042	158.5870
73.000000	85.191055	158.3875
74.000000	85.136185	158.1138
75.000000	85.066452	158.0496
76.199997	85.032036	158.0364
77.500000	84.983467	157.8346
78.800003	84.928688	157.7610
80.000000	84.894150	157.7471
81.199997	84.864334	157.4987
82.500000	84.791458	157.2122
83.800003	84.725082	157.0385
85.000000	84.673164	156.8067
86.199997	84.623306	156.6958
87.500000	84.574860	156.4128
88.500000	84.530144	156.6678
90.000000	84.560547	156.1375
91.199997	84.403442	156.1740
92.500000	84.370911	156.4525
93.800003	84.287910	156.5263
95.000000	84.236671	156.4601
96.199997	84.158920	156.4095
97.500000	84.099808	156.4153
98.800003	84.046921	156.1059
100.000000	83.926399	156.3159
101.500000	83.940430	156.5427
103.000000	83.862885	156.4922
104.400002	83.811996	156.4795
106.000000	83.735565	156.5140
107.500000	83.664337	156.6873
109.000000	83.610184	156.7679
110.599998	83.542252	156.8981
112.000000	83.483208	157.0265
113.800003	83.403336	157.1192
115.000000	83.348923	157.2390
117.199997	83.250450	157.4864
118.000000	83.227135	157.6188
120.599998	83.111298	157.8500
122.000000	83.063461	158.0875
124.099998	82.978355	158.3194
125.000000	82.935013	158.4009
126.500000	82.872795	158.6835
128.000000	82.818672	158.8102
131.500000	82.670403	159.3036
132.000000	82.649651	159.3939
134.000000	82.581230	159.7620
136.000000	82.518173	160.1432
138.000000	82.435860	160.4745
140.000000	82.353989	160.8070
143.000000	82.253967	161.4842
145.000000	82.186600	161.7775
147.500000	82.095375	162.4274
150.000000	81.987320	162.7994
152.500000	81.967056	163.3479
155.000000	81.904518	163.9908
157.500000	81.857780	164.5070
160.000000	81.789810	165.1356
162.500000	81.757935	165.5788
165.000000	81.709122	166.0364
167.500000	81.658112	166.6530
170.000000	81.604164	167.1881
172.500000	81.545235	167.6713
175.000000	81.474251	168.0787
177.500000	81.441628	168.6412
180.000000	81.399513	169.1516
182.500000	81.363785	169.6414
185.000000	81.325005	170.1311
187.500000	81.290459	170.6627
190.000000	81.263832	171.1601
192.500000	81.222305	171.7805
195.000000	81.181366	172.5330
197.500000	81.180344	172.8847
200.000000	81.053864	173.1220
203.000000	81.106758	173.9028
206.000000	81.114059	174.5654
209.000000	81.099213	175.0781
212.000000	81.079391	175.6440
214.000000	81.072441	176.0440
218.000000	81.091904	176.6995
220.000000	81.095551	177.1068
224.000000	81.110893	177.8115
227.000000	81.124977	178.2677
230.000000	81.145691	178.8963
233.000000	81.163414	179.2975
236.000000	81.210342	179.8963
240.000000	81.224518	-179.4247
243.000000	81.241882	-179.0459
247.000000	81.273834	-178.4361
250.000000	81.296364	-177.9561
254.000000	81.321571	-177.4646
258.000000	81.367661	-176.9324
262.000000	81.408768	-176.3737
265.000000	81.430199	-176.0647
269.000000	81.463608	-175.6072
272.000000	81.503311	-175.2290
276.000000	81.556961	-174.8061
280.000000	81.592957	-174.4579
285.000000	81.666580	-173.8597
290.000000	81.716331	-173.3855
295.000000	81.789337	-172.8524
300.000000	81.849380	-172.4413
304.000000	81.930298	-172.1104
307.000000	81.978714	-171.9658
311.000000	82.031113	-171.7274
315.000000	82.098907	-171.3696
320.000000	82.173126	-171.2535
325.000000	82.253082	-171.0168
330.000000	82.327026	-170.8609
335.000000	82.402428	-170.8269
340.000000	82.481384	-170.7452
345.000000	82.541855	-170.6981
350.000000	82.601761	-170.6871
355.000000	82.664009	-170.6243
360.000000	82.702827	-170.6171
365.000000	82.756271	-170.6341
370.000000	82.805153	-170.7314
375.000000	82.864937	-170.7171
382.000000	82.931160	-170.8165
387.000000	82.973999	-170.7749
395.000000	83.054588	-170.9298
400.000000	83.089439	-171.0154
406.000000	83.149803	-171.0721
412.000000	83.207375	-171.1578
418.000000	83.253036	-171.3279
425.000000	83.301338	-171.4551
431.000000	83.345261	-171.5774
437.000000	83.387207	-171.6717
444.000000	83.449127	-171.8397
450.000000	83.490730	-172.1870
455.000000	83.532806	-172.1511
462.000000	83.564728	-172.4305
468.000000	83.604515	-172.6985
475.000000	83.632996	-172.8563
482.000000	83.666046	-173.2360
487.000000	83.689926	-173.4055
494.000000	83.723801	-173.7679
500.000000	83.750206	-173.9629
508.000000	83.781013	-174.1666
515.000000	83.808929	-174.3818
522.000000	83.827850	-174.5971
530.000000	83.846680	-174.9449
538.000000	83.858727	-175.2312
545.000000	83.876938	-175.4283
552.000000	83.890518	-175.6482
560.000000	83.905800	-175.9599
570.000000	83.914124	-176.2917
580.000000	83.922607	-176.6399
590.000000	83.927292	-176.9971
600.000000	83.917000	-177.2832
608.000000	83.928474	-177.5872
615.000000	83.928345	-177.7560
622.000000	83.940277	-178.0402
630.000000	83.935760	-178.2324
640.000000	83.934692	-178.6021
650.000000	83.931778	-178.9480
660.000000	83.920753	-179.1994
670.000000	83.910309	-179.4718
680.000000	83.904205	-179.6781
690.000000	83.872772	-179.9230
700.000000	83.835144	179.8293
710.000000	83.838272	179.5351
720.000000	83.804260	179.3271
730.000000	83.787735	179.1323
740.000000	83.761192	178.8950
750.000000	83.737610	178.7435
762.000000	83.702110	178.4922
775.000000	83.651321	178.2293
788.000000	83.605507	178.0686
800.000000	83.569077	177.8983
812.000000	83.509827	177.7812
825.000000	83.462112	177.7123
838.000000	83.407104	177.5498
850.000000	83.350510	177.5254
862.000000	83.308907	177.4376
875.000000	83.250565	177.4654
885.000000	83.211800	177.5247
900.000000	83.141724	177.5085
912.000000	83.088020	177.5800
925.000000	83.048645	177.5728
938.000000	82.999275	177.8303
950.000000	82.971077	177.7989
962.000000	82.906647	178.0999
975.000000	82.853096	178.2567
988.000000	82.831406	178.5016
1000.000000	82.852348	178.8515
1015.000000	82.711273	178.9601
1030.000000	82.647537	179.3134
1044.000000	82.608803	179.6671
1060.000000	82.558426	-179.8847
1075.000000	82.531097	-179.4316
1090.000000	82.512878	-178.9226
1106.000000	82.499672	-178.3750
1120.000000	82.494621	-177.8617
1138.000000	82.511261	-177.2565
1150.000000	82.536873	-176.7764
1172.000000	82.565170	-175.9991
1180.000000	82.584869	-175.6961
1206.000000	82.673805	-174.8313
1220.000000	82.745750	-174.3782
1241.000000	82.851006	-173.8937
1250.000000	82.904099	-173.4801
1265.000000	82.994881	-173.2699
1280.000000	83.093872	-172.9662
1315.000000	83.331474	-172.5395
1320.000000	83.360008	-172.4931
1340.000000	83.497803	-172.4365
1360.000000	83.633690	-172.3937
1380.000000	83.760033	-172.4453
1400.000000	83.894936	-172.4948
1430.000000	84.076431	-172.7899
1450.000000	84.184418	-172.9954
1475.000000	84.329834	-173.2532
1500.000000	84.463463	-173.6423
1525.000000	84.582474	-173.9948
1550.000000	84.703766	-174.2710
1575.000000	84.829788	-174.7107
1600.000000	84.936714	-175.0856
1625.000000	85.061981	-175.3044
1650.000000	85.165901	-175.6539
1675.000000	85.300323	-176.0942
1700.000000	85.384918	-176.4679
1725.000000	85.474724	-176.5356
1750.000000	85.601593	-176.2094
1775.000000	85.766251	-175.4101
1800.000000	85.876976	-174.5175
1825.000000	86.012024	-173.7509
1850.000000	86.108147	-172.9656
1875.000000	86.248672	-172.2354
1900.000000	86.376526	-171.4324
1925.000000	86.506416	-170.7609
1950.000000	86.624649	-169.9511
1975.000000	86.729881	-169.4039
2000.000000	86.792740	-168.9677
2030.000000	87.001335	-167.8493
2060.000000	87.133720	-167.0310
2090.000000	87.264847	-166.2604
2120.000000	87.390373	-165.4752
2140.000000	87.474106	-164.9424
2180.000000	87.625671	-163.8528
2200.000000	87.704201	-163.3169
2240.000000	87.870270	-162.4134
2270.000000	87.979057	-161.9968
2300.000000	88.078590	-161.7240
2330.000000	88.196533	-161.5256
2360.000000	88.290291	-161.2694
2400.000000	88.431435	-160.7592
2430.000000	88.547318	-160.0478
2470.000000	88.680367	-159.1339
2500.000000	88.780647	-158.3979
2540.000000	88.905685	-157.5158
2580.000000	89.019424	-156.6983
2620.000000	89.126534	-155.8584
2650.000000	89.208649	-155.2563
2690.000000	89.302177	-154.4975
2720.000000	89.356880	-153.9680
2760.000000	89.417549	-153.1554
2800.000000	89.461136	-152.3747
2850.000000	89.502274	-151.4077
2900.000000	89.534279	-150.3874
2950.000000	89.541840	-149.2916
3000.000000	89.533485	-147.7318
3040.000000	89.519142	-147.1287
3070.000000	89.504929	-146.2240
3110.000000	89.544876	-145.4328
3150.000000	89.501938	-145.3899
3200.000000	89.412842	-146.3762
3250.000000	89.372299	-147.2264
3300.000000	89.319473	-148.1568
3350.000000	89.259048	-148.9806
3400.000000	89.178009	-149.8331
3450.000000	89.102577	-150.5885
3500.000000	89.037613	-151.2990
3550.000000	88.948067	-151.7594
3600.000000	88.887451	-151.9987
3650.000000	88.858315	-152.2185
3700.000000	88.857101	-152.5131
3750.000000	88.857384	-153.0081
3820.000000	88.844513	-153.8499
3870.000000	88.817902	-154.4619
3950.000000	88.756836	-155.5100
4000.000000	88.682236	-156.3958
4060.000000	88.677383	-157.1141
4120.000000	88.602623	-158.1702
4180.000000	88.499832	-159.2155
4250.000000	88.353638	-160.2569
4310.000000	88.193771	-161.0872
4370.000000	88.026054	-161.7861
4440.000000	87.814240	-162.2496
4500.000000	87.611443	-162.5865
4550.000000	87.436310	-162.4685
4620.000000	87.191811	-162.0753
4680.000000	87.006950	-161.2822
4750.000000	86.858337	-159.9467
4820.000000	86.793594	-158.1780
4870.000000	86.833023	-156.8206
4940.000000	86.972122	-155.1891
5000.000000	87.183350	-154.1417
5080.000000	87.558968	-152.9036
5150.000000	87.935791	-152.6635
5220.000000	88.367073	-153.1994
5300.000000	88.854828	-154.6489
5380.000000	89.323067	-157.0234
5450.000000	89.661026	-159.8113
5520.000000	89.866013	-163.2269
5600.000000	90.014084	-167.4196
5700.000000	89.993469	-173.3304
5800.000000	89.740303	-179.2434
5900.000000	89.223953	175.7014
6000.000000	88.605782	171.8475
6080.000000	88.092270	169.6776
6150.000000	87.657112	168.3226
6220.000000	87.265015	167.2634
6300.000000	86.833679	166.5148
6400.000000	86.321747	165.9090
6500.000000	85.884247	165.5359
6600.000000	85.464302	165.3735
6700.000000	85.080635	165.5175
6800.000000	84.702347	165.6984
6900.000000	84.336517	165.9841
7000.000000	84.007034	166.7990
7100.000000	83.686668	168.1915
7200.000000	83.396515	170.6252
7300.000000	83.228340	174.0392
7400.000000	83.252739	178.5221
7500.000000	83.663353	-176.6436
7620.000000	84.626099	-172.1199
7750.000000	86.129501	-170.2913
7880.000000	87.829407	-173.3877
8000.000000	89.352814	179.0589
8120.000000	90.478081	166.9702
8250.000000	90.858871	150.4966
8380.000000	90.226021	134.3110
8500.000000	89.005577	122.5139
8620.000000	87.562866	114.1744
8750.000000	85.939178	108.2931
8850.000000	84.752098	105.3272
9000.000000	83.067131	102.5756
9120.000000	81.840897	101.2524
9250.000000	80.608673	100.8496
9380.000000	79.460724	100.9246
9500.000000	78.472305	101.2177
9620.000000	77.537758	101.8735
9750.000000	76.609680	102.9318
9880.000000	75.751785	104.2844
10000.000000	74.975586	105.0794
10150.000000	74.030502	106.8437
10300.000000	73.235474	108.7847
10440.000000	72.380798	110.5301
10600.000000	71.594589	113.0643
10750.000000	70.877365	115.3008
10900.000000	70.261566	118.0256
11060.000000	69.555290	120.9986
11200.000000	69.151337	123.4473
11380.000000	68.264450	126.2651
11500.000000	67.890854	129.4560
11720.000000	67.038902	133.2037
11800.000000	66.792336	135.6349
12060.000000	65.852432	142.9145
12200.000000	65.349251	147.7831
12410.000000	65.226616	156.6183
12500.000000	65.336601	161.1270
12650.000000	65.432610	166.6887
12800.000000	66.056747	173.2719
13150.000000	67.742256	-176.3352
13200.000000	67.880783	-175.3759
13400.000000	68.996025	-172.1750
13600.000000	70.256760	-169.5072
13800.000000	71.631607	-167.5621
14000.000000	73.197121	-166.7996
14300.000000	76.232315	-169.7762
14500.000000	78.812576	-177.8001
14750.000000	81.809944	155.6006
15000.000000	80.830330	118.0175
15250.000000	77.488190	100.2615
15500.000000	74.645325	95.4286
15750.000000	72.701767	96.1848
16000.000000	71.292526	99.1007
16250.000000	70.411400	102.4854
16500.000000	70.054787	106.4008
16750.000000	70.111526	109.8208
17000.000000	70.493439	112.4325
17250.000000	71.273079	114.0551
17500.000000	72.485794	113.1981
17750.000000	74.261787	108.4932
18000.000000	76.479614	92.6404
18250.000000	78.157562	63.9714
18500.000000	77.209625	30.2677
18750.000000	74.553581	10.2083
19000.000000	71.935425	1.6249
19250.000000	70.010803	-0.9067
19500.000000	68.520569	-1.7515
19750.000000	67.136597	-3.0565
