* Measurement data measured by REW V5.20 Beta 60
* Source: Headset (USB-C to 3.5mm Headphone Jack Adapter), MICROPHONE (Master Volume), R, volume: 0.250
* Format: 256k Log Swept Sine, 1 sweep at -12.0 dBFS with no timing reference
* Dated: Apr 7, 2021 1:25:37 AM
* REW Settings:
*  C-weighting compensation: Off
*  Target level: 75.0 dB
* Note: ; 
* Measurement: Moondrop Aria R
* Smoothing: None
* Frequency Step: 1/48 octave
* Start Frequency: 20.000 Hz
*
* Freq(Hz)	SPL(dB)	Phase(degrees)
20.000000	90.901596	-171.2439
20.299999	90.898285	-171.6763
20.600000	90.896530	-172.0437
20.900000	90.898827	-172.3639
21.200001	90.910164	-172.6868
21.400000	90.919373	-172.9148
21.799999	90.937035	-173.3992
22.000000	90.944305	-173.6580
22.400000	90.956116	-174.2123
22.700001	90.958366	-174.6088
23.000000	90.957428	-174.9747
23.299999	90.958267	-175.3224
23.600000	90.959930	-175.6525
24.000000	90.962463	-176.0842
24.299999	90.964554	-176.4180
24.700001	90.964767	-176.8654
25.000000	90.962219	-177.1921
25.400000	90.958908	-177.6181
25.799999	90.954224	-178.0125
26.200001	90.950729	-178.4009
26.500000	90.948776	-178.6980
26.900000	90.943222	-179.0833
27.200001	90.937698	-179.3641
27.600000	90.930527	-179.7201
28.000000	90.922455	179.9432
28.500000	90.914993	179.5143
29.000000	90.906876	179.0816
29.500000	90.897232	178.6406
30.000000	90.881607	178.2278
30.400000	90.868980	177.9169
30.700001	90.859665	177.7023
31.100000	90.849121	177.4212
31.500000	90.840736	177.1259
32.000000	90.828011	176.7478
32.500000	90.812569	176.3633
33.000000	90.793602	176.0083
33.500000	90.773834	175.6725
34.000000	90.753716	175.3505
34.500000	90.737465	175.0197
35.000000	90.719238	174.6968
35.500000	90.700142	174.3849
36.000000	90.680595	174.0902
36.500000	90.660919	173.7894
37.000000	90.640923	173.4957
37.500000	90.622719	173.2055
38.200001	90.595840	172.8055
38.700001	90.574738	172.5199
39.500000	90.543236	172.1031
40.000000	90.525360	171.8621
40.599998	90.503212	171.5532
41.200001	90.478973	171.2452
41.799999	90.453568	170.9549
42.500000	90.422424	170.6460
43.099998	90.397781	170.3856
43.700001	90.373512	170.1078
44.400002	90.338715	169.7757
45.000000	90.306511	169.5325
45.500000	90.285286	169.3459
46.200001	90.259308	169.0470
46.799999	90.229607	168.7581
47.500000	90.191925	168.4863
48.200001	90.166458	168.2310
48.700001	90.149162	167.9614
49.400002	90.101028	167.5659
50.000000	90.044052	167.3998
50.799999	90.003883	167.3293
51.500000	89.994827	167.1552
52.200001	89.970108	166.8506
53.000000	89.923584	166.5809
53.799999	89.884476	166.3860
54.500000	89.849487	166.1869
55.200001	89.811592	166.0114
56.000000	89.774246	165.8421
57.000000	89.730911	165.5533
58.000000	89.676056	165.2485
59.000000	89.619926	165.0312
60.000000	89.586159	164.8232
60.799999	89.553383	164.5193
61.500000	89.507446	164.2590
62.200001	89.454826	164.1160
63.000000	89.409485	164.0537
64.000000	89.369148	163.8765
65.000000	89.315559	163.6775
66.000000	89.269814	163.5306
67.000000	89.223549	163.2690
68.000000	89.162552	163.0800
69.000000	89.118942	162.9221
70.000000	89.065971	162.7225
71.000000	89.017998	162.6125
72.000000	88.976158	162.4526
73.000000	88.926491	162.3210
74.000000	88.883278	162.2058
75.000000	88.834114	162.0697
76.199997	88.778717	161.9567
77.500000	88.718460	161.7936
78.800003	88.659309	161.6574
80.000000	88.604462	161.5282
81.199997	88.551254	161.4463
82.500000	88.495415	161.3602
83.800003	88.439262	161.2586
85.000000	88.377007	161.1897
86.199997	88.321159	161.1021
87.500000	88.254456	161.0272
88.500000	88.220169	160.8282
90.000000	88.093857	160.7347
91.199997	88.077629	160.8964
92.500000	88.026047	160.6780
93.800003	87.978195	160.6660
95.000000	87.920303	160.5752
96.199997	87.870819	160.5818
97.500000	87.812134	160.5048
98.800003	87.765388	160.4564
100.000000	87.699677	160.3080
101.500000	87.637253	160.4420
103.000000	87.576599	160.3915
104.400002	87.522812	160.4242
106.000000	87.454124	160.4439
107.500000	87.395744	160.4265
109.000000	87.336197	160.4581
110.599998	87.277290	160.4512
112.000000	87.224747	160.4883
113.800003	87.151375	160.5440
115.000000	87.108452	160.5819
117.199997	87.023804	160.6658
118.000000	86.997818	160.6790
120.599998	86.905510	160.7424
122.000000	86.852806	160.8209
124.099998	86.777451	160.8829
125.000000	86.739388	160.9148
126.500000	86.682411	161.0182
128.000000	86.631645	161.0973
131.500000	86.511642	161.3041
132.000000	86.494293	161.3482
134.000000	86.429573	161.4225
136.000000	86.360062	161.6048
138.000000	86.294830	161.7419
140.000000	86.221237	161.8387
143.000000	86.129707	162.0554
145.000000	86.066811	162.2233
147.500000	85.989151	162.4194
150.000000	85.920044	162.6897
152.500000	85.838531	162.8495
155.000000	85.772263	163.0677
157.500000	85.716476	163.2548
160.000000	85.655792	163.5046
162.500000	85.594193	163.7454
165.000000	85.531219	163.9071
167.500000	85.474884	164.2083
170.000000	85.419754	164.4420
172.500000	85.345482	164.6942
175.000000	85.273415	164.9362
177.500000	85.210686	165.2025
180.000000	85.143593	165.4554
182.500000	85.076462	165.6925
185.000000	85.014946	166.0144
187.500000	84.948082	166.2885
190.000000	84.884399	166.5673
192.500000	84.821411	166.8499
195.000000	84.762314	167.1308
197.500000	84.705002	167.4327
200.000000	84.640648	167.5764
203.000000	84.576218	167.9896
206.000000	84.506462	168.3746
209.000000	84.458961	168.7159
212.000000	84.380928	169.0548
214.000000	84.343819	169.2738
218.000000	84.282341	169.7999
220.000000	84.246284	169.9274
224.000000	84.192184	170.4849
227.000000	84.145065	170.8173
230.000000	84.100143	171.1725
233.000000	84.049599	171.5430
236.000000	84.009422	171.9150
240.000000	83.949524	172.3531
243.000000	83.896896	172.7095
247.000000	83.834877	173.2005
250.000000	83.786934	173.4628
254.000000	83.745140	174.0876
258.000000	83.680084	174.5303
262.000000	83.624580	175.0543
265.000000	83.581337	175.4554
269.000000	83.522171	175.8835
272.000000	83.480972	176.2426
276.000000	83.441391	176.7378
280.000000	83.394020	177.2506
285.000000	83.336472	177.8722
290.000000	83.286011	178.4396
295.000000	83.231216	179.1327
300.000000	83.168190	179.6335
304.000000	83.129471	-179.8022
307.000000	83.102516	-179.4863
311.000000	83.062775	-179.0374
315.000000	83.018486	-178.5317
320.000000	82.972786	-177.8596
325.000000	82.933609	-177.2910
330.000000	82.888397	-176.6944
335.000000	82.858513	-175.9883
340.000000	82.797226	-175.4953
345.000000	82.757988	-174.9128
350.000000	82.708923	-174.2108
355.000000	82.691780	-173.6084
360.000000	82.643913	-173.0679
365.000000	82.604347	-172.3688
370.000000	82.570297	-171.8970
375.000000	82.541870	-171.3508
382.000000	82.494125	-170.5154
387.000000	82.471909	-169.8679
395.000000	82.434341	-169.0061
400.000000	82.400169	-168.5247
406.000000	82.364960	-167.7691
412.000000	82.334129	-167.0556
418.000000	82.312607	-166.3541
425.000000	82.282982	-165.6324
431.000000	82.254982	-164.9156
437.000000	82.228638	-164.2251
444.000000	82.214211	-163.4406
450.000000	82.181160	-162.6700
455.000000	82.186882	-162.3067
462.000000	82.164368	-161.5454
468.000000	82.134644	-160.9838
475.000000	82.111580	-160.3093
482.000000	82.092827	-159.6262
487.000000	82.077454	-159.1174
494.000000	82.058014	-158.4374
500.000000	82.057114	-157.7647
508.000000	82.027039	-156.9526
515.000000	82.009331	-156.1730
522.000000	81.989685	-155.4094
530.000000	81.975975	-154.5708
538.000000	81.948708	-153.7632
545.000000	81.940300	-153.0255
552.000000	81.929741	-152.2437
560.000000	81.907837	-151.3714
570.000000	81.893631	-150.3936
580.000000	81.881439	-149.3792
590.000000	81.869278	-148.3161
600.000000	81.853447	-147.1391
608.000000	81.852661	-146.4313
615.000000	81.845612	-145.7065
622.000000	81.851768	-144.9674
630.000000	81.852661	-144.1541
640.000000	81.847366	-143.1746
650.000000	81.852173	-142.1723
660.000000	81.856964	-141.1261
670.000000	81.870743	-140.1255
680.000000	81.874840	-139.1603
690.000000	81.875397	-138.2241
700.000000	81.863495	-137.3312
710.000000	81.873764	-136.2719
720.000000	81.837318	-135.3976
730.000000	81.792023	-134.0877
740.000000	81.815247	-132.4420
750.000000	81.913994	-131.2426
762.000000	81.976654	-130.2033
775.000000	82.000717	-129.0782
788.000000	82.022270	-127.8410
800.000000	82.057892	-126.6788
812.000000	82.071602	-125.4955
825.000000	82.113991	-124.2731
838.000000	82.147934	-122.8759
850.000000	82.188606	-121.6951
862.000000	82.232780	-120.4849
875.000000	82.286537	-119.2543
885.000000	82.327499	-118.1921
900.000000	82.386307	-116.7813
912.000000	82.451927	-115.6338
925.000000	82.534767	-114.2560
938.000000	82.606705	-113.1221
950.000000	82.659760	-112.0093
962.000000	82.746498	-110.9332
975.000000	82.832993	-109.8093
988.000000	82.937538	-108.5436
1000.000000	83.097298	-107.3739
1015.000000	83.118042	-106.3466
1030.000000	83.215660	-105.1489
1044.000000	83.317001	-104.0971
1060.000000	83.443100	-102.8736
1075.000000	83.560440	-101.7781
1090.000000	83.694908	-100.8044
1106.000000	83.835587	-99.7838
1120.000000	83.959846	-98.9404
1138.000000	84.114380	-97.9556
1150.000000	84.227585	-97.3249
1172.000000	84.407555	-96.1489
1180.000000	84.480736	-95.7061
1206.000000	84.698219	-94.5332
1220.000000	84.816986	-93.8407
1241.000000	84.996384	-93.0419
1250.000000	85.077232	-92.7221
1265.000000	85.194183	-92.1059
1280.000000	85.310791	-91.5480
1315.000000	85.584564	-90.2664
1320.000000	85.625557	-90.0848
1340.000000	85.769821	-89.4335
1360.000000	85.922424	-88.7993
1380.000000	86.065102	-88.1400
1400.000000	86.212769	-87.5286
1430.000000	86.415001	-86.6555
1450.000000	86.545448	-86.0926
1475.000000	86.734825	-85.4351
1500.000000	86.887154	-84.8333
1525.000000	87.038170	-84.2822
1550.000000	87.194618	-83.7825
1575.000000	87.345230	-83.2685
1600.000000	87.492592	-82.7509
1625.000000	87.619827	-82.2392
1650.000000	87.759735	-81.7387
1675.000000	87.888885	-81.2408
1700.000000	88.016434	-80.7751
1725.000000	88.140991	-80.2541
1750.000000	88.257317	-79.8187
1775.000000	88.382935	-79.3686
1800.000000	88.497818	-78.9183
1825.000000	88.616104	-78.5591
1850.000000	88.722458	-78.1872
1875.000000	88.836006	-77.7583
1900.000000	88.942413	-77.4106
1925.000000	89.049088	-77.0545
1950.000000	89.147186	-76.7282
1975.000000	89.226624	-76.4858
2000.000000	89.256676	-76.4670
2030.000000	89.430298	-75.8276
2060.000000	89.543541	-75.4711
2090.000000	89.634117	-75.1513
2120.000000	89.728645	-74.9022
2140.000000	89.781471	-74.7171
2180.000000	89.889534	-74.3773
2200.000000	89.937088	-74.1794
2240.000000	90.028275	-74.0742
2270.000000	90.075714	-74.2151
2300.000000	90.126602	-74.5395
2330.000000	90.163887	-74.8699
2360.000000	90.189316	-75.1723
2400.000000	90.219742	-75.3341
2430.000000	90.243927	-75.2062
2470.000000	90.258003	-74.8197
2500.000000	90.264435	-74.5034
2540.000000	90.263878	-73.9818
2580.000000	90.274712	-73.5246
2620.000000	90.282990	-72.9639
2650.000000	90.297569	-72.6501
2690.000000	90.295021	-72.2447
2720.000000	90.292389	-71.9002
2760.000000	90.265419	-71.3896
2800.000000	90.232048	-70.8245
2850.000000	90.193886	-70.0164
2900.000000	90.168976	-69.2849
2950.000000	90.149796	-68.4590
3000.000000	90.118233	-67.3716
3040.000000	90.090225	-67.0489
3070.000000	90.063843	-66.6054
3110.000000	90.031738	-65.9122
3150.000000	90.003578	-65.2110
3200.000000	89.963120	-64.2261
3250.000000	89.933907	-63.1892
3300.000000	89.914246	-62.1058
3350.000000	89.915970	-61.0025
3400.000000	89.929611	-59.8815
3450.000000	89.984337	-58.8613
3500.000000	90.060135	-57.9739
3550.000000	90.151672	-57.1860
3600.000000	90.232529	-56.5464
3650.000000	90.314468	-56.0959
3700.000000	90.386162	-55.7359
3750.000000	90.434570	-55.4715
3820.000000	90.491455	-55.1836
3870.000000	90.506226	-55.0485
3950.000000	90.493858	-54.9201
4000.000000	90.445679	-55.0590
4060.000000	90.414520	-54.7326
4120.000000	90.321365	-54.5651
4180.000000	90.213974	-54.1920
4250.000000	90.102631	-53.3168
4310.000000	90.039513	-52.4737
4370.000000	90.012360	-51.6770
4440.000000	90.015976	-50.9925
4500.000000	90.025558	-50.5996
4550.000000	90.019791	-50.4120
4620.000000	89.997559	-50.3348
4680.000000	89.953232	-50.3382
4750.000000	89.883438	-50.5258
4820.000000	89.765114	-50.7250
4870.000000	89.668655	-50.7978
4940.000000	89.489120	-50.9932
5000.000000	89.314987	-51.0998
5080.000000	89.077362	-50.7298
5150.000000	88.823723	-50.4099
5220.000000	88.562721	-49.8779
5300.000000	88.267670	-49.0468
5380.000000	87.948174	-47.8958
5450.000000	87.681763	-46.7726
5520.000000	87.364456	-45.3298
5600.000000	87.069427	-43.3300
5700.000000	86.744415	-41.1598
5800.000000	86.386055	-38.8843
5900.000000	86.061127	-36.2264
6000.000000	85.749870	-33.4369
6080.000000	85.560966	-30.8843
6150.000000	85.424362	-28.6746
6220.000000	85.306915	-26.4492
6300.000000	85.199211	-23.8908
6400.000000	85.106972	-20.7260
6500.000000	85.057091	-17.4806
6600.000000	85.053650	-14.2793
6700.000000	85.110458	-11.1386
6800.000000	85.210434	-8.0056
6900.000000	85.401352	-5.1162
7000.000000	85.670967	-2.4151
7100.000000	85.999596	-0.0610
7200.000000	86.402290	1.9969
7300.000000	86.867813	3.4180
7400.000000	87.376709	4.1171
7500.000000	87.922554	3.9541
7620.000000	88.589218	2.3657
7750.000000	89.199890	-1.4137
7880.000000	89.525360	-7.2894
8000.000000	89.479752	-13.8518
8120.000000	89.012680	-20.4606
8250.000000	88.126236	-26.2617
8380.000000	87.004440	-29.9762
8500.000000	85.876015	-31.7168
8620.000000	84.744186	-31.9766
8750.000000	83.523911	-30.7069
8850.000000	82.627548	-29.0239
9000.000000	81.391197	-25.4636
9120.000000	80.495171	-22.0994
9250.000000	79.605698	-18.0388
9380.000000	78.780609	-13.4594
9500.000000	78.127319	-9.0034
9620.000000	77.508698	-4.6496
9750.000000	76.920120	0.7419
9880.000000	76.380653	5.9618
10000.000000	75.957954	10.8426
10150.000000	75.505455	17.0771
10300.000000	75.135536	23.3116
10440.000000	74.777931	29.6066
10600.000000	74.511444	36.4965
10750.000000	74.311356	43.4998
10900.000000	74.222633	50.6883
11060.000000	74.221085	59.0209
11200.000000	74.326721	66.5245
11380.000000	74.732521	77.1989
11500.000000	75.242783	84.8443
11720.000000	76.860329	98.9417
11800.000000	77.827477	103.2996
12060.000000	81.770271	109.8268
12200.000000	83.998009	106.7508
12410.000000	87.131699	95.8314
12500.000000	88.378342	88.5667
12650.000000	90.114342	71.7343
12800.000000	90.672592	49.3878
13150.000000	86.967964	13.2351
13200.000000	86.315155	11.1972
13400.000000	84.046539	7.6006
13600.000000	82.365318	7.6377
13800.000000	81.086044	9.0813
14000.000000	80.114395	11.4901
14300.000000	79.201973	16.1590
14500.000000	78.966866	19.2920
14750.000000	79.024841	22.4361
15000.000000	79.439644	24.1217
15250.000000	80.204178	23.6556
15500.000000	81.338165	19.1447
15750.000000	82.562477	9.2922
16000.000000	83.365120	-7.4424
16250.000000	83.001167	-27.7689
16500.000000	81.608566	-45.0269
16750.000000	79.824409	-57.7564
17000.000000	78.286484	-67.7970
17250.000000	76.885994	-76.6707
17500.000000	75.505287	-85.2138
17750.000000	74.221275	-94.8366
18000.000000	73.098923	-106.5097
18250.000000	72.347153	-120.5352
18500.000000	71.684494	-135.6254
18750.000000	71.057465	-150.4135
19000.000000	70.366020	-166.0877
19250.000000	69.721603	175.8374
19500.000000	68.689301	157.1086
19750.000000	67.871124	133.9251
