* Measurement data measured by REW V5.20 Beta 60
* Source: Headset (USB-C to 3.5mm Headphone Jack Adapter), MICROPHONE (Master Volume), R, volume: 0.258
* Format: 256k Log Swept Sine, 1 sweep at -6.0 dBFS with no timing reference
* Dated: Jul 8, 2021 11:02:06 AM
* REW Settings:
*  C-weighting compensation: Off
*  Target level: 75.0 dB
* Note: ; 
* Measurement: Moondrop Sparks L
* Smoothing: None
* Frequency Step: 1/48 octave
* Start Frequency: 20.000 Hz
*
* Freq(Hz)	SPL(dB)	Phase(degrees)
20.000000	84.218246	-147.4965
20.299999	84.295425	-147.2364
20.600000	84.446449	-147.2415
20.900000	84.627502	-147.7459
21.200001	84.785690	-148.7635
21.400000	84.855469	-149.5868
21.799999	84.907600	-151.2527
22.000000	84.899849	-151.9511
22.400000	84.862572	-152.9190
22.700001	84.849007	-153.3045
23.000000	84.868591	-153.5835
23.299999	84.914856	-153.9328
23.600000	84.967979	-154.3973
24.000000	85.023232	-155.1466
24.299999	85.048698	-155.7002
24.700001	85.074326	-156.3156
25.000000	85.101089	-156.7043
25.400000	85.156250	-157.2554
25.799999	85.215439	-157.9383
26.200001	85.257286	-158.7444
26.500000	85.272171	-159.3517
26.900000	85.274727	-160.0534
27.200001	85.275536	-160.4882
27.600000	85.287292	-160.9951
28.000000	85.308746	-161.5084
28.500000	85.338173	-162.2367
29.000000	85.357811	-162.9827
29.500000	85.374573	-163.6972
30.000000	85.391838	-164.3866
30.400000	85.406990	-164.9607
30.700001	85.415848	-165.3972
31.100000	85.423325	-165.9828
31.500000	85.426300	-166.5645
32.000000	85.422791	-167.2430
32.500000	85.418228	-167.8560
33.000000	85.419121	-168.4002
33.500000	85.428856	-168.9520
34.000000	85.437683	-169.5636
34.500000	85.437408	-170.2133
35.000000	85.422966	-170.7871
35.500000	85.410797	-171.2462
36.000000	85.412109	-171.6685
36.500000	85.419548	-172.1726
37.000000	85.416870	-172.7314
37.500000	85.403587	-173.2522
38.200001	85.387032	-173.8597
38.700001	85.384201	-174.3111
39.500000	85.369804	-175.1188
40.000000	85.346870	-175.5513
40.599998	85.324158	-175.9460
41.200001	85.325813	-176.3271
41.799999	85.335724	-176.8592
42.500000	85.314415	-177.5831
43.099998	85.272354	-178.0410
43.700001	85.245872	-178.3309
44.400002	85.241310	-178.7521
45.000000	85.225372	-179.2539
45.500000	85.196602	-179.6191
46.200001	85.164734	-179.9786
46.799999	85.154152	179.6294
47.500000	85.115814	179.0661
48.200001	85.062332	178.7986
48.700001	85.060631	178.7049
49.400002	85.092834	178.2324
50.000000	85.074844	177.5787
50.799999	85.001488	177.0391
51.500000	84.969566	176.8372
52.200001	84.938248	176.5164
53.000000	84.881126	176.3444
53.799999	84.860840	176.2396
54.500000	84.831177	175.9710
55.200001	84.803101	175.7795
56.000000	84.790977	175.1018
57.000000	84.561501	174.1405
58.000000	84.446823	175.2855
59.000000	84.629219	174.6850
60.000000	84.551613	173.3860
60.799999	84.527138	173.2035
61.500000	84.543236	172.7008
62.200001	84.503250	172.2846
63.000000	84.486053	172.2159
64.000000	84.471573	171.7957
65.000000	84.403427	171.8481
66.000000	84.415649	171.7429
67.000000	84.342941	171.2741
68.000000	84.289909	171.3043
69.000000	84.289024	170.8447
70.000000	84.212563	170.3842
71.000000	84.180832	170.3982
72.000000	84.192749	170.1339
73.000000	84.170135	169.8458
74.000000	84.150749	169.6005
75.000000	84.103630	169.3107
76.199997	84.048477	169.0397
77.500000	83.970589	168.7763
78.800003	83.944809	168.4678
80.000000	83.880539	168.1880
81.199997	83.866364	168.1282
82.500000	83.790443	167.8132
83.800003	83.747498	168.0875
85.000000	83.704941	167.7098
86.199997	83.686142	167.3572
87.500000	83.538094	166.9239
88.500000	83.732300	167.1491
90.000000	83.448296	163.5873
91.199997	83.288071	166.6209
92.500000	83.489838	166.1190
93.800003	83.450455	166.4076
95.000000	83.410202	166.0771
96.199997	83.334732	166.2274
97.500000	83.300873	166.0070
98.800003	83.224983	165.8893
100.000000	83.249596	165.6070
101.500000	83.130371	165.3468
103.000000	83.110703	165.2256
104.400002	83.057373	165.3641
106.000000	82.976898	165.0656
107.500000	82.938263	164.8618
109.000000	82.879852	164.9457
110.599998	82.832207	164.5844
112.000000	82.833321	164.8292
113.800003	82.723564	164.4045
115.000000	82.710579	164.6396
117.199997	82.607727	164.3995
118.000000	82.599922	164.3798
120.599998	82.492355	164.3050
122.000000	82.449669	164.1191
124.099998	82.416931	164.0818
125.000000	82.364502	163.9604
126.500000	82.303955	164.1927
128.000000	82.263260	164.0718
131.500000	82.087196	164.1962
132.000000	82.072311	164.3284
134.000000	82.035210	164.2512
136.000000	81.955841	164.3553
138.000000	81.931404	164.5012
140.000000	81.820145	164.5534
143.000000	81.744965	164.5308
145.000000	81.676468	164.7393
147.500000	81.568733	164.9979
150.000000	81.484940	165.5969
152.500000	81.403038	165.4462
155.000000	81.349319	165.4662
157.500000	81.299484	165.7845
160.000000	81.210533	165.9182
162.500000	81.141685	166.3819
165.000000	81.086441	166.8496
167.500000	81.021286	166.7906
170.000000	81.020012	167.0854
172.500000	80.960846	167.6891
175.000000	80.861000	167.9967
177.500000	80.806366	168.4132
180.000000	80.754608	168.7269
182.500000	80.663803	169.0806
185.000000	80.639191	169.5262
187.500000	80.583488	169.8001
190.000000	80.564728	170.2520
192.500000	80.520935	170.7388
195.000000	80.481049	171.1977
197.500000	80.430023	171.5800
200.000000	80.383293	171.9375
203.000000	80.370667	172.3908
206.000000	80.353127	172.9948
209.000000	80.325546	173.4549
212.000000	80.317947	173.8811
214.000000	80.297089	174.2300
218.000000	80.287994	174.9099
220.000000	80.287193	175.1851
224.000000	80.295570	175.8577
227.000000	80.300949	176.2043
230.000000	80.304192	176.6454
233.000000	80.330612	176.9915
236.000000	80.349701	177.3772
240.000000	80.356552	177.8334
243.000000	80.351517	178.2080
247.000000	80.355423	178.7061
250.000000	80.304810	178.8184
254.000000	80.410919	179.2751
258.000000	80.423668	179.6691
262.000000	80.419434	179.9974
265.000000	80.434326	-179.7171
269.000000	80.444702	-179.2989
272.000000	80.484711	-179.0530
276.000000	80.499832	-178.7861
280.000000	80.526268	-178.5769
285.000000	80.539482	-178.1573
290.000000	80.567291	-177.8781
295.000000	80.596474	-177.5430
300.000000	80.600647	-177.3900
304.000000	80.621193	-177.0241
307.000000	80.640541	-176.9016
311.000000	80.656181	-176.6431
315.000000	80.664764	-176.3176
320.000000	80.684021	-176.2669
325.000000	80.698334	-175.9749
330.000000	80.714172	-175.6896
335.000000	80.747124	-175.5775
340.000000	80.736732	-175.3826
345.000000	80.773788	-175.2486
350.000000	80.817879	-175.0356
355.000000	80.785110	-174.7224
360.000000	80.798798	-174.5840
365.000000	80.804398	-174.2767
370.000000	80.805489	-174.2318
375.000000	80.822800	-173.9766
382.000000	80.838715	-173.8363
387.000000	80.833672	-173.6156
395.000000	80.854889	-173.2959
400.000000	80.853668	-172.9954
406.000000	80.859360	-172.9912
412.000000	80.866455	-172.7485
418.000000	80.874435	-172.4155
425.000000	80.893127	-172.2995
431.000000	80.886841	-171.9379
437.000000	80.916847	-171.6882
444.000000	80.941498	-171.3941
450.000000	80.913963	-171.1700
455.000000	80.979797	-170.9711
462.000000	80.992027	-170.8459
468.000000	80.988205	-170.7261
475.000000	81.017639	-170.5622
482.000000	81.022034	-170.3780
487.000000	81.028397	-170.2315
494.000000	81.036903	-170.0611
500.000000	81.084396	-169.7299
508.000000	81.069374	-169.5170
515.000000	81.089355	-169.3465
522.000000	81.102493	-169.1272
530.000000	81.117310	-168.8100
538.000000	81.126495	-168.5815
545.000000	81.141983	-168.3181
552.000000	81.152039	-168.0238
560.000000	81.163727	-167.8203
570.000000	81.195663	-167.4614
580.000000	81.211090	-167.1917
590.000000	81.240616	-166.7863
600.000000	81.226135	-166.6463
608.000000	81.274193	-166.0998
615.000000	81.291557	-165.9594
622.000000	81.316849	-165.6950
630.000000	81.338379	-165.4812
640.000000	81.363503	-165.1422
650.000000	81.419365	-164.8859
660.000000	81.418610	-164.6329
670.000000	81.453140	-164.3419
680.000000	81.481850	-164.2081
690.000000	81.508919	-163.7638
700.000000	81.525246	-163.1378
710.000000	81.554710	-163.2897
720.000000	81.581581	-163.0813
730.000000	81.600548	-162.7947
740.000000	81.611427	-162.6415
750.000000	81.621475	-162.3148
762.000000	81.645355	-162.0796
775.000000	81.666451	-161.7141
788.000000	81.661240	-161.4349
800.000000	81.675110	-161.0195
812.000000	81.667267	-160.6651
825.000000	81.659851	-160.4494
838.000000	81.686920	-159.7144
850.000000	81.713936	-159.3216
862.000000	81.712646	-158.8252
875.000000	81.738205	-158.4448
885.000000	81.747879	-157.8939
900.000000	81.787018	-157.4616
912.000000	81.805954	-156.8110
925.000000	81.811852	-155.9351
938.000000	81.861977	-155.7564
950.000000	81.910820	-155.3812
962.000000	81.937866	-154.7710
975.000000	81.982925	-153.9433
988.000000	82.048027	-153.5641
1000.000000	82.142265	-153.1078
1015.000000	82.127670	-152.5144
1030.000000	82.169899	-151.9556
1044.000000	82.218872	-151.4092
1060.000000	82.282425	-150.8623
1075.000000	82.340981	-150.4098
1090.000000	82.416229	-149.7032
1106.000000	82.509895	-149.1612
1120.000000	82.585327	-148.6146
1138.000000	82.680183	-148.0804
1150.000000	82.750137	-147.6006
1172.000000	82.887405	-146.9603
1180.000000	82.922546	-146.7065
1206.000000	83.081833	-145.9844
1220.000000	83.172699	-145.6041
1241.000000	83.324577	-144.9659
1250.000000	83.375595	-144.6815
1265.000000	83.507477	-144.4093
1280.000000	83.614632	-143.9472
1315.000000	83.883659	-143.2251
1320.000000	83.931793	-143.0681
1340.000000	84.087868	-142.7791
1360.000000	84.243690	-142.4350
1380.000000	84.413116	-142.1927
1400.000000	84.590935	-141.8984
1430.000000	84.825363	-141.6879
1450.000000	84.988480	-141.4772
1475.000000	85.176407	-141.3798
1500.000000	85.369858	-141.4229
1525.000000	85.541672	-141.3346
1550.000000	85.728096	-141.2911
1575.000000	85.916000	-141.3732
1600.000000	86.101814	-141.4871
1625.000000	86.260330	-141.5859
1650.000000	86.435074	-141.5970
1675.000000	86.604164	-141.7173
1700.000000	86.769348	-141.7591
1725.000000	86.928055	-142.0194
1750.000000	87.094833	-142.0872
1775.000000	87.247520	-142.2534
1800.000000	87.398872	-142.4009
1825.000000	87.562988	-142.6097
1850.000000	87.716835	-142.9165
1875.000000	87.869781	-143.0140
1900.000000	88.024994	-143.2025
1925.000000	88.177429	-143.4752
1950.000000	88.330032	-143.7474
1975.000000	88.464523	-144.0727
2000.000000	88.547150	-144.6403
2030.000000	88.795029	-144.7184
2060.000000	88.982605	-145.0850
2090.000000	89.154854	-145.4924
2120.000000	89.321808	-145.9860
2140.000000	89.440536	-146.3489
2180.000000	89.662506	-146.9892
2200.000000	89.783966	-147.3235
2240.000000	89.998474	-148.3015
2270.000000	90.153023	-149.2823
2300.000000	90.300674	-150.4589
2330.000000	90.454582	-151.7201
2360.000000	90.591339	-152.9918
2400.000000	90.775482	-154.5202
2430.000000	90.914581	-155.4538
2470.000000	91.080070	-156.6661
2500.000000	91.188881	-157.6191
2540.000000	91.328026	-158.8671
2580.000000	91.456238	-160.1641
2620.000000	91.568016	-161.5419
2650.000000	91.650696	-162.6046
2690.000000	91.736191	-163.9764
2720.000000	91.801010	-165.0270
2760.000000	91.852516	-166.4776
2800.000000	91.899475	-167.8422
2850.000000	91.929596	-169.5213
2900.000000	91.949265	-171.2365
2950.000000	91.937157	-172.9411
3000.000000	91.914398	-174.2082
3040.000000	91.891701	-175.7492
3070.000000	91.880081	-176.6711
3110.000000	91.811172	-177.8767
3150.000000	91.755898	-179.0025
3200.000000	91.671753	179.7089
3250.000000	91.584114	178.4090
3300.000000	91.474854	177.2859
3350.000000	91.369560	176.1385
3400.000000	91.252831	175.1737
3450.000000	91.143982	174.3619
3500.000000	91.038246	173.5236
3550.000000	90.942413	173.0097
3600.000000	90.849060	172.5031
3650.000000	90.780525	172.2010
3700.000000	90.720589	171.9795
3750.000000	90.698387	171.7501
3820.000000	90.691544	171.1382
3870.000000	90.671402	170.5944
3950.000000	90.605225	169.4778
4000.000000	90.528915	168.6223
4060.000000	90.466095	167.9669
4120.000000	90.361069	167.2008
4180.000000	90.250412	166.5672
4250.000000	90.136948	165.8463
4310.000000	89.992744	165.4495
4370.000000	89.889496	164.9615
4440.000000	89.752075	164.6483
4500.000000	89.613853	164.2759
4550.000000	89.547852	164.2612
4620.000000	89.428574	164.1206
4680.000000	89.272949	163.8488
4750.000000	89.183861	164.0388
4820.000000	89.026985	163.9201
4870.000000	88.956787	164.4198
4940.000000	88.852173	164.5573
5000.000000	88.769890	164.3973
5080.000000	88.732712	164.9726
5150.000000	88.649391	165.0283
5220.000000	88.608536	165.3960
5300.000000	88.530350	165.2560
5380.000000	88.503151	166.3519
5450.000000	88.450256	166.2044
5520.000000	88.413849	166.6310
5600.000000	88.336754	165.8937
5700.000000	88.287827	166.5938
5800.000000	88.087662	166.7744
5900.000000	87.958961	166.6989
6000.000000	87.908524	167.3523
6080.000000	87.897148	167.7247
6150.000000	87.906525	168.5269
6220.000000	87.868431	167.3641
6300.000000	87.759613	167.7927
6400.000000	87.780632	167.8071
6500.000000	87.655823	167.8973
6600.000000	87.772659	167.8848
6700.000000	87.714386	167.8254
6800.000000	87.644180	167.9832
6900.000000	87.610237	167.2252
7000.000000	87.682495	168.1602
7100.000000	87.702934	168.9131
7200.000000	87.654617	168.4606
7300.000000	87.747063	169.4976
7400.000000	88.023712	167.7242
7500.000000	88.165314	167.9633
7620.000000	88.263054	166.2601
7750.000000	88.510315	166.2579
7880.000000	88.468132	163.8778
8000.000000	88.532639	162.7532
8120.000000	88.663109	160.6365
8250.000000	88.683037	156.5708
8380.000000	88.820984	154.0310
8500.000000	88.944359	148.0219
8620.000000	88.657646	142.5684
8750.000000	87.952232	136.1663
8850.000000	87.197052	130.5303
9000.000000	85.592354	126.3682
9120.000000	84.398132	124.2533
9250.000000	82.925362	123.8086
9380.000000	81.577858	124.9827
9500.000000	80.596458	128.2342
9620.000000	79.620941	130.6797
9750.000000	78.627357	132.8293
9880.000000	77.771233	135.3190
10000.000000	77.072327	140.9127
10150.000000	76.154953	144.8318
10300.000000	75.621185	148.6787
10440.000000	74.783707	150.9505
10600.000000	74.164154	155.9985
10750.000000	73.621223	164.0557
10900.000000	73.343353	167.1708
11060.000000	72.514450	172.0023
11200.000000	72.103622	174.7618
11380.000000	72.081474	-178.0308
11500.000000	71.771652	-177.7146
11720.000000	71.570145	-172.6916
11800.000000	71.839813	-165.5623
12060.000000	71.369881	-165.0948
12200.000000	71.003632	-160.7693
12410.000000	71.344391	-157.1107
12500.000000	71.682007	-154.2923
12650.000000	71.992729	-150.1858
12800.000000	72.260178	-146.9477
13150.000000	72.624191	-142.8808
13200.000000	72.771027	-139.0756
13400.000000	72.692284	-137.1334
13600.000000	73.563240	-136.6268
13800.000000	74.058968	-134.7134
14000.000000	74.496063	-129.8462
14300.000000	75.325317	-132.3513
14500.000000	75.799576	-132.2225
14750.000000	77.529152	-129.1676
15000.000000	78.398697	-138.8157
15250.000000	79.394348	-145.5148
15500.000000	79.473846	-156.7168
15750.000000	79.247345	-164.6739
16000.000000	79.232857	-173.1980
16250.000000	77.340767	-173.6224
16500.000000	75.759163	-179.6789
16750.000000	75.684204	172.1727
17000.000000	74.569160	179.6976
17250.000000	76.677124	172.7301
17500.000000	73.518280	177.5919
17750.000000	73.949661	177.4053
18000.000000	75.884308	171.9972
18250.000000	77.052910	150.5314
18500.000000	77.092789	137.3229
18750.000000	77.997978	135.1068
19000.000000	76.937675	115.2646
19250.000000	73.078148	117.1769
19500.000000	74.540062	110.5964
19750.000000	71.869980	103.7977
