* Measurement data measured by REW V5.20 Beta 60
* Source: In 1-2 (MOTU M Series), LINE_IN (Master Volume), L, volume: 1.000
* Format: 256k Log Swept Sine, 1 sweep at -10.0 dBFS with no timing reference
* Dated: Jan 14, 2022 2:05:23 AM
* REW Settings:
*  C-weighting compensation: Off
*  Target level: 75.0 dB
* Note: ; 
* Measurement: Steel L
* Smoothing: None
* Frequency Step: 1/48 octave
* Start Frequency: 20.000 Hz
*
* Freq(Hz)	SPL(dB)	Phase(degrees)
20.000000	88.009460	167.9360
20.299999	88.066437	167.8634
20.600000	88.107735	167.6289
20.900000	88.126350	167.3383
21.200001	88.132317	167.0589
21.400000	88.132523	166.9010
21.799999	88.129211	166.6243
22.000000	88.126328	166.4635
22.400000	88.111610	165.9812
22.700001	88.076401	165.5703
23.000000	88.012238	165.2066
23.299999	87.927078	164.9749
23.600000	87.835197	164.9596
24.000000	87.731049	165.2541
24.299999	87.683929	165.5622
24.700001	87.660355	165.8860
25.000000	87.653671	166.0026
25.400000	87.634094	166.0465
25.799999	87.598373	166.1496
26.200001	87.577164	166.4039
26.500000	87.587479	166.6194
26.900000	87.628952	166.7664
27.200001	87.663078	166.6797
27.600000	87.682686	166.3654
28.000000	87.657166	166.1107
28.500000	87.609390	166.1984
29.000000	87.628319	166.5770
29.500000	87.716965	166.5623
30.000000	87.770515	165.9040
30.400000	87.732346	165.2455
30.700001	87.661232	164.9520
31.100000	87.560165	164.9748
31.500000	87.504051	165.2891
32.000000	87.506714	165.5211
32.500000	87.506790	165.2032
33.000000	87.426506	164.8118
33.500000	87.307823	164.9551
34.000000	87.265121	165.5773
34.500000	87.330086	165.9289
35.000000	87.412399	165.6088
35.500000	87.430695	164.9660
36.000000	87.404182	164.5618
36.500000	87.397552	164.4113
37.000000	87.421829	164.1522
37.500000	87.425644	163.7015
38.200001	87.363152	163.4096
38.700001	87.340591	163.6535
39.500000	87.402252	163.8781
40.000000	87.425217	163.6839
40.599998	87.399666	163.4959
41.200001	87.365013	163.5557
41.799999	87.339424	163.6202
42.500000	87.296837	163.6623
43.099998	87.264648	163.7569
43.700001	87.242332	163.6917
44.400002	87.179077	163.5427
45.000000	87.127045	163.7385
45.500000	87.141113	163.9188
46.200001	87.190308	163.5446
46.799999	87.144211	162.9691
47.500000	87.046982	163.0876
48.200001	87.070778	163.6010
48.700001	87.130447	163.5853
49.400002	87.159828	163.2433
50.000000	87.159180	163.1185
50.799999	87.168442	162.8477
51.500000	87.114815	162.5410
52.200001	87.044548	162.7020
53.000000	87.033264	162.8972
53.799999	86.994774	162.7534
54.500000	86.952187	162.8953
55.200001	86.968025	162.8671
56.000000	86.933067	162.3062
57.000000	86.824608	162.3740
58.000000	86.867615	162.3047
59.000000	86.801178	161.7221
60.000000	86.778358	162.1109
60.799999	86.837135	161.8572
61.500000	86.802834	161.4594
62.200001	86.754768	161.6628
63.000000	86.816483	161.9271
64.000000	86.854576	161.0510
65.000000	86.691315	160.8208
66.000000	86.677338	161.5324
67.000000	86.710030	161.0813
68.000000	86.600494	160.8810
69.000000	86.571587	161.0948
70.000000	86.529900	160.9613
71.000000	86.505661	161.1919
72.000000	86.522812	160.9521
73.000000	86.460632	160.7812
74.000000	86.451180	160.9545
75.000000	86.459030	160.6767
76.199997	86.406929	160.3699
77.500000	86.349075	160.1642
78.800003	86.314468	160.2186
80.000000	86.320297	159.9115
81.199997	86.282593	159.5754
82.500000	86.186089	159.4104
83.800003	86.192825	160.0715
85.000000	86.220512	159.4284
86.199997	86.112526	159.4283
87.500000	86.071320	159.2455
88.500000	85.978256	159.4138
90.000000	86.002602	159.5464
91.199997	85.960564	159.3187
92.500000	85.959961	159.1583
93.800003	85.901917	158.8279
95.000000	85.851135	158.8425
96.199997	85.812325	158.9355
97.500000	85.817383	158.9423
98.800003	85.782494	158.7234
100.000000	85.778923	158.6978
101.500000	85.744095	158.3085
103.000000	85.685814	158.1549
104.400002	85.615524	158.2804
106.000000	85.561035	158.4106
107.500000	85.541656	158.6256
109.000000	85.492348	158.3713
110.599998	85.434380	158.3448
112.000000	85.415085	158.2482
113.800003	85.344872	157.9512
115.000000	85.337296	157.8712
117.199997	85.268723	157.7806
118.000000	85.255058	157.7060
120.599998	85.163094	157.4835
122.000000	85.118752	157.7438
124.099998	85.081192	157.6711
125.000000	85.084152	157.6729
126.500000	85.020187	157.5015
128.000000	84.987122	157.7007
131.500000	84.924011	158.0280
132.000000	84.919968	158.1058
134.000000	84.855049	157.8973
136.000000	84.780785	157.9974
138.000000	84.685844	157.9272
140.000000	84.608971	157.9606
143.000000	84.620712	157.5839
145.000000	84.579315	157.3444
147.500000	84.501648	157.5417
150.000000	84.438293	157.5327
152.500000	84.406830	157.5838
155.000000	84.380814	157.5366
157.500000	84.313667	157.8105
160.000000	84.353302	157.5875
162.500000	84.281105	156.8060
165.000000	84.308548	157.1583
167.500000	84.373268	157.7407
170.000000	84.503746	157.5753
172.500000	84.213913	157.9955
175.000000	84.219055	157.2538
177.500000	84.256561	157.3137
180.000000	84.026871	158.2954
182.500000	83.729904	159.0408
185.000000	83.847054	159.1581
187.500000	83.735428	159.0825
190.000000	83.737381	159.4310
192.500000	83.587555	159.3972
195.000000	83.539955	159.1653
197.500000	83.518433	158.8575
200.000000	83.473167	158.9409
203.000000	83.388519	158.7743
206.000000	83.308472	158.9672
209.000000	83.288551	159.0069
212.000000	83.250389	159.2269
214.000000	83.237328	159.2477
218.000000	83.170784	159.5383
220.000000	83.145660	159.8077
224.000000	83.046471	159.7255
227.000000	83.043442	160.1856
230.000000	83.016724	160.2878
233.000000	83.011139	160.5085
236.000000	82.961487	160.8424
240.000000	82.884766	160.7127
243.000000	82.835999	160.8047
247.000000	82.779663	161.0048
250.000000	82.769508	161.2180
254.000000	82.681183	161.3965
258.000000	82.622467	161.7015
262.000000	82.595184	161.9016
265.000000	82.555328	161.9581
269.000000	82.475098	162.3136
272.000000	82.467369	162.5383
276.000000	82.389725	162.7932
280.000000	82.325951	162.7732
285.000000	82.285049	162.9647
290.000000	82.232735	163.4456
295.000000	82.217949	163.7834
300.000000	82.160172	164.1819
304.000000	82.117508	163.9823
307.000000	82.073158	164.4035
311.000000	82.052025	164.4827
315.000000	82.034889	164.9836
320.000000	82.002708	165.3148
325.000000	81.947144	165.4910
330.000000	81.864388	165.8291
335.000000	81.851807	166.1288
340.000000	81.817482	166.3904
345.000000	81.741356	166.9906
350.000000	81.725906	167.0234
355.000000	81.722015	167.0385
360.000000	81.631813	167.6062
365.000000	81.628372	167.9043
370.000000	81.592102	168.2093
375.000000	81.552025	168.2755
382.000000	81.499115	169.0259
387.000000	81.475166	169.2467
395.000000	81.439529	169.8339
400.000000	81.385071	170.1279
406.000000	81.348747	170.4665
412.000000	81.291023	170.6433
418.000000	81.262886	171.2236
425.000000	81.257660	171.6340
431.000000	81.219193	171.9238
437.000000	81.213516	172.3792
444.000000	81.185326	172.6705
450.000000	81.167053	173.0536
455.000000	81.152069	173.4829
462.000000	81.127457	173.6843
468.000000	81.115234	174.1379
475.000000	81.085197	174.4962
482.000000	81.087234	174.7614
487.000000	81.065926	175.1949
494.000000	81.031601	175.5590
500.000000	81.020866	175.9690
508.000000	80.991425	176.3267
515.000000	80.961166	176.7368
522.000000	80.942162	177.2415
530.000000	80.910324	177.7256
538.000000	80.886505	178.1338
545.000000	80.868439	178.4802
552.000000	80.856293	178.9233
560.000000	80.840157	179.3649
570.000000	80.813126	179.9351
580.000000	80.793922	-179.4299
590.000000	80.784164	-178.8102
600.000000	80.768593	-178.1987
608.000000	80.759399	-177.7446
615.000000	80.754646	-177.2770
622.000000	80.749565	-176.8941
630.000000	80.718262	-176.1547
640.000000	80.750610	-175.6867
650.000000	80.744751	-175.1440
660.000000	80.758682	-174.5658
670.000000	80.759476	-174.0442
680.000000	80.777306	-173.3813
690.000000	80.768280	-172.7826
700.000000	80.772552	-172.1685
710.000000	80.768158	-171.5996
720.000000	80.767998	-170.9408
730.000000	80.773422	-170.4076
740.000000	80.774567	-169.7719
750.000000	80.789581	-169.1040
762.000000	80.804939	-168.3868
775.000000	80.813858	-167.5934
788.000000	80.827194	-166.7113
800.000000	80.853897	-166.0392
812.000000	80.891991	-165.2611
825.000000	80.933647	-164.5087
838.000000	80.967422	-163.6782
850.000000	81.011658	-162.8906
862.000000	81.061386	-162.2060
875.000000	81.106071	-161.3548
885.000000	81.135384	-160.7889
900.000000	81.200745	-159.8788
912.000000	81.263908	-159.0753
925.000000	81.333687	-158.3832
938.000000	81.391418	-157.5877
950.000000	81.466354	-156.8811
962.000000	81.539314	-156.2907
975.000000	81.614799	-155.5636
988.000000	81.718300	-154.8593
1000.000000	81.781235	-154.2677
1015.000000	81.890076	-153.5845
1030.000000	82.002571	-152.9097
1044.000000	82.113403	-152.2922
1060.000000	82.240479	-151.6786
1075.000000	82.366493	-151.1846
1090.000000	82.490128	-150.6773
1106.000000	82.624382	-150.2087
1120.000000	82.747879	-149.8146
1138.000000	82.896606	-149.4106
1150.000000	83.009422	-149.1604
1172.000000	83.202934	-148.7988
1180.000000	83.279800	-148.7015
1206.000000	83.512680	-148.4711
1220.000000	83.633118	-148.3718
1241.000000	83.815842	-148.2573
1250.000000	83.893944	-148.1873
1265.000000	84.022659	-148.1915
1280.000000	84.148254	-148.2115
1315.000000	84.438568	-148.3092
1320.000000	84.470337	-148.3629
1340.000000	84.618019	-148.4652
1360.000000	84.757240	-148.5619
1380.000000	84.893181	-148.6552
1400.000000	85.020836	-148.8083
1430.000000	85.200638	-149.0127
1450.000000	85.317551	-149.0806
1475.000000	85.457413	-149.2901
1500.000000	85.595840	-149.4436
1525.000000	85.722755	-149.4731
1550.000000	85.847481	-149.5257
1575.000000	85.983192	-149.5622
1600.000000	86.128784	-149.6803
1625.000000	86.272766	-149.6751
1650.000000	86.427223	-149.8531
1675.000000	86.575386	-150.1379
1700.000000	86.719940	-150.3851
1725.000000	86.836807	-150.5704
1750.000000	86.952415	-150.8353
1775.000000	87.073021	-151.0594
1800.000000	87.185951	-151.3127
1825.000000	87.304222	-151.5196
1850.000000	87.426018	-151.7852
1875.000000	87.551643	-152.1202
1900.000000	87.665764	-152.3297
1925.000000	87.780380	-152.5597
1950.000000	87.895416	-152.8824
1975.000000	88.015076	-153.2655
2000.000000	88.137161	-153.5794
2030.000000	88.267517	-153.9838
2060.000000	88.398842	-154.4456
2090.000000	88.533218	-154.9206
2120.000000	88.657463	-155.4295
2140.000000	88.739624	-155.7649
2180.000000	88.889481	-156.4340
2200.000000	88.963608	-156.7811
2240.000000	89.122391	-157.4843
2270.000000	89.246338	-158.0658
2300.000000	89.371155	-158.6683
2330.000000	89.486755	-159.3795
2360.000000	89.589600	-160.1657
2400.000000	89.709335	-161.1991
2430.000000	89.784363	-161.9815
2470.000000	89.864578	-162.9267
2500.000000	89.918320	-163.5657
2540.000000	89.999306	-164.4502
2580.000000	90.093536	-165.4291
2620.000000	90.179169	-166.5744
2650.000000	90.229324	-167.4440
2690.000000	90.274521	-168.6493
2720.000000	90.298012	-169.5307
2760.000000	90.307800	-170.6637
2800.000000	90.308655	-171.7604
2850.000000	90.294098	-173.1215
2900.000000	90.272194	-174.3907
2950.000000	90.251633	-175.6516
3000.000000	90.236671	-176.8932
3040.000000	90.214172	-177.8892
3070.000000	90.188942	-178.5932
3110.000000	90.137100	-179.5292
3150.000000	90.083603	179.5608
3200.000000	90.012039	178.5020
3250.000000	89.943108	177.5151
3300.000000	89.869110	176.5816
3350.000000	89.793709	175.7375
3400.000000	89.720879	174.9158
3450.000000	89.663818	174.0799
3500.000000	89.622124	173.1907
3550.000000	89.578239	172.3289
3600.000000	89.519890	171.4445
3650.000000	89.451584	170.5943
3700.000000	89.385666	169.7471
3750.000000	89.315727	168.9861
3820.000000	89.206383	167.9479
3870.000000	89.125923	167.2530
3950.000000	88.974846	166.1660
4000.000000	88.868118	165.5255
4060.000000	88.747581	164.7979
4120.000000	88.618073	164.1763
4180.000000	88.486458	163.6600
4250.000000	88.339943	163.0540
4310.000000	88.215919	162.5950
4370.000000	88.088043	162.1772
4440.000000	87.953125	161.6722
4500.000000	87.855995	161.3430
4550.000000	87.768082	161.0537
4620.000000	87.653412	160.5853
4680.000000	87.541885	160.1392
4750.000000	87.395615	159.7021
4820.000000	87.248199	159.3019
4870.000000	87.142563	159.0590
4940.000000	86.999268	158.7470
5000.000000	86.881531	158.4964
5080.000000	86.719521	158.2698
5150.000000	86.569885	158.1599
5220.000000	86.424408	158.0505
5300.000000	86.257843	158.0811
5380.000000	86.096573	158.1757
5450.000000	85.928452	158.3727
5520.000000	85.738792	158.6959
5600.000000	85.538422	158.9797
5700.000000	85.282463	159.6321
5800.000000	85.048920	160.2666
5900.000000	84.829445	161.2088
6000.000000	84.637985	162.1604
6080.000000	84.496964	163.1140
6150.000000	84.392250	163.9137
6220.000000	84.327820	164.7881
6300.000000	84.276588	165.7884
6400.000000	84.227806	167.0800
6500.000000	84.214706	168.3364
6600.000000	84.228287	169.6458
6700.000000	84.280334	170.9547
6800.000000	84.375198	172.1848
6900.000000	84.530533	173.3881
7000.000000	84.756752	174.5031
7100.000000	85.042946	175.3727
7200.000000	85.367195	176.0742
7300.000000	85.780350	176.3939
7400.000000	86.220772	176.2584
7500.000000	86.700890	175.5935
7620.000000	87.337746	173.7683
7750.000000	88.016663	170.3475
7880.000000	88.627991	165.0532
8000.000000	89.031891	158.4239
8120.000000	89.164566	150.4990
8250.000000	88.880867	141.4792
8380.000000	88.201668	133.0539
8500.000000	87.285095	126.8801
8620.000000	86.251678	122.3789
8750.000000	85.048485	119.2357
8850.000000	84.132500	117.9429
9000.000000	82.827431	117.2070
9120.000000	81.848473	117.6002
9250.000000	80.870003	118.6404
9380.000000	79.973465	120.1746
9500.000000	79.215973	121.9761
9620.000000	78.519234	124.2392
9750.000000	77.855309	126.6769
9880.000000	77.254242	129.2688
10000.000000	76.776199	131.7483
10150.000000	76.192566	135.0811
10300.000000	75.728088	138.1479
10440.000000	75.308487	141.2447
10600.000000	74.887962	144.7806
10750.000000	74.541458	147.9679
10900.000000	74.284744	151.1927
11060.000000	74.025070	154.4100
11200.000000	73.827232	157.3347
11380.000000	73.637611	160.7436
11500.000000	73.514557	163.0419
11720.000000	73.356956	166.8576
11800.000000	73.328270	168.4094
12060.000000	73.252869	172.4868
12200.000000	73.218506	174.3100
12410.000000	73.338928	177.1048
12500.000000	73.370010	178.1302
12650.000000	73.430275	179.8023
12800.000000	73.563530	-178.6189
13150.000000	73.818008	-175.3034
13200.000000	73.854324	-174.9791
13400.000000	74.072670	-173.4577
13600.000000	74.304100	-172.1250
13800.000000	74.533653	-171.1898
14000.000000	74.834007	-170.4996
14300.000000	75.313828	-170.1010
14500.000000	75.684883	-170.4162
14750.000000	76.230850	-171.8543
15000.000000	76.791031	-174.7948
15250.000000	77.264999	-179.5713
15500.000000	77.635880	173.5364
15750.000000	77.591179	164.6863
16000.000000	77.030037	155.3065
16250.000000	75.901016	146.9061
16500.000000	74.265442	142.0704
16750.000000	72.829514	143.0291
17000.000000	72.156593	142.8413
17250.000000	71.207069	139.4490
17500.000000	69.465881	135.2707
17750.000000	67.190071	140.2249
18000.000000	66.140144	147.0277
18250.000000	65.057983	151.2447
18500.000000	64.176064	155.6843
18750.000000	63.288788	160.6895
19000.000000	62.562370	165.5968
19250.000000	61.840469	171.2521
19500.000000	61.311111	175.7782
19750.000000	60.477531	-178.6162
