* Measurement data measured by REW V5.20 Beta 47
* Source: Headset (USB-C to 3.5mm Headphone Jack Adapter), MICROPHONE (Master Volume), L, volume: 0.000
* Format: 256k Log Swept Sine, 1 sweep at -3.0 dBFS with no timing reference
* Dated: Jun 14, 2020 8:51:05 PM
* REW Settings:
*  C-weighting compensation: Off
*  Target level: 75.0 dB
* Note: ; 
* Measurement: Moondrop Starfield L
* Smoothing: None
* Frequency Step: 1/48 octave
* Start Frequency: 20.000 Hz
*
* Freq(Hz)	SPL(dB)	Phase(degrees)
20.0000	90.8288	-175.38
20.3000	90.8235	-175.70
20.6000	90.8239	-175.93
20.9000	90.8337	-176.13
21.2000	90.8577	-176.36
21.4000	90.8763	-176.57
21.8000	90.9090	-177.09
22.0000	90.9186	-177.41
22.4000	90.9193	-178.12
22.7000	90.8994	-178.61
23.0000	90.8690	-179.02
23.3000	90.8410	-179.35
23.6000	90.8205	-179.62
24.0000	90.8080	-179.98
24.3000	90.8039	179.66
24.7000	90.7869	179.07
25.0000	90.7546	178.63
25.4000	90.6894	178.21
25.8000	90.6261	178.15
26.2000	90.6148	178.40
26.5000	90.6590	178.57
26.9000	90.7729	178.51
27.2000	90.8673	178.10
27.6000	90.9531	177.15
28.0000	90.9538	176.09
28.5000	90.8672	175.28
29.0000	90.8051	175.27
29.5000	90.8525	175.39
30.0000	90.9368	174.88
30.4000	90.9441	174.09
30.7000	90.8951	173.56
31.1000	90.7926	173.25
31.5000	90.7137	173.41
32.0000	90.7102	173.72
32.5000	90.7573	173.43
33.0000	90.7320	172.68
33.5000	90.6190	172.22
34.0000	90.5287	172.41
34.5000	90.5565	172.63
35.0000	90.6437	172.16
35.5000	90.6657	171.05
36.0000	90.5789	170.02
36.5000	90.4516	169.62
37.0000	90.3828	169.74
37.5000	90.3994	169.82
38.2000	90.4574	169.33
38.7000	90.4515	168.73
39.5000	90.3693	168.18
40.0000	90.3283	168.21
40.6000	90.3227	168.27
41.2000	90.3332	168.09
41.8000	90.3194	167.79
42.5000	90.2891	167.54
43.1000	90.2817	167.25
43.7000	90.2564	166.76
44.4000	90.1809	166.31
45.0000	90.1374	166.21
45.5000	90.1330	166.02
46.2000	90.0992	165.50
46.8000	90.0315	165.28
47.5000	90.0087	165.26
48.2000	89.9897	164.73
48.7000	89.9039	164.34
49.4000	89.7826	164.60
50.0000	89.7932	164.72
50.8000	89.7090	163.58
51.5000	89.4167	163.86
52.2000	89.4316	165.97
53.0000	89.8690	165.49
53.8000	89.8922	162.14
54.5000	89.5949	161.06
55.2000	89.4885	161.59
56.0000	89.5166	161.41
57.0000	89.4562	161.46
58.0000	89.5493	161.56
59.0000	89.5198	160.86
60.0000	89.4297	160.91
60.8000	89.3826	160.95
61.5000	89.3465	160.99
62.2000	89.3328	160.96
63.0000	89.3303	160.70
64.0000	89.3057	160.13
65.0000	89.2495	159.73
66.0000	89.2234	159.43
67.0000	89.1443	159.00
68.0000	89.0552	159.28
69.0000	89.0702	159.31
70.0000	89.0175	158.83
71.0000	88.9475	158.70
72.0000	88.9198	158.42
73.0000	88.8675	158.21
74.0000	88.8612	158.11
75.0000	88.7954	157.85
76.2000	88.7568	158.49
77.5000	88.7507	157.82
78.8000	88.6048	157.75
80.0000	88.5363	157.06
81.2000	88.4269	156.78
82.5000	88.4380	156.67
83.8000	88.4492	156.02
85.0000	88.4009	156.91
86.2000	88.4193	156.31
87.5000	88.2626	157.34
88.5000	88.0360	154.97
90.0000	87.4733	162.35
91.2000	88.4368	158.38
92.5000	87.8570	155.67
93.8000	87.9855	155.11
95.0000	87.8909	155.15
96.2000	87.9402	154.73
97.5000	87.8271	155.55
98.8000	87.8569	155.54
100.0000	87.7442	155.21
101.5000	87.6427	155.19
103.0000	87.5901	154.92
104.4000	87.5781	154.66
106.0000	87.5321	154.81
107.5000	87.5042	154.68
109.0000	87.4156	154.56
110.6000	87.3714	154.80
112.0000	87.3083	154.43
113.8000	87.2772	154.73
115.0000	87.2285	154.14
117.2000	87.0009	154.35
118.0000	86.9707	154.44
120.6000	86.9078	154.17
122.0000	86.9259	154.55
124.1000	86.8840	154.48
125.0000	86.8822	154.28
126.5000	86.7669	154.01
128.0000	86.6617	154.08
131.5000	86.6713	154.60
132.0000	86.7035	154.34
134.0000	86.5994	154.17
136.0000	86.4129	154.35
138.0000	86.3787	154.29
140.0000	86.3715	154.67
143.0000	86.3103	154.58
145.0000	86.2390	154.23
147.5000	86.1141	154.54
150.0000	85.9774	154.65
152.5000	86.0001	154.56
155.0000	85.9490	154.60
157.5000	85.9022	154.72
160.0000	85.8957	155.32
162.5000	85.7538	154.65
165.0000	85.7115	155.46
167.5000	85.6885	155.14
170.0000	85.6296	155.58
172.5000	85.5370	155.70
175.0000	85.4584	155.55
177.5000	85.4111	155.77
180.0000	85.2017	155.04
182.5000	85.2788	155.89
185.0000	85.2222	156.47
187.5000	85.1326	156.38
190.0000	85.0615	156.38
192.5000	85.0265	156.71
195.0000	84.9835	156.68
197.5000	84.9279	157.00
200.0000	84.8491	157.17
203.0000	84.7944	157.26
206.0000	84.7372	157.51
209.0000	84.6750	157.84
212.0000	84.6662	157.91
214.0000	84.5667	158.06
218.0000	84.5329	158.24
220.0000	84.4608	158.55
224.0000	84.4384	158.78
227.0000	84.4232	158.76
230.0000	84.3497	159.19
233.0000	84.3118	159.51
236.0000	84.2667	159.63
240.0000	84.2172	159.71
243.0000	84.1561	160.04
247.0000	84.1184	160.29
250.0000	84.0783	160.51
254.0000	83.9877	160.75
258.0000	83.9417	161.20
262.0000	83.8951	161.47
265.0000	83.8524	161.66
269.0000	83.7701	161.83
272.0000	83.7627	161.70
276.0000	83.7191	162.51
280.0000	83.7087	162.89
285.0000	83.6290	163.38
290.0000	83.5769	163.54
295.0000	83.5420	164.11
300.0000	83.5177	164.38
304.0000	83.4421	164.56
307.0000	83.3921	164.88
311.0000	83.3983	165.03
315.0000	83.3246	165.09
320.0000	83.3160	165.79
325.0000	83.2500	166.26
330.0000	83.2086	166.42
335.0000	83.0759	166.82
340.0000	83.1278	167.32
345.0000	83.0652	167.64
350.0000	83.0511	167.97
355.0000	83.0186	168.25
360.0000	82.9899	168.75
365.0000	82.9575	169.01
370.0000	82.9274	169.48
375.0000	82.9104	169.81
382.0000	82.8668	170.25
387.0000	82.8110	170.65
395.0000	82.7980	171.11
400.0000	82.7721	171.57
406.0000	82.7167	171.93
412.0000	82.6910	172.34
418.0000	82.6449	172.77
425.0000	82.6496	173.21
431.0000	82.6187	173.68
437.0000	82.5931	174.09
444.0000	82.5729	174.59
450.0000	82.5754	174.95
455.0000	82.5650	175.26
462.0000	82.5393	175.68
468.0000	82.5120	176.02
475.0000	82.4966	176.43
482.0000	82.4588	176.79
487.0000	82.4586	177.08
494.0000	82.4456	177.40
500.0000	82.4213	177.80
508.0000	82.4043	178.41
515.0000	82.3811	178.98
522.0000	82.3726	179.33
530.0000	82.3538	179.87
538.0000	82.3306	-179.65
545.0000	82.3109	-179.13
552.0000	82.3045	-178.70
560.0000	82.2902	-178.13
570.0000	82.2719	-177.55
580.0000	82.2526	-176.84
590.0000	82.2455	-176.20
600.0000	82.2403	-175.37
608.0000	82.2182	-175.00
615.0000	82.2149	-174.50
622.0000	82.2155	-174.03
630.0000	82.2208	-173.49
640.0000	82.2060	-172.94
650.0000	82.2250	-172.18
660.0000	82.2125	-171.63
670.0000	82.2153	-170.86
680.0000	82.1971	-170.36
690.0000	82.1905	-169.44
700.0000	82.2087	-168.56
710.0000	82.2100	-167.98
720.0000	82.1893	-167.11
730.0000	82.2209	-166.20
740.0000	82.2437	-165.40
750.0000	82.2751	-164.55
762.0000	82.3235	-163.55
775.0000	82.3730	-162.46
788.0000	82.4331	-161.41
800.0000	82.5043	-160.48
812.0000	82.5815	-159.66
825.0000	82.6828	-158.77
838.0000	82.7913	-157.95
850.0000	82.8766	-157.31
862.0000	82.9683	-156.70
875.0000	83.0606	-156.12
885.0000	83.1215	-155.72
900.0000	83.2190	-155.08
912.0000	83.2953	-154.56
925.0000	83.3702	-154.06
938.0000	83.4441	-153.44
950.0000	83.5238	-152.95
962.0000	83.5895	-152.40
975.0000	83.6750	-151.86
988.0000	83.7746	-151.27
1000.0000	83.9288	-150.57
1015.0000	83.9433	-150.15
1030.0000	84.0317	-149.65
1044.0000	84.1317	-149.11
1060.0000	84.2457	-148.61
1075.0000	84.3591	-148.09
1090.0000	84.4816	-147.66
1106.0000	84.6091	-147.23
1120.0000	84.7341	-146.90
1138.0000	84.8804	-146.52
1150.0000	84.9892	-146.27
1172.0000	85.1623	-145.95
1180.0000	85.2344	-145.83
1206.0000	85.4409	-145.53
1220.0000	85.5550	-145.43
1241.0000	85.7295	-145.25
1250.0000	85.8041	-145.23
1265.0000	85.9165	-145.16
1280.0000	86.0310	-145.12
1315.0000	86.2907	-145.04
1320.0000	86.3236	-145.04
1340.0000	86.4630	-145.00
1360.0000	86.5983	-145.06
1380.0000	86.7279	-145.06
1400.0000	86.8644	-145.06
1430.0000	87.0497	-145.10
1450.0000	87.1708	-145.16
1475.0000	87.3244	-145.21
1500.0000	87.4740	-145.25
1525.0000	87.6230	-145.32
1550.0000	87.7679	-145.46
1575.0000	87.9096	-145.53
1600.0000	88.0551	-145.62
1625.0000	88.1976	-145.75
1650.0000	88.3398	-145.90
1675.0000	88.4796	-146.00
1700.0000	88.6121	-146.16
1725.0000	88.7501	-146.33
1750.0000	88.8860	-146.53
1775.0000	89.0234	-146.74
1800.0000	89.1518	-146.97
1825.0000	89.2825	-147.22
1850.0000	89.4108	-147.50
1875.0000	89.5416	-147.77
1900.0000	89.6683	-148.09
1925.0000	89.7856	-148.44
1950.0000	89.8990	-148.82
1975.0000	90.0026	-149.26
2000.0000	90.0464	-149.94
2030.0000	90.2469	-150.15
2060.0000	90.3821	-150.63
2090.0000	90.4934	-151.21
2120.0000	90.6064	-151.81
2140.0000	90.6770	-152.22
2180.0000	90.8016	-153.08
2200.0000	90.8671	-153.47
2240.0000	90.9772	-154.53
2270.0000	91.0404	-155.61
2300.0000	91.0909	-156.80
2330.0000	91.1503	-158.05
2360.0000	91.1860	-159.24
2400.0000	91.2247	-160.60
2430.0000	91.2553	-161.37
2470.0000	91.2793	-162.11
2500.0000	91.2857	-162.62
2540.0000	91.3066	-163.24
2580.0000	91.3323	-163.96
2620.0000	91.3519	-164.61
2650.0000	91.3720	-165.30
2690.0000	91.3719	-166.11
2720.0000	91.3657	-166.60
2760.0000	91.3291	-167.40
2800.0000	91.3020	-167.95
2850.0000	91.2340	-168.61
2900.0000	91.2100	-169.31
2950.0000	91.1608	-169.94
3000.0000	91.1283	-170.18
3040.0000	91.0795	-170.72
3070.0000	91.0652	-171.30
3110.0000	90.9865	-171.71
3150.0000	90.9511	-171.93
3200.0000	90.9064	-172.33
3250.0000	90.8556	-172.89
3300.0000	90.8668	-173.25
3350.0000	90.7797	-173.67
3400.0000	90.7649	-173.85
3450.0000	90.7555	-174.34
3500.0000	90.7317	-175.02
3550.0000	90.7872	-175.56
3600.0000	90.7190	-175.94
3650.0000	90.7561	-176.26
3700.0000	90.7663	-176.78
3750.0000	90.7403	-177.27
3820.0000	90.6814	-178.35
3870.0000	90.7289	-179.23
3950.0000	90.6234	-179.98
4000.0000	90.5510	179.04
4060.0000	90.4817	178.00
4120.0000	90.3355	177.21
4180.0000	90.2456	176.85
4250.0000	90.1592	176.82
4310.0000	90.0070	176.64
4370.0000	90.0189	176.74
4440.0000	90.0633	175.93
4500.0000	89.9882	175.42
4550.0000	89.9612	173.94
4620.0000	89.9270	173.70
4680.0000	89.8802	172.20
4750.0000	89.7558	170.97
4820.0000	89.6694	170.12
4870.0000	89.5271	169.93
4940.0000	89.3381	167.88
5000.0000	89.1469	167.73
5080.0000	88.9276	166.78
5150.0000	88.6977	165.32
5220.0000	88.6067	164.80
5300.0000	88.2649	163.87
5380.0000	88.0127	163.54
5450.0000	87.7612	163.27
5520.0000	87.4900	164.06
5600.0000	87.0516	163.66
5700.0000	86.5490	165.33
5800.0000	86.3713	165.06
5900.0000	86.1522	166.99
6000.0000	85.7987	166.84
6080.0000	85.6159	168.24
6150.0000	85.2343	168.09
6220.0000	85.0770	169.10
6300.0000	84.9426	171.75
6400.0000	84.7107	173.45
6500.0000	84.6018	172.92
6600.0000	84.4650	176.26
6700.0000	84.5501	177.68
6800.0000	84.2329	179.27
6900.0000	84.5280	179.48
7000.0000	84.4140	-179.63
7100.0000	84.4587	-177.81
7200.0000	84.8892	-177.16
7300.0000	85.0566	-172.79
7400.0000	85.6698	-173.36
7500.0000	85.9543	-172.74
7620.0000	86.3369	-173.31
7750.0000	86.6516	-171.83
7880.0000	87.5885	-175.13
8000.0000	88.1226	-178.08
8120.0000	88.0273	178.37
8250.0000	88.9256	170.37
8380.0000	88.9356	162.64
8500.0000	88.1741	156.78
8620.0000	87.5035	145.97
8750.0000	86.4104	141.60
8850.0000	85.6305	142.21
9000.0000	84.7396	137.67
9120.0000	83.2749	133.57
9250.0000	82.0306	133.23
9380.0000	81.4131	132.72
9500.0000	80.6929	138.89
9620.0000	79.1106	136.08
9750.0000	78.4514	138.81
9880.0000	78.4374	140.20
10000.0000	77.9265	145.27
10150.0000	76.1538	150.63
10300.0000	76.5222	155.31
10440.0000	76.1098	152.22
10600.0000	74.7423	158.63
10750.0000	75.0658	169.65
10900.0000	74.8731	174.56
11060.0000	74.9673	172.25
11200.0000	74.9125	178.12
11380.0000	75.5091	-166.52
11500.0000	74.7334	-167.35
11720.0000	76.8803	-161.68
11800.0000	78.4677	-149.74
12060.0000	79.9034	-154.15
12200.0000	83.5748	-163.63
12410.0000	86.2611	-169.06
12500.0000	86.5576	176.65
12650.0000	87.5586	163.84
12800.0000	87.8702	138.88
13150.0000	83.3320	92.50
13200.0000	84.5786	89.14
13400.0000	80.7512	92.77
13600.0000	79.2514	74.54
13800.0000	77.1207	72.32
14000.0000	76.4829	85.24
14300.0000	72.2941	74.74
14500.0000	71.5118	71.30
14750.0000	72.9221	89.55
15000.0000	72.7544	80.57
15250.0000	70.3548	95.21
15500.0000	72.2786	86.52
15750.0000	71.7651	90.93
16000.0000	71.5619	56.55
16250.0000	70.8230	53.47
16500.0000	75.4721	55.56
16750.0000	72.1604	25.80
17000.0000	73.7519	4.29
17250.0000	78.3800	-14.51
17500.0000	73.0200	-61.53
17750.0000	71.2333	-87.08
18000.0000	73.4967	-84.22
18250.0000	65.8009	-131.38
18500.0000	63.5294	-145.86
18750.0000	67.5798	-168.71
19000.0000	63.5616	-135.07
19250.0000	66.8692	-169.26
19500.0000	64.9184	175.70
19750.0000	54.5641	103.28
