* Measurement data measured by REW V5.20 Beta 60
* Source: In 1-2 (MOTU M Series), LINE_IN (Master Volume), L, volume: 1.000
* Format: 256k Log Swept Sine, 1 sweep at -3.0 dBFS with no timing reference
* Dated: Mar 13, 2022 5:21:44 PM
* REW Settings:
*  C-weighting compensation: Off
*  Target level: 75.0 dB
* Note: ; 
* Measurement: Moondrop A8 R
* Smoothing: None
* Frequency Step: 1/48 octave
* Start Frequency: 20.000 Hz
*
* Freq(Hz) SPL(dB) Phase(degrees)
20.000000	88.064	-162.2028
20.299999	88.005	-162.5221
20.600000	87.929	-162.4790
20.900000	87.877	-162.0416
21.200001	87.897	-161.4149
21.400000	87.955	-161.0948
21.799999	88.136	-160.9869
22.000000	88.231	-161.3001
22.400000	88.362	-162.6317
22.700001	88.374	-163.8497
23.000000	88.315	-164.8806
23.299999	88.227	-165.5410
23.600000	88.153	-165.8258
24.000000	88.120	-165.9372
24.299999	88.137	-166.1801
24.700001	88.153	-166.8780
25.000000	88.117	-167.4460
25.400000	88.004	-167.7139
25.799999	87.920	-167.0103
26.200001	88.007	-165.7825
26.500000	88.199	-165.2262
26.900000	88.521	-165.6623
27.200001	88.704	-166.8859
27.600000	88.765	-169.0911
28.000000	88.601	-170.8086
28.500000	88.267	-170.8910
29.000000	88.159	-168.9544
29.500000	88.412	-167.4117
30.000000	88.763	-167.9693
30.400000	88.914	-169.5344
30.700001	88.916	-170.8116
31.100000	88.809	-172.0501
31.500000	88.661	-172.4816
32.000000	88.545	-172.0551
32.500000	88.572	-171.3228
33.000000	88.711	-170.9318
33.500000	88.895	-171.1367
34.000000	89.063	-171.9193
34.500000	89.166	-173.0802
35.000000	89.180	-174.2643
35.500000	89.127	-175.1152
36.000000	89.057	-175.4831
36.500000	89.007	-175.5229
37.000000	88.987	-175.4552
37.500000	88.991	-175.3855
38.200001	89.029	-175.4092
38.700001	89.074	-175.6653
39.500000	89.113	-176.5693
40.000000	89.096	-177.2160
40.599998	89.056	-177.8648
41.200001	89.024	-178.3644
41.799999	89.007	-178.7917
42.500000	89.011	-179.1981
43.099998	89.038	-179.5232
43.700001	89.070	-179.9037
44.400002	89.087	179.7571
45.000000	89.101	179.7048
45.500000	89.128	179.7303
46.200001	89.163	179.6844
46.799999	89.161	179.6938
47.500000	89.158	179.9966
48.200001	89.206	-179.7804
48.700001	89.245	-179.9693
49.400002	89.237	179.4230
50.000000	89.179	179.0009
50.799999	89.114	178.6565
51.500000	89.087	178.2584
52.200001	89.071	177.7661
53.000000	89.076	177.1032
53.799999	89.072	176.2616
54.500000	89.032	175.7338
55.200001	89.006	175.6310
56.000000	89.034	175.6996
57.000000	89.112	175.5325
58.000000	89.124	174.9762
59.000000	89.069	174.8627
60.000000	89.085	174.5616
60.799999	89.034	174.0075
61.500000	89.005	173.8984
62.200001	89.047	173.4303
63.000000	88.988	172.4424
64.000000	88.894	173.1966
65.000000	89.230	173.4225
66.000000	89.356	171.1869
67.000000	89.187	170.2980
68.000000	89.059	170.2479
69.000000	88.869	170.8395
70.000000	88.910	172.2543
71.000000	89.094	171.2139
72.000000	88.910	169.5879
73.000000	88.797	169.9622
74.000000	88.896	169.3275
75.000000	88.847	168.4066
76.199997	88.845	168.2703
77.500000	88.858	167.8596
78.800003	88.851	167.7222
80.000000	88.814	167.3499
81.199997	88.774	167.1594
82.500000	88.735	166.6313
83.800003	88.704	166.1833
85.000000	88.666	165.8524
86.199997	88.670	165.5857
87.500000	88.658	165.3199
88.500000	88.667	164.8804
90.000000	88.601	164.2902
91.199997	88.539	163.9077
92.500000	88.531	163.7507
93.800003	88.478	163.1205
95.000000	88.445	163.0388
96.199997	88.394	162.7166
97.500000	88.403	162.7051
98.800003	88.343	161.6960
100.000000	88.228	162.0424
101.500000	88.309	161.5986
103.000000	88.231	161.2608
104.400002	88.229	160.6800
106.000000	88.112	160.7874
107.500000	88.170	160.4647
109.000000	88.115	159.8427
110.599998	88.087	159.4645
112.000000	88.002	158.9375
113.800003	87.977	158.9022
115.000000	87.913	158.6030
117.199997	87.750	157.5629
118.000000	87.710	158.0964
120.599998	87.618	157.5060
122.000000	87.694	157.1804
124.099998	87.588	156.5975
125.000000	87.539	156.7731
126.500000	87.513	156.0694
128.000000	87.441	156.7549
131.500000	87.375	155.5230
132.000000	87.336	155.5359
134.000000	87.325	155.1211
136.000000	87.250	155.0372
138.000000	87.228	154.4164
140.000000	87.048	153.9905
143.000000	86.833	153.5869
145.000000	86.775	153.9403
147.500000	86.737	153.9241
150.000000	86.803	153.5419
152.500000	86.591	153.4024
155.000000	86.326	152.7637
157.500000	86.248	150.9562
160.000000	86.241	151.6874
162.500000	86.146	153.2014
165.000000	86.435	155.0609
167.500000	86.247	150.3624
170.000000	86.166	153.5892
172.500000	86.291	151.7836
175.000000	85.775	150.9743
177.500000	85.153	154.6384
180.000000	85.276	147.4495
182.500000	84.930	152.9963
185.000000	85.092	148.4769
187.500000	85.150	151.9045
190.000000	85.148	152.0926
192.500000	84.938	152.4231
195.000000	84.915	152.5497
197.500000	84.816	151.7118
200.000000	84.701	152.6223
203.000000	84.700	152.2231
206.000000	84.571	152.3626
209.000000	84.504	152.4990
212.000000	84.336	152.0039
214.000000	84.402	152.2194
218.000000	84.204	152.8868
220.000000	84.093	152.5588
224.000000	83.983	153.6862
227.000000	83.877	153.9330
230.000000	83.791	154.1700
233.000000	83.689	153.9943
236.000000	83.611	154.1537
240.000000	83.620	155.2184
243.000000	83.463	155.1477
247.000000	83.331	155.8073
250.000000	83.293	155.8745
254.000000	83.199	156.3156
258.000000	83.168	156.9285
262.000000	82.969	157.6273
265.000000	82.930	158.2164
269.000000	82.900	158.4179
272.000000	82.831	159.0663
276.000000	82.683	159.7283
280.000000	82.680	159.7636
285.000000	82.582	160.5131
290.000000	82.522	161.7842
295.000000	82.349	162.5446
300.000000	82.187	162.5772
304.000000	82.441	163.7356
307.000000	82.367	164.4372
311.000000	82.166	164.4023
315.000000	81.932	165.0525
320.000000	82.219	164.5082
325.000000	82.114	165.9713
330.000000	82.173	168.0614
335.000000	82.143	166.7254
340.000000	81.886	168.1949
345.000000	81.787	169.7385
350.000000	81.959	170.5440
355.000000	81.940	172.0813
360.000000	81.964	171.9127
365.000000	81.832	172.6043
370.000000	81.776	172.6026
375.000000	81.798	172.1392
382.000000	81.816	173.3626
387.000000	81.871	173.8252
395.000000	81.910	174.3344
400.000000	81.898	175.5288
406.000000	81.811	175.9442
412.000000	81.845	176.2238
418.000000	81.912	176.9325
425.000000	81.850	177.4929
431.000000	81.910	178.0877
437.000000	81.938	178.5425
444.000000	81.963	179.1052
450.000000	81.966	179.8463
455.000000	81.939	-179.8615
462.000000	81.973	-179.0948
468.000000	81.969	-178.9717
475.000000	82.016	-178.3296
482.000000	82.040	-178.0525
487.000000	82.077	-177.4685
494.000000	82.082	-177.1830
500.000000	82.099	-176.6977
508.000000	82.131	-176.0462
515.000000	82.141	-175.7654
522.000000	82.167	-175.2822
530.000000	82.201	-174.8823
538.000000	82.224	-174.3580
545.000000	82.248	-174.1300
552.000000	82.261	-173.5025
560.000000	82.285	-173.1333
570.000000	82.314	-172.5879
580.000000	82.347	-171.9559
590.000000	82.372	-171.5266
600.000000	82.386	-171.1078
608.000000	82.420	-170.5971
615.000000	82.452	-170.3651
622.000000	82.468	-169.7802
630.000000	82.483	-169.5464
640.000000	82.516	-169.0656
650.000000	82.540	-168.5374
660.000000	82.578	-168.0937
670.000000	82.607	-167.6180
680.000000	82.647	-167.1913
690.000000	82.666	-166.6757
700.000000	82.697	-166.1599
710.000000	82.738	-165.7027
720.000000	82.770	-165.1932
730.000000	82.800	-164.8067
740.000000	82.844	-164.2807
750.000000	82.878	-163.8272
762.000000	82.913	-163.2862
775.000000	82.973	-162.6710
788.000000	83.006	-162.0427
800.000000	83.048	-161.4931
812.000000	83.096	-160.9026
825.000000	83.139	-160.2968
838.000000	83.191	-159.6783
850.000000	83.243	-159.1431
862.000000	83.303	-158.5188
875.000000	83.363	-157.8831
885.000000	83.416	-157.4507
900.000000	83.493	-156.7438
912.000000	83.568	-156.1965
925.000000	83.635	-155.6126
938.000000	83.714	-155.0883
950.000000	83.791	-154.5962
962.000000	83.868	-154.1041
975.000000	83.953	-153.5986
988.000000	84.038	-153.1277
1000.000000	84.144	-152.5848
1015.000000	84.234	-152.1323
1030.000000	84.344	-151.7419
1044.000000	84.448	-151.3535
1060.000000	84.577	-150.9607
1075.000000	84.689	-150.6206
1090.000000	84.819	-150.3185
1106.000000	84.953	-150.0508
1120.000000	85.075	-149.9156
1138.000000	85.230	-149.7476
1150.000000	85.325	-149.7486
1172.000000	85.498	-149.5956
1180.000000	85.567	-149.5590
1206.000000	85.756	-149.5829
1220.000000	85.874	-149.6049
1241.000000	86.037	-149.8031
1250.000000	86.099	-149.8521
1265.000000	86.210	-149.9919
1280.000000	86.309	-150.0483
1315.000000	86.524	-150.3469
1320.000000	86.551	-150.3961
1340.000000	86.662	-150.5496
1360.000000	86.779	-150.7767
1380.000000	86.873	-150.9762
1400.000000	86.970	-151.1555
1430.000000	87.098	-151.3217
1450.000000	87.196	-151.5186
1475.000000	87.315	-151.6672
1500.000000	87.417	-151.8391
1525.000000	87.517	-151.9392
1550.000000	87.621	-152.0476
1575.000000	87.711	-152.1599
1600.000000	87.811	-152.3110
1625.000000	87.896	-152.3869
1650.000000	88.000	-152.4944
1675.000000	88.103	-152.5992
1700.000000	88.201	-152.7068
1725.000000	88.301	-152.7685
1750.000000	88.399	-152.8046
1775.000000	88.500	-152.8864
1800.000000	88.604	-152.9917
1825.000000	88.715	-153.1078
1850.000000	88.827	-153.2569
1875.000000	88.924	-153.3546
1900.000000	89.021	-153.4285
1925.000000	89.118	-153.5422
1950.000000	89.209	-153.6514
1975.000000	89.316	-153.8077
2000.000000	89.422	-153.9064
2030.000000	89.551	-154.1646
2060.000000	89.673	-154.3653
2090.000000	89.794	-154.5843
2120.000000	89.911	-154.8091
2140.000000	89.987	-155.0102
2180.000000	90.140	-155.3773
2200.000000	90.208	-155.6003
2240.000000	90.353	-156.0605
2270.000000	90.450	-156.3790
2300.000000	90.554	-156.7345
2330.000000	90.660	-157.1122
2360.000000	90.761	-157.4677
2400.000000	90.894	-157.9505
2430.000000	90.988	-158.2375
2470.000000	91.121	-158.5871
2500.000000	91.238	-158.8473
2540.000000	91.418	-159.4839
2580.000000	91.576	-160.3995
2620.000000	91.707	-161.4166
2650.000000	91.790	-162.1603
2690.000000	91.884	-163.1372
2720.000000	91.953	-163.8755
2760.000000	92.029	-164.8992
2800.000000	92.094	-165.8769
2850.000000	92.162	-167.1065
2900.000000	92.228	-168.4356
2950.000000	92.284	-169.7650
3000.000000	92.325	-171.1173
3040.000000	92.342	-172.1828
3070.000000	92.354	-173.0161
3110.000000	92.353	-174.0980
3150.000000	92.350	-175.1487
3200.000000	92.332	-176.4577
3250.000000	92.303	-177.7319
3300.000000	92.263	-178.9365
3350.000000	92.214	179.9425
3400.000000	92.163	178.9100
3450.000000	92.133	177.9350
3500.000000	92.132	177.0124
3550.000000	92.136	176.0328
3600.000000	92.151	174.9766
3650.000000	92.158	173.7613
3700.000000	92.154	172.4807
3750.000000	92.128	171.1623
3820.000000	92.068	169.2869
3870.000000	91.990	167.9542
3950.000000	91.840	165.9745
4000.000000	91.727	164.8069
4060.000000	91.588	163.5518
4120.000000	91.453	162.2247
4180.000000	91.298	160.8747
4250.000000	91.074	159.4100
4310.000000	90.869	158.3585
4370.000000	90.657	157.4728
4440.000000	90.414	156.5118
4500.000000	90.197	155.8707
4550.000000	90.017	155.3793
4620.000000	89.752	154.9058
4680.000000	89.511	154.6110
4750.000000	89.245	154.5004
4820.000000	88.970	154.6464
4870.000000	88.792	154.8737
4940.000000	88.558	155.3966
5000.000000	88.376	155.9905
5080.000000	88.153	156.9175
5150.000000	87.970	157.9607
5220.000000	87.824	159.1820
5300.000000	87.702	160.9240
5380.000000	87.651	162.8078
5450.000000	87.674	164.6198
5520.000000	87.717	166.4220
5600.000000	87.866	168.3420
5700.000000	88.221	170.4384
5800.000000	88.775	171.4301
5900.000000	89.473	170.4470
6000.000000	90.112	166.6591
6080.000000	90.377	161.8342
6150.000000	90.323	157.2917
6220.000000	90.033	153.3701
6300.000000	89.546	150.4087
6400.000000	88.892	148.9263
6500.000000	88.375	149.2430
6600.000000	88.067	150.4191
6700.000000	87.949	151.7828
6800.000000	88.021	152.9131
6900.000000	88.269	153.5360
7000.000000	88.710	153.0692
7100.000000	89.205	151.1054
7200.000000	89.687	147.4698
7300.000000	90.091	142.2573
7400.000000	90.295	135.1107
7500.000000	90.121	126.8666
7620.000000	89.362	117.3845
7750.000000	88.028	109.6236
7880.000000	86.461	105.0019
8000.000000	85.016	103.2932
8120.000000	83.623	103.1766
8250.000000	82.265	104.6320
8380.000000	81.006	107.0669
8500.000000	80.006	110.0418
8620.000000	79.086	113.4678
8750.000000	78.159	117.7821
8850.000000	77.539	120.8674
9000.000000	76.723	126.0965
9120.000000	76.089	130.5500
9250.000000	75.566	135.2584
9380.000000	75.108	140.3291
9500.000000	74.767	144.7635
9620.000000	74.479	149.2558
9750.000000	74.257	153.8714
9880.000000	74.077	158.4630
10000.000000	74.009	162.6546
10150.000000	73.942	167.3748
10300.000000	73.963	171.6319
10440.000000	73.954	175.4596
10600.000000	73.992	179.5742
10750.000000	74.156	-176.3822
10900.000000	74.341	-172.6689
11060.000000	74.658	-168.7373
11200.000000	74.983	-166.4232
11380.000000	75.411	-164.8432
11500.000000	75.675	-163.9504
11720.000000	75.972	-163.6126
11800.000000	76.012	-163.2231
12060.000000	76.102	-162.4781
12200.000000	76.146	-161.3662
12410.000000	76.258	-159.4518
12500.000000	76.327	-158.4304
12650.000000	76.484	-156.6579
12800.000000	76.725	-154.5251
13150.000000	77.604	-150.5285
13200.000000	77.791	-149.9052
13400.000000	78.548	-148.4305
13600.000000	79.535	-147.5777
13800.000000	80.783	-148.4414
14000.000000	82.277	-152.4427
14300.000000	84.454	-168.8048
14500.000000	84.778	172.3460
14750.000000	82.928	152.1033
15000.000000	80.343	144.4139
15250.000000	78.293	143.8285
15500.000000	76.794	145.3643
15750.000000	75.447	147.6634
16000.000000	74.284	152.3442
16250.000000	73.409	157.6781
16500.000000	72.909	164.1236
16750.000000	72.799	170.2929
17000.000000	73.020	174.9588
17250.000000	73.368	176.7647
17500.000000	73.143	176.4479
17750.000000	72.432	178.5957
18000.000000	71.985	-173.6000
18250.000000	72.293	-164.6533
18500.000000	72.831	-154.4059
18750.000000	75.592	-132.9813
19000.000000	80.972	-148.6558
19250.000000	82.656	-171.6996
19500.000000	83.006	166.7598
19750.000000	82.370	147.8224
