* Measurement data measured by REW V5.20 Beta 60
* Source: Headset (USB-C to 3.5mm Headphone Jack Adapter), MICROPHONE (Master Volume), R, volume: 0.258
* Format: 256k Log Swept Sine, 1 sweep at -12.0 dBFS with no timing reference
* Dated: Feb 28, 2021 5:44:54 PM
* REW Settings:
*  C-weighting compensation: Off
*  Target level: 75.0 dB
* Note: ; 
* Measurement: Moondrop Illumination L
* Smoothing: None
* Frequency Step: 1/48 octave
* Start Frequency: 20.000 Hz
*
* Freq(Hz)	SPL(dB)	Phase(degrees)
20.000000	85.961990	23.5747
20.299999	85.971497	23.3841
20.600000	85.991531	23.2920
20.900000	86.030647	23.2295
21.200001	86.094177	23.0588
21.400000	86.140350	22.8280
21.799999	86.216713	22.0848
22.000000	86.235054	21.6037
22.400000	86.215805	20.5803
22.700001	86.151848	20.0000
23.000000	86.068321	19.7559
23.299999	86.002625	19.8568
23.600000	85.979935	20.1894
24.000000	86.034622	20.6566
24.299999	86.124321	20.7476
24.700001	86.257820	20.3835
25.000000	86.333130	19.8356
25.400000	86.382187	18.9903
25.799999	86.384689	18.3284
26.200001	86.381126	17.9411
26.500000	86.393600	17.7548
26.900000	86.431015	17.5123
27.200001	86.465462	17.2587
27.600000	86.503326	16.8322
28.000000	86.519424	16.4089
28.500000	86.522865	16.0125
29.000000	86.531921	15.7745
29.500000	86.555695	15.5420
30.000000	86.574432	15.2540
30.400000	86.579819	15.0202
30.700001	86.579330	14.8863
31.100000	86.581741	14.7554
31.500000	86.593811	14.6207
32.000000	86.614510	14.3643
32.500000	86.623528	13.9884
33.000000	86.607803	13.6543
33.500000	86.584198	13.4938
34.000000	86.582214	13.4761
34.500000	86.614441	13.3855
35.000000	86.652237	13.1176
35.500000	86.670990	12.7680
36.000000	86.675682	12.5176
36.500000	86.691391	12.3567
37.000000	86.725830	12.1278
37.500000	86.756660	11.7126
38.200001	86.739685	11.0578
38.700001	86.692879	10.8230
39.500000	86.653603	10.9647
40.000000	86.676682	11.0975
40.599998	86.731049	10.9870
41.200001	86.768677	10.5545
41.799999	86.756302	10.0412
42.500000	86.696472	9.8041
43.099998	86.676994	9.9642
43.700001	86.714050	10.0586
44.400002	86.766426	9.7876
45.000000	86.776741	9.4554
45.500000	86.773590	9.2623
46.200001	86.763680	9.0687
46.799999	86.739456	8.9949
47.500000	86.725098	9.2113
48.200001	86.779343	9.3900
48.700001	86.828552	9.1412
49.400002	86.819862	8.5187
50.000000	86.755585	8.3411
50.799999	86.744873	8.4908
51.500000	86.786774	8.1646
52.200001	86.754868	7.5777
53.000000	86.686798	7.5401
53.799999	86.731049	7.6663
54.500000	86.781616	7.2314
55.200001	86.768288	6.7907
56.000000	86.756325	6.7117
57.000000	86.778076	6.4174
58.000000	86.713570	6.2345
59.000000	86.687935	6.6622
60.000000	86.713104	6.6685
60.799999	86.679893	6.5800
61.500000	86.660110	6.6762
62.200001	86.661613	6.6525
63.000000	86.643768	6.5415
64.000000	86.646576	6.6100
65.000000	86.677002	6.3184
66.000000	86.650154	6.2001
67.000000	86.693451	6.2634
68.000000	86.702217	5.7229
69.000000	86.618591	5.6055
70.000000	86.600739	5.8617
71.000000	86.601669	5.6586
72.000000	86.582588	5.5694
73.000000	86.622444	5.2659
74.000000	86.612885	4.6910
75.000000	86.601715	4.5821
76.199997	86.641258	4.4642
77.500000	86.667686	4.4743
78.800003	86.710541	4.4785
80.000000	86.686279	4.3183
81.199997	86.661758	4.4625
82.500000	86.653648	4.2806
83.800003	86.626022	4.0321
85.000000	86.603859	3.9569
86.199997	86.590370	3.9218
87.500000	86.604149	4.1513
88.500000	86.628929	3.9361
90.000000	86.557961	3.9648
91.199997	86.607010	3.8932
92.500000	86.504448	3.5557
93.800003	86.601295	3.8479
95.000000	86.494354	3.0969
96.199997	86.555824	4.0558
97.500000	86.505219	2.8593
98.800003	86.437607	4.1498
100.000000	86.529823	3.7957
101.500000	86.561935	2.9328
103.000000	86.286118	3.1440
104.400002	86.549728	3.8708
106.000000	86.497025	2.5107
107.500000	86.378860	2.8466
109.000000	86.476730	2.7099
110.599998	86.407982	2.6250
112.000000	86.357895	2.4602
113.800003	86.466766	3.2045
115.000000	86.435547	2.7347
117.199997	86.396378	2.7809
118.000000	86.373726	2.6221
120.599998	86.310844	2.2800
122.000000	86.365509	2.7355
124.099998	86.317528	2.8887
125.000000	86.315926	3.0828
126.500000	86.319855	3.6614
128.000000	86.329247	2.3608
131.500000	86.258286	2.5877
132.000000	86.294807	2.3668
134.000000	86.222855	1.3850
136.000000	86.120949	2.7556
138.000000	86.306412	3.1909
140.000000	86.171478	2.0889
143.000000	86.090271	2.2934
145.000000	86.192635	3.0840
147.500000	86.157738	2.6008
150.000000	86.091705	2.5529
152.500000	85.938385	2.8450
155.000000	86.011902	2.3663
157.500000	85.978966	2.6016
160.000000	86.041603	2.2274
162.500000	85.951889	2.6202
165.000000	86.066017	2.9964
167.500000	85.959953	1.9515
170.000000	85.988464	1.8555
172.500000	85.956566	2.0476
175.000000	85.882820	1.2070
177.500000	85.712143	1.0647
180.000000	85.692444	1.2192
182.500000	85.785095	1.3168
185.000000	85.656349	2.0502
187.500000	85.774811	3.2598
190.000000	85.830551	2.6095
192.500000	85.642197	2.5316
195.000000	85.563858	1.5216
197.500000	85.456268	3.4664
200.000000	85.491348	3.4488
203.000000	85.313744	1.9789
206.000000	85.216141	3.8533
209.000000	85.653389	7.7746
212.000000	85.147202	7.6614
214.000000	84.667709	3.7194
218.000000	85.306702	2.5237
220.000000	85.480141	2.8264
224.000000	85.443008	4.7039
227.000000	84.846535	4.5754
230.000000	85.254112	5.2959
233.000000	85.198631	4.2132
236.000000	85.271622	4.7408
240.000000	85.304131	4.6973
243.000000	85.078171	4.2891
247.000000	85.025459	4.8327
250.000000	85.051949	5.2172
254.000000	85.086861	5.3501
258.000000	84.937912	5.7629
262.000000	84.913223	5.5539
265.000000	84.953064	6.1136
269.000000	84.917007	6.3603
272.000000	84.859367	6.6594
276.000000	84.793800	6.4523
280.000000	84.842865	7.2517
285.000000	84.817139	6.0678
290.000000	84.705399	6.7199
295.000000	84.618378	7.5349
300.000000	84.509880	6.8245
304.000000	84.586517	7.5978
307.000000	84.353004	8.7758
311.000000	84.265015	7.6996
315.000000	84.557175	8.2841
320.000000	84.468132	9.4303
325.000000	84.378616	8.5542
330.000000	84.456093	9.6934
335.000000	84.080559	10.5139
340.000000	84.341690	9.0807
345.000000	84.226280	11.1433
350.000000	84.060623	10.8600
355.000000	84.063538	11.3006
360.000000	84.001541	11.7376
365.000000	84.013069	12.3146
370.000000	84.018349	11.8926
375.000000	84.022583	12.3719
382.000000	83.921379	12.8983
387.000000	83.827240	13.9359
395.000000	83.790306	13.8455
400.000000	83.757713	14.7467
406.000000	83.677757	15.3828
412.000000	83.609543	16.5424
418.000000	83.608505	16.9410
425.000000	83.504013	17.0582
431.000000	83.517632	17.0151
437.000000	83.707268	17.9654
444.000000	83.403648	18.7107
450.000000	83.478828	19.0713
455.000000	83.464462	19.1721
462.000000	83.319061	20.7993
468.000000	83.125206	20.8809
475.000000	83.300156	21.5466
482.000000	83.176811	21.4883
487.000000	83.180527	22.0661
494.000000	83.269402	22.1631
500.000000	83.195366	22.0161
508.000000	83.138092	23.7767
515.000000	83.066666	25.9704
522.000000	82.898636	23.5524
530.000000	83.021057	25.2283
538.000000	83.098251	24.9334
545.000000	82.779922	26.1824
552.000000	82.751167	27.0074
560.000000	82.860733	27.7833
570.000000	82.709671	29.1825
580.000000	82.778008	29.4787
590.000000	82.552818	30.2283
600.000000	82.675713	31.8282
608.000000	82.546555	31.9882
615.000000	82.482437	32.5881
622.000000	82.513229	33.4204
630.000000	82.567856	34.2198
640.000000	82.550240	34.5655
650.000000	82.475281	35.6447
660.000000	82.354034	37.1121
670.000000	82.307899	37.9593
680.000000	82.153496	40.2995
690.000000	82.171738	40.9169
700.000000	82.286331	42.1047
710.000000	82.255844	42.0748
720.000000	82.307327	43.4269
730.000000	82.252701	45.7112
740.000000	82.247536	45.4904
750.000000	82.326599	46.8682
762.000000	82.291672	48.6592
775.000000	82.250923	50.8078
788.000000	82.181213	51.3763
800.000000	82.272446	52.0458
812.000000	82.262009	53.7461
825.000000	82.180397	55.1272
838.000000	82.223961	56.4961
850.000000	82.249405	57.4711
862.000000	82.198143	59.1238
875.000000	82.316864	59.9323
885.000000	82.338539	61.2831
900.000000	82.349800	62.7145
912.000000	82.513214	64.4054
925.000000	82.412552	65.5857
938.000000	82.446854	66.6908
950.000000	82.524414	68.1244
962.000000	82.589066	69.7315
975.000000	82.616104	70.3730
988.000000	82.746513	72.2092
1000.000000	82.858078	73.4129
1015.000000	82.865616	74.6433
1030.000000	82.926521	76.2366
1044.000000	83.012001	77.0784
1060.000000	83.092407	78.7940
1075.000000	83.222015	80.1912
1090.000000	83.314957	81.3028
1106.000000	83.468040	82.5957
1120.000000	83.572647	83.5193
1138.000000	83.687492	84.9674
1150.000000	83.845261	85.9990
1172.000000	83.963837	87.3028
1180.000000	84.081154	87.8967
1206.000000	84.283203	89.2647
1220.000000	84.370316	90.1011
1241.000000	84.548157	91.5169
1250.000000	84.646309	91.7899
1265.000000	84.765953	92.5994
1280.000000	84.891693	93.6178
1315.000000	85.148094	95.0126
1320.000000	85.176254	95.0806
1340.000000	85.327583	95.8597
1360.000000	85.462967	97.1363
1380.000000	85.609703	97.8459
1400.000000	85.742722	98.6994
1430.000000	85.913734	99.8703
1450.000000	86.058357	101.1443
1475.000000	86.261467	102.1890
1500.000000	86.399651	102.7046
1525.000000	86.541168	103.8991
1550.000000	86.731186	104.9499
1575.000000	86.895790	106.0862
1600.000000	87.047897	107.0055
1625.000000	87.212967	108.0402
1650.000000	87.390968	108.8829
1675.000000	87.540901	109.8820
1700.000000	87.712112	110.6300
1725.000000	87.866814	111.4345
1750.000000	88.032578	112.3485
1775.000000	88.198730	113.1831
1800.000000	88.365768	113.9031
1825.000000	88.533035	114.8050
1850.000000	88.692230	115.3253
1875.000000	88.848564	116.0948
1900.000000	89.026245	116.6251
1925.000000	89.204300	117.3241
1950.000000	89.351837	117.8617
1975.000000	89.482773	118.2697
2000.000000	89.588394	118.5910
2030.000000	89.860840	119.3633
2060.000000	90.051804	119.9130
2090.000000	90.227730	120.3758
2120.000000	90.399414	120.6951
2140.000000	90.525917	120.9260
2180.000000	90.734421	121.3256
2200.000000	90.841415	121.5125
2240.000000	91.048943	121.5277
2270.000000	91.189117	121.3328
2300.000000	91.294220	120.8569
2330.000000	91.418663	120.2636
2360.000000	91.529388	119.7491
2400.000000	91.657166	119.2099
2430.000000	91.753311	119.0956
2470.000000	91.851654	118.9063
2500.000000	91.911880	118.7711
2540.000000	91.963158	118.7106
2580.000000	92.010063	118.5721
2620.000000	92.036484	118.5206
2650.000000	92.054192	118.4415
2690.000000	92.062553	118.3772
2720.000000	92.060883	118.3927
2760.000000	92.034981	118.4528
2800.000000	91.997490	118.5639
2850.000000	91.928726	118.7765
2900.000000	91.859398	119.1590
2950.000000	91.788834	119.6702
3000.000000	91.714676	120.6086
3040.000000	91.656189	120.8612
3070.000000	91.614594	121.2233
3110.000000	91.553467	121.8791
3150.000000	91.500771	122.5790
3200.000000	91.446121	123.5224
3250.000000	91.398819	124.5126
3300.000000	91.372459	125.5160
3350.000000	91.350983	126.4707
3400.000000	91.335724	127.4865
3450.000000	91.346573	128.4537
3500.000000	91.376801	129.3893
3550.000000	91.404861	130.2852
3600.000000	91.444092	131.1643
3650.000000	91.487488	132.0018
3700.000000	91.538216	132.8007
3750.000000	91.585747	133.5415
3820.000000	91.669052	134.5642
3870.000000	91.732010	135.2334
3950.000000	91.819695	136.0602
4000.000000	91.859222	136.2832
4060.000000	91.955215	136.8206
4120.000000	92.010651	136.9322
4180.000000	92.039627	136.9666
4250.000000	92.063011	137.0826
4310.000000	92.059380	137.0701
4370.000000	92.033951	136.9705
4440.000000	92.000313	137.0361
4500.000000	91.947083	137.0783
4550.000000	91.914589	137.1538
4620.000000	91.885567	137.3579
4680.000000	91.857071	137.2985
4750.000000	91.808952	136.8763
4820.000000	91.694550	136.4421
4870.000000	91.576469	136.2586
4940.000000	91.431290	136.2636
5000.000000	91.332153	136.0199
5080.000000	91.164154	135.6780
5150.000000	90.933380	135.2686
5220.000000	90.654221	135.1234
5300.000000	90.298004	135.3883
5380.000000	89.935593	135.9591
5450.000000	89.624619	136.7581
5520.000000	89.243164	137.7313
5600.000000	88.806732	139.3477
5700.000000	88.339844	142.2530
5800.000000	88.069763	144.9854
5900.000000	87.770798	146.9056
6000.000000	87.374954	148.9984
6080.000000	87.071289	151.0329
6150.000000	86.833565	153.0965
6220.000000	86.635391	155.2545
6300.000000	86.402138	157.7652
6400.000000	86.127403	161.1729
6500.000000	85.921944	164.9012
6600.000000	85.764938	169.1202
6700.000000	85.712433	173.5470
6800.000000	85.743637	178.0625
6900.000000	85.945320	-177.5381
7000.000000	86.302559	-173.1959
7100.000000	86.810211	-169.8354
7200.000000	87.387703	-167.6104
7300.000000	87.927826	-166.4155
7400.000000	88.412796	-165.7205
7500.000000	88.876625	-165.2834
7620.000000	89.459969	-165.0469
7750.000000	90.162308	-165.8194
7880.000000	90.879913	-168.3931
8000.000000	91.465256	-173.0004
8120.000000	91.794899	-179.6703
8250.000000	91.664223	171.8699
8380.000000	90.982346	163.9885
8500.000000	89.995178	158.5668
8620.000000	88.841736	155.3812
8750.000000	87.530960	154.2050
8850.000000	86.580566	154.6506
9000.000000	85.259979	156.8352
9120.000000	84.348358	159.3621
9250.000000	83.486267	162.7324
9380.000000	82.757065	166.4279
9500.000000	82.198151	169.9815
9620.000000	81.699181	173.4230
9750.000000	81.292053	177.3994
9880.000000	80.954498	-179.2111
10000.000000	80.723557	-176.4579
10150.000000	80.457550	-173.0225
10300.000000	80.237610	-170.2386
10440.000000	80.064911	-167.7013
10600.000000	79.894920	-165.4486
10750.000000	79.745003	-163.6173
10900.000000	79.649902	-162.2250
11060.000000	79.501884	-161.3411
11200.000000	79.389069	-160.5940
11380.000000	79.193314	-160.6779
11500.000000	79.046143	-161.0532
11720.000000	78.591217	-161.6822
11800.000000	78.410690	-161.8809
12060.000000	77.743423	-162.1145
12200.000000	77.359200	-162.0014
12410.000000	76.922653	-161.4955
12500.000000	76.805725	-161.4672
12650.000000	76.571404	-161.2872
12800.000000	76.318756	-161.8713
13150.000000	75.423630	-164.4782
13200.000000	75.250572	-164.9844
13400.000000	74.535873	-164.2675
13600.000000	73.597374	-164.7818
13800.000000	72.741043	-162.9535
14000.000000	71.950142	-160.8705
14300.000000	71.026375	-155.2856
14500.000000	70.618225	-151.2847
14750.000000	70.227158	-146.3434
15000.000000	70.243355	-141.2752
15250.000000	70.418930	-136.4122
15500.000000	71.210022	-133.8198
15750.000000	72.308121	-134.0695
16000.000000	73.546814	-138.3942
16250.000000	74.929115	-147.6499
16500.000000	75.824867	-164.0443
16750.000000	75.489594	176.3776
17000.000000	74.275795	160.5077
17250.000000	72.963921	148.2503
17500.000000	71.723824	136.8746
17750.000000	70.488861	124.5071
18000.000000	69.265076	109.7590
18250.000000	68.112930	93.2133
18500.000000	66.978027	76.8474
18750.000000	65.892578	61.6555
19000.000000	64.646133	47.7823
19250.000000	63.531837	30.0459
19500.000000	62.431267	11.7274
19750.000000	60.889668	-9.1835
