* Measurement data measured by REW V5.20 Beta 47
* Source: Headset (USB-C to 3.5mm Headphone Jack Adapter), MICROPHONE (Master Volume), L, volume: 0.000
* Format: 256k Log Swept Sine, 1 sweep at -3.0 dBFS with no timing reference
* Dated: May 31, 2020 11:01:25 PM
* REW Settings:
*  C-weighting compensation: Off
*  Target level: 75.0 dB
* Note: ; 
* Measurement: Noble Khan R
* Smoothing: None
* Frequency Step: 1/48 octave
* Start Frequency: 20.000 Hz
*
* Freq(Hz)	SPL(dB)	Phase(degrees)
20.0000	88.7672	159.74
20.3000	88.7453	160.65
20.6000	88.7871	161.69
20.9000	88.8982	162.60
21.2000	89.0581	163.06
21.4000	89.1648	163.09
21.8000	89.3408	162.56
22.0000	89.3952	162.09
22.4000	89.4250	160.96
22.7000	89.3785	160.17
23.0000	89.2868	159.57
23.3000	89.1742	159.26
23.6000	89.0645	159.26
24.0000	88.9628	159.61
24.3000	88.9409	159.92
24.7000	88.9755	160.10
25.0000	89.0223	159.93
25.4000	89.0754	159.34
25.8000	89.0940	158.59
26.2000	89.0947	157.91
26.5000	89.1017	157.44
26.9000	89.1263	156.79
27.2000	89.1488	156.22
27.6000	89.1635	155.34
28.0000	89.1431	154.51
28.5000	89.0921	153.78
29.0000	89.0630	153.41
29.5000	89.0682	153.06
30.0000	89.0586	152.60
30.4000	89.0223	152.31
30.7000	88.9856	152.24
31.1000	88.9495	152.33
31.5000	88.9437	152.47
32.0000	88.9635	152.47
32.5000	88.9769	152.20
33.0000	88.9672	151.83
33.5000	88.9474	151.37
34.0000	88.9101	150.73
34.5000	88.8272	149.97
35.0000	88.6897	149.47
35.5000	88.5590	149.48
36.0000	88.5059	149.78
36.5000	88.5291	149.81
37.0000	88.5604	149.38
37.5000	88.5565	148.77
38.2000	88.5204	148.07
38.7000	88.5019	147.58
39.5000	88.4425	146.71
40.0000	88.3837	146.36
40.6000	88.3415	146.12
41.2000	88.3277	145.65
41.8000	88.2729	144.97
42.5000	88.1515	144.54
43.1000	88.0897	144.54
43.7000	88.0732	144.35
44.4000	88.0270	143.91
45.0000	87.9768	143.78
45.5000	87.9738	143.72
46.2000	87.9895	143.24
46.8000	87.9453	142.61
47.5000	87.8565	142.25
48.2000	87.8030	142.01
48.7000	87.7602	141.66
49.4000	87.6469	141.26
50.0000	87.5558	141.33
50.8000	87.5340	141.33
51.5000	87.5294	140.84
52.2000	87.4820	140.25
53.0000	87.4233	139.75
53.8000	87.3899	139.29
54.5000	87.3603	138.79
55.2000	87.3002	138.33
56.0000	87.2141	138.24
57.0000	87.2006	138.39
58.0000	87.1751	137.95
59.0000	87.0981	137.86
60.0000	87.0997	137.51
60.8000	87.0370	136.68
61.5000	86.9163	136.17
62.2000	86.8024	136.12
63.0000	86.7646	136.29
64.0000	86.7966	135.69
65.0000	86.6929	134.78
66.0000	86.5988	134.93
67.0000	86.6445	134.65
68.0000	86.5733	133.72
69.0000	86.4402	133.56
70.0000	86.3950	133.58
71.0000	86.3607	133.04
72.0000	86.2345	132.38
73.0000	86.0683	132.52
74.0000	86.0687	133.24
75.0000	86.1922	132.68
76.2000	86.1179	131.14
77.5000	85.8784	130.32
78.8000	85.7492	131.71
80.0000	85.9257	130.78
81.2000	85.7555	130.10
82.5000	85.6870	129.49
83.8000	85.6048	129.91
85.0000	85.5498	128.89
86.2000	85.4779	129.21
87.5000	85.3389	128.18
88.5000	85.2608	128.76
90.0000	85.1569	128.86
91.2000	85.2811	128.79
92.5000	85.1407	128.31
93.8000	85.2205	127.57
95.0000	85.0533	127.12
96.2000	85.0635	126.15
97.5000	84.8119	126.12
98.8000	84.8766	125.56
100.0000	84.6330	125.41
101.5000	84.6295	125.42
103.0000	84.4182	125.93
104.4000	84.3874	125.64
106.0000	84.2529	126.06
107.5000	84.2813	125.10
109.0000	84.0476	126.54
110.6000	84.1901	124.61
112.0000	84.0256	128.33
113.8000	84.0157	125.79
115.0000	84.0849	128.50
117.2000	84.1756	127.27
118.0000	84.2557	127.28
120.6000	84.3428	125.19
122.0000	84.3908	125.39
124.1000	84.3159	123.91
125.0000	84.2175	124.23
126.5000	84.2888	123.62
128.0000	84.0764	123.09
131.5000	83.9685	122.08
132.0000	83.9198	121.97
134.0000	83.8530	122.06
136.0000	83.7991	121.67
138.0000	83.7128	121.33
140.0000	83.6848	120.82
143.0000	83.5887	120.43
145.0000	83.5373	120.22
147.5000	83.4404	119.89
150.0000	83.3813	119.60
152.5000	83.3174	119.24
155.0000	83.2001	119.00
157.5000	83.1986	118.78
160.0000	83.1459	118.54
162.5000	83.0905	118.43
165.0000	83.0455	118.19
167.5000	82.9772	117.96
170.0000	82.9312	117.65
172.5000	82.9073	117.48
175.0000	82.8193	117.36
177.5000	82.7953	117.20
180.0000	82.7491	117.17
182.5000	82.7220	116.76
185.0000	82.6951	116.85
187.5000	82.6421	116.69
190.0000	82.6271	116.78
192.5000	82.6305	116.13
195.0000	82.5827	116.06
197.5000	82.5484	115.74
200.0000	82.4984	115.43
203.0000	82.4694	115.41
206.0000	82.4066	115.32
209.0000	82.3312	115.04
212.0000	82.3391	114.68
214.0000	82.3024	114.49
218.0000	82.2367	114.59
220.0000	82.2608	114.35
224.0000	82.1808	114.30
227.0000	82.2459	114.78
230.0000	82.2879	114.44
233.0000	82.2540	114.34
236.0000	82.3165	114.81
240.0000	82.3831	114.49
243.0000	82.3988	113.71
247.0000	82.3975	113.67
250.0000	82.4413	113.29
254.0000	82.4904	112.99
258.0000	82.4844	112.28
262.0000	82.4747	111.96
265.0000	82.4568	111.57
269.0000	82.4449	111.09
272.0000	82.4580	110.75
276.0000	82.4516	110.25
280.0000	82.4660	110.00
285.0000	82.4596	109.61
290.0000	82.4565	109.36
295.0000	82.4644	108.94
300.0000	82.4705	108.59
304.0000	82.4717	108.35
307.0000	82.4715	108.15
311.0000	82.4781	107.79
315.0000	82.4879	107.52
320.0000	82.5046	107.17
325.0000	82.5151	106.89
330.0000	82.5324	106.66
335.0000	82.5360	106.34
340.0000	82.5596	106.05
345.0000	82.5846	105.70
350.0000	82.6075	105.31
355.0000	82.6289	105.00
360.0000	82.6591	104.76
365.0000	82.6752	104.56
370.0000	82.7192	104.14
375.0000	82.7515	103.82
382.0000	82.7966	103.42
387.0000	82.8339	103.15
395.0000	82.8829	102.62
400.0000	82.9045	102.34
406.0000	82.9414	101.98
412.0000	82.9745	101.67
418.0000	83.0109	101.34
425.0000	83.0539	100.98
431.0000	83.0824	100.66
437.0000	83.1255	100.30
444.0000	83.1828	99.91
450.0000	83.2311	99.60
455.0000	83.2799	99.30
462.0000	83.3323	98.81
468.0000	83.3831	98.37
475.0000	83.4318	97.91
482.0000	83.4830	97.46
487.0000	83.5227	97.12
494.0000	83.5784	96.64
500.0000	83.6207	96.36
508.0000	83.6725	95.94
515.0000	83.7152	95.63
522.0000	83.7503	95.27
530.0000	83.7976	94.87
538.0000	83.8415	94.44
545.0000	83.8788	94.11
552.0000	83.9281	93.73
560.0000	83.9756	93.32
570.0000	84.0308	92.80
580.0000	84.0901	92.40
590.0000	84.1435	91.98
600.0000	84.2007	91.50
608.0000	84.2507	91.19
615.0000	84.2919	90.85
622.0000	84.3373	90.54
630.0000	84.3848	90.23
640.0000	84.4283	89.81
650.0000	84.4721	89.45
660.0000	84.5186	89.09
670.0000	84.5638	88.76
680.0000	84.6190	88.40
690.0000	84.6674	88.05
700.0000	84.7171	87.70
710.0000	84.7579	87.37
720.0000	84.7882	87.12
730.0000	84.8317	86.81
740.0000	84.8511	86.51
750.0000	84.8602	86.35
762.0000	84.8929	86.14
775.0000	84.9301	85.93
788.0000	84.9711	85.72
800.0000	85.0122	85.55
812.0000	85.0437	85.39
825.0000	85.0939	85.23
838.0000	85.1428	85.14
850.0000	85.1882	85.04
862.0000	85.2253	84.95
875.0000	85.2722	84.91
885.0000	85.3078	84.88
900.0000	85.3609	84.81
912.0000	85.4060	84.82
925.0000	85.4486	84.85
938.0000	85.4911	84.84
950.0000	85.5422	84.90
962.0000	85.5764	84.92
975.0000	85.6281	85.00
988.0000	85.7076	85.05
1000.0000	85.8300	85.24
1015.0000	85.8355	85.06
1030.0000	85.9040	85.03
1044.0000	85.9814	84.97
1060.0000	86.0714	84.95
1075.0000	86.1418	84.92
1090.0000	86.2206	84.86
1106.0000	86.3018	84.74
1120.0000	86.3694	84.67
1138.0000	86.4574	84.54
1150.0000	86.5090	84.36
1172.0000	86.6147	84.17
1180.0000	86.6447	84.06
1206.0000	86.7687	83.72
1220.0000	86.8363	83.56
1241.0000	86.9346	83.22
1250.0000	86.9760	83.05
1265.0000	87.0439	82.83
1280.0000	87.0918	82.61
1315.0000	87.1968	82.11
1320.0000	87.2143	82.03
1340.0000	87.2641	81.79
1360.0000	87.3061	81.56
1380.0000	87.3486	81.36
1400.0000	87.3931	81.19
1430.0000	87.4510	80.96
1450.0000	87.4947	80.86
1475.0000	87.5429	80.74
1500.0000	87.5751	80.70
1525.0000	87.6025	80.76
1550.0000	87.6376	80.74
1575.0000	87.6659	80.79
1600.0000	87.6948	80.90
1625.0000	87.7146	81.04
1650.0000	87.7349	81.21
1675.0000	87.7602	81.42
1700.0000	87.7886	81.64
1725.0000	87.8279	81.89
1750.0000	87.8716	82.10
1775.0000	87.9177	82.37
1800.0000	87.9628	82.66
1825.0000	88.0180	82.94
1850.0000	88.0709	83.22
1875.0000	88.1241	83.49
1900.0000	88.1766	83.76
1925.0000	88.2286	84.07
1950.0000	88.2745	84.30
1975.0000	88.3092	84.55
2000.0000	88.2937	84.49
2030.0000	88.4238	85.13
2060.0000	88.4925	85.44
2090.0000	88.5644	85.66
2120.0000	88.6330	85.88
2140.0000	88.6765	86.00
2180.0000	88.7668	86.21
2200.0000	88.8130	86.33
2240.0000	88.9196	86.25
2270.0000	88.9724	85.89
2300.0000	89.0312	85.35
2330.0000	89.0891	84.77
2360.0000	89.1290	84.15
2400.0000	89.1825	83.49
2430.0000	89.2284	83.16
2470.0000	89.2645	82.91
2500.0000	89.2834	82.65
2540.0000	89.2980	82.21
2580.0000	89.3061	81.87
2620.0000	89.2964	81.45
2650.0000	89.2937	81.22
2690.0000	89.2889	80.83
2720.0000	89.2940	80.40
2760.0000	89.2814	79.90
2800.0000	89.2431	79.18
2850.0000	89.2067	78.29
2900.0000	89.1043	77.40
2950.0000	89.0083	76.52
3000.0000	88.8870	75.88
3040.0000	88.7987	74.58
3070.0000	88.7000	74.06
3110.0000	88.6448	73.30
3150.0000	88.5629	72.34
3200.0000	88.4474	71.24
3250.0000	88.3357	70.26
3300.0000	88.1595	69.01
3350.0000	88.0854	67.72
3400.0000	87.9465	66.05
3450.0000	87.8236	64.52
3500.0000	87.7321	63.03
3550.0000	87.5790	61.19
3600.0000	87.5512	58.94
3650.0000	87.4324	56.41
3700.0000	87.3334	53.84
3750.0000	87.2601	50.97
3820.0000	87.1524	46.76
3870.0000	86.9366	43.63
3950.0000	86.7077	37.65
4000.0000	86.5006	33.90
4060.0000	86.3187	30.26
4120.0000	86.1165	25.93
4180.0000	85.9232	21.61
4250.0000	85.6919	16.38
4310.0000	85.6293	12.53
4370.0000	85.5080	8.36
4440.0000	85.4260	4.37
4500.0000	85.5167	0.81
4550.0000	85.5695	-1.10
4620.0000	85.6941	-5.43
4680.0000	85.7975	-7.65
4750.0000	86.0652	-10.46
4820.0000	86.2931	-13.58
4870.0000	86.5600	-15.98
4940.0000	86.9168	-17.32
5000.0000	87.2755	-20.15
5080.0000	87.7929	-22.05
5150.0000	88.2283	-23.52
5220.0000	88.5360	-25.65
5300.0000	89.1789	-27.44
5380.0000	89.7051	-29.96
5450.0000	90.1763	-32.43
5520.0000	90.5458	-35.72
5600.0000	91.0172	-37.85
5700.0000	91.5284	-42.18
5800.0000	91.7896	-45.92
5900.0000	91.8066	-50.63
6000.0000	91.7617	-53.44
6080.0000	91.7282	-56.00
6150.0000	91.7546	-57.12
6220.0000	91.8136	-58.91
6300.0000	91.4760	-61.58
6400.0000	91.3560	-62.21
6500.0000	91.3109	-61.00
6600.0000	91.0409	-62.82
6700.0000	90.8861	-62.49
6800.0000	90.7876	-60.91
6900.0000	90.2810	-58.65
7000.0000	90.4831	-57.81
7100.0000	90.2286	-55.73
7200.0000	89.8389	-53.20
7300.0000	89.9706	-51.87
7400.0000	89.6514	-47.79
7500.0000	89.6163	-42.84
7620.0000	89.7697	-39.25
7750.0000	90.6855	-34.31
7880.0000	90.9428	-29.35
8000.0000	91.6718	-27.68
8120.0000	92.7144	-28.49
8250.0000	93.0807	-30.50
8380.0000	93.4424	-34.46
8500.0000	93.5921	-40.33
8620.0000	93.4011	-40.26
8750.0000	92.9804	-42.57
8850.0000	92.0757	-48.33
9000.0000	90.5884	-47.76
9120.0000	90.3966	-45.13
9250.0000	89.4041	-43.05
9380.0000	87.4921	-39.47
9500.0000	86.5582	-39.09
9620.0000	86.5037	-30.98
9750.0000	85.7748	-22.44
9880.0000	84.5335	-13.19
10000.0000	83.6912	-8.96
10150.0000	84.9118	1.58
10300.0000	85.3733	7.09
10440.0000	85.9921	17.25
10600.0000	87.6218	19.50
10750.0000	87.7626	11.84
10900.0000	87.3315	9.79
11060.0000	87.0660	15.58
11200.0000	87.2101	15.59
11380.0000	87.1387	4.98
11500.0000	87.8717	7.73
11720.0000	86.1199	13.82
11800.0000	85.5595	2.42
12060.0000	85.3375	11.77
12200.0000	83.2855	18.06
12410.0000	82.8918	21.26
12500.0000	83.6775	31.37
12650.0000	84.9301	29.37
12800.0000	85.0335	29.37
13150.0000	85.5503	32.64
13200.0000	82.7905	35.30
13400.0000	85.0191	27.32
13600.0000	83.6924	38.66
13800.0000	84.4181	38.34
14000.0000	84.6160	14.41
14300.0000	85.7114	14.88
14500.0000	83.6974	7.05
14750.0000	78.2789	-9.73
15000.0000	75.0805	-4.00
15250.0000	76.0432	-11.05
15500.0000	70.9892	2.56
15750.0000	71.7193	-0.96
16000.0000	71.5418	38.46
16250.0000	72.7760	49.45
16500.0000	70.3488	46.60
16750.0000	76.5051	37.62
17000.0000	77.6609	31.01
17250.0000	72.5692	7.91
17500.0000	77.6310	4.72
17750.0000	77.7832	-10.45
18000.0000	71.5227	-45.69
18250.0000	77.3354	-55.53
18500.0000	76.9435	-89.31
18750.0000	70.8968	-90.62
19000.0000	72.6544	-157.45
19250.0000	66.0712	167.41
19500.0000	66.6533	149.18
19750.0000	67.5356	159.92
