* Measurement data measured by REW V5.20 Beta 47
* Source: Microphone (Realtek Audio), MICROPHONE (Master Volume), R, volume: 0.250
* Format: 256k Log Swept Sine, 1 sweep at -12.0 dBFS with no timing reference
* Dated: Aug 22, 2020 7:31:59 AM
* REW Settings:
*  C-weighting compensation: Off
*  Target level: 75.0 dB
* Note: ; 
* Measurement: Oriolus Forsteni L
* Smoothing: None
* Frequency Step: 1/48 octave
* Start Frequency: 20.000 Hz
*
* Freq(Hz)	SPL(dB)	Phase(degrees)
20.0000	90.4990	176.03
20.3000	90.4882	176.00
20.6000	90.5113	175.85
20.9000	90.5522	175.55
21.2000	90.5951	175.07
21.4000	90.6164	174.69
21.8000	90.6386	173.86
22.0000	90.6423	173.46
22.4000	90.6465	172.73
22.7000	90.6322	172.24
23.0000	90.6013	171.87
23.3000	90.5647	171.71
23.6000	90.5360	171.78
24.0000	90.5407	172.18
24.3000	90.5945	172.51
24.7000	90.7195	172.62
25.0000	90.8125	172.30
25.4000	90.8724	171.46
25.8000	90.8270	170.60
26.2000	90.7043	170.22
26.5000	90.6127	170.37
26.9000	90.5538	170.90
27.2000	90.5635	171.22
27.6000	90.6093	171.21
28.0000	90.6256	170.77
28.5000	90.5608	170.16
29.0000	90.4783	170.09
29.5000	90.4820	170.22
30.0000	90.5596	169.89
30.4000	90.6038	169.15
30.7000	90.5986	168.48
31.1000	90.5472	167.76
31.5000	90.4815	167.38
32.0000	90.4351	167.29
32.5000	90.4507	167.28
33.0000	90.4923	167.08
33.5000	90.5337	166.75
34.0000	90.5544	166.34
34.5000	90.5481	165.97
35.0000	90.5201	165.76
35.5000	90.4928	165.81
36.0000	90.4976	165.99
36.5000	90.5294	166.08
37.0000	90.5707	165.96
37.5000	90.5912	165.64
38.2000	90.5650	164.96
38.7000	90.4736	164.51
39.5000	90.2618	164.90
40.0000	90.2292	165.80
40.6000	90.3508	166.37
41.2000	90.4632	165.62
41.8000	90.4054	164.46
42.5000	90.2329	164.13
43.1000	90.1885	164.36
43.7000	90.1973	164.02
44.4000	90.1188	163.28
45.0000	90.0148	163.15
45.5000	89.9816	163.23
46.2000	89.9757	162.93
46.8000	89.9163	162.48
47.5000	89.8166	162.46
48.2000	89.7913	162.73
48.7000	89.8055	162.70
49.4000	89.7927	162.37
50.0000	89.7455	162.20
50.8000	89.7010	162.25
51.5000	89.6958	162.18
52.2000	89.6751	161.92
53.0000	89.6180	161.69
53.8000	89.5703	161.62
54.5000	89.5376	161.49
55.2000	89.4879	161.31
56.0000	89.4218	161.26
57.0000	89.3634	161.25
58.0000	89.3015	161.17
59.0000	89.2526	161.10
60.0000	89.1933	160.89
60.8000	89.1428	160.85
61.5000	89.1147	160.74
62.2000	89.0608	160.55
63.0000	88.9808	160.67
64.0000	88.9761	160.90
65.0000	88.9382	160.49
66.0000	88.8521	160.49
67.0000	88.8169	160.30
68.0000	88.7287	160.15
69.0000	88.7094	160.14
70.0000	88.6565	159.74
71.0000	88.6152	159.87
72.0000	88.6110	159.43
73.0000	88.4755	159.40
74.0000	88.4696	160.10
75.0000	88.4995	159.77
76.2000	88.3565	159.55
77.5000	88.2763	160.32
78.8000	88.2827	160.39
80.0000	88.2168	160.31
81.2000	88.1392	160.40
82.5000	88.0452	160.35
83.8000	87.9736	160.59
85.0000	87.8918	160.01
86.2000	87.8700	160.32
87.5000	87.7851	159.32
88.5000	87.9246	160.47
90.0000	87.8575	155.93
91.2000	87.3884	159.57
92.5000	87.7120	159.86
93.8000	87.5386	160.31
95.0000	87.4794	160.79
96.2000	87.4563	161.21
97.5000	87.3709	161.01
98.8000	87.3335	161.13
100.0000	87.2850	161.11
101.5000	87.2374	161.12
103.0000	87.1676	161.57
104.4000	87.1270	161.61
106.0000	87.0356	162.03
107.5000	86.9647	161.90
109.0000	86.9188	162.22
110.6000	86.8451	162.34
112.0000	86.7841	161.93
113.8000	86.8055	163.29
115.0000	86.7887	161.79
117.2000	86.6156	162.80
118.0000	86.5995	162.87
120.6000	86.5162	163.21
122.0000	86.4924	163.29
124.1000	86.4140	163.87
125.0000	86.3778	163.52
126.5000	86.3110	164.46
128.0000	86.2802	163.97
131.5000	86.1136	164.71
132.0000	86.1133	164.75
134.0000	86.0639	165.05
136.0000	85.9603	165.28
138.0000	85.9941	165.72
140.0000	85.8758	165.95
143.0000	85.7338	165.95
145.0000	85.7067	166.39
147.5000	85.6714	166.41
150.0000	85.5528	167.44
152.5000	85.4589	167.61
155.0000	85.4241	168.06
157.5000	85.4098	168.36
160.0000	85.3448	169.12
162.5000	85.3174	169.29
165.0000	85.2546	169.46
167.5000	85.2187	169.95
170.0000	85.1311	170.22
172.5000	85.1062	170.45
175.0000	85.0490	170.92
177.5000	84.9972	171.28
180.0000	84.9236	171.75
182.5000	84.8625	172.32
185.0000	84.8074	172.81
187.5000	84.7225	172.98
190.0000	84.7070	173.53
192.5000	84.6697	173.86
195.0000	84.6142	174.29
197.5000	84.5473	174.46
200.0000	84.5028	174.96
203.0000	84.4608	175.37
206.0000	84.4149	175.89
209.0000	84.3716	176.36
212.0000	84.3206	176.84
214.0000	84.2700	177.25
218.0000	84.2133	177.62
220.0000	84.1721	178.10
224.0000	84.1361	178.74
227.0000	84.0204	179.13
230.0000	84.0701	179.73
233.0000	84.0350	-179.95
236.0000	83.9941	-179.28
240.0000	83.9424	-178.68
243.0000	83.8979	-178.33
247.0000	83.8575	-177.64
250.0000	83.8169	-177.38
254.0000	83.7970	-176.76
258.0000	83.7248	-176.06
262.0000	83.6724	-175.30
265.0000	83.6690	-175.08
269.0000	83.5547	-174.33
272.0000	83.5621	-174.01
276.0000	83.5030	-173.20
280.0000	83.4715	-172.60
285.0000	83.4274	-171.97
290.0000	83.3957	-171.29
295.0000	83.3276	-170.33
300.0000	83.3090	-169.88
304.0000	83.2613	-168.96
307.0000	83.2451	-168.59
311.0000	83.2335	-168.16
315.0000	83.2005	-167.44
320.0000	83.1676	-166.78
325.0000	83.1633	-166.16
330.0000	83.1165	-165.33
335.0000	83.1396	-164.77
340.0000	83.1179	-163.80
345.0000	83.0313	-163.23
350.0000	83.0493	-162.44
355.0000	83.0310	-161.71
360.0000	82.9710	-161.06
365.0000	82.9348	-160.49
370.0000	82.9245	-159.69
375.0000	82.9064	-159.17
382.0000	82.8702	-158.03
387.0000	82.8355	-157.41
395.0000	82.8123	-156.40
400.0000	82.7723	-155.78
406.0000	82.7460	-154.90
412.0000	82.7060	-154.08
418.0000	82.6645	-153.25
425.0000	82.6519	-152.18
431.0000	82.6472	-151.48
437.0000	82.6410	-150.64
444.0000	82.6386	-150.02
450.0000	82.6381	-149.00
455.0000	82.6134	-148.30
462.0000	82.5972	-147.55
468.0000	82.5866	-146.59
475.0000	82.5408	-145.81
482.0000	82.5708	-144.94
487.0000	82.5391	-144.14
494.0000	82.5085	-143.12
500.0000	82.4981	-142.56
508.0000	82.4787	-141.70
515.0000	82.4866	-140.43
522.0000	82.4459	-139.75
530.0000	82.4402	-138.76
538.0000	82.4463	-137.88
545.0000	82.4380	-136.90
552.0000	82.3914	-135.81
560.0000	82.3911	-134.59
570.0000	82.3907	-133.55
580.0000	82.4009	-132.42
590.0000	82.3776	-131.14
600.0000	82.3835	-130.06
608.0000	82.3649	-129.01
615.0000	82.3780	-128.18
622.0000	82.3660	-127.42
630.0000	82.3269	-126.24
640.0000	82.3623	-124.90
650.0000	82.3443	-123.75
660.0000	82.3039	-122.33
670.0000	82.3322	-120.86
680.0000	82.3385	-119.50
690.0000	82.4075	-118.01
700.0000	82.4545	-116.83
710.0000	82.5148	-115.90
720.0000	82.5455	-114.70
730.0000	82.5626	-113.37
740.0000	82.5825	-112.28
750.0000	82.5948	-110.82
762.0000	82.6080	-109.73
775.0000	82.6250	-107.75
788.0000	82.6933	-106.38
800.0000	82.7384	-104.87
812.0000	82.7486	-103.47
825.0000	82.7931	-101.53
838.0000	82.8597	-100.25
850.0000	82.9089	-98.82
862.0000	82.9570	-97.37
875.0000	83.0070	-95.77
885.0000	83.0497	-94.53
900.0000	83.1572	-92.61
912.0000	83.2005	-91.32
925.0000	83.3360	-89.76
938.0000	83.4431	-88.11
950.0000	83.5135	-87.06
962.0000	83.6181	-85.87
975.0000	83.7094	-84.28
988.0000	83.8347	-82.95
1000.0000	83.9288	-81.60
1015.0000	84.0773	-79.97
1030.0000	84.2300	-78.62
1044.0000	84.3635	-77.41
1060.0000	84.5309	-75.85
1075.0000	84.7059	-74.87
1090.0000	84.8986	-73.75
1106.0000	85.1074	-72.71
1120.0000	85.2291	-71.73
1138.0000	85.4646	-70.84
1150.0000	85.5973	-70.26
1172.0000	85.8351	-68.98
1180.0000	85.9270	-68.87
1206.0000	86.2087	-67.91
1220.0000	86.3388	-67.57
1241.0000	86.5612	-67.13
1250.0000	86.6761	-66.98
1265.0000	86.7868	-66.98
1280.0000	86.8892	-66.91
1315.0000	87.1380	-66.74
1320.0000	87.1454	-66.77
1340.0000	87.2492	-66.81
1360.0000	87.3162	-66.78
1380.0000	87.3306	-66.61
1400.0000	87.3362	-66.41
1430.0000	87.3388	-65.98
1450.0000	87.3249	-65.64
1475.0000	87.2633	-65.22
1500.0000	87.2246	-64.41
1525.0000	87.1180	-63.68
1550.0000	87.0814	-62.48
1575.0000	87.0374	-61.23
1600.0000	86.9553	-59.91
1625.0000	86.9478	-58.53
1650.0000	86.9004	-56.94
1675.0000	86.8689	-55.39
1700.0000	86.8946	-53.70
1725.0000	86.9065	-52.31
1750.0000	86.9165	-50.43
1775.0000	86.9890	-48.92
1800.0000	87.0148	-47.33
1825.0000	87.0767	-45.84
1850.0000	87.1686	-44.29
1875.0000	87.2050	-42.78
1900.0000	87.2842	-41.71
1925.0000	87.3921	-39.94
1950.0000	87.4715	-38.71
1975.0000	87.5542	-37.59
2000.0000	87.6397	-36.35
2030.0000	87.7610	-34.98
2060.0000	87.8797	-34.05
2090.0000	87.9889	-32.82
2120.0000	88.0624	-31.97
2140.0000	88.1428	-31.47
2180.0000	88.2728	-30.51
2200.0000	88.2902	-30.12
2240.0000	88.4022	-29.45
2270.0000	88.4348	-28.96
2300.0000	88.4904	-28.42
2330.0000	88.4685	-28.12
2360.0000	88.4739	-27.96
2400.0000	88.4347	-27.60
2430.0000	88.3771	-27.21
2470.0000	88.2491	-26.63
2500.0000	88.1472	-26.37
2540.0000	88.0035	-25.94
2580.0000	87.8248	-25.23
2620.0000	87.5906	-24.39
2650.0000	87.4793	-23.54
2690.0000	87.2240	-22.68
2720.0000	87.0440	-21.89
2760.0000	86.8051	-20.46
2800.0000	86.5668	-19.15
2850.0000	86.2762	-16.91
2900.0000	85.9521	-15.21
2950.0000	85.7004	-12.83
3000.0000	85.4214	-10.08
3040.0000	85.2246	-8.31
3070.0000	85.0897	-6.64
3110.0000	84.8769	-4.68
3150.0000	84.7209	-2.64
3200.0000	84.4894	-0.13
3250.0000	84.3073	2.71
3300.0000	84.1406	5.51
3350.0000	84.0151	8.09
3400.0000	83.9211	11.10
3450.0000	83.8632	13.28
3500.0000	83.8395	16.01
3550.0000	83.8373	18.47
3600.0000	83.8481	21.51
3650.0000	83.9366	23.93
3700.0000	84.0416	26.14
3750.0000	84.2805	28.68
3820.0000	84.7135	31.85
3870.0000	85.0486	33.71
3950.0000	85.9315	35.47
4000.0000	86.7561	35.23
4060.0000	87.7812	32.11
4120.0000	88.5941	25.21
4180.0000	89.0325	16.34
4250.0000	88.8870	6.11
4310.0000	88.5779	-1.12
4370.0000	88.2036	-7.52
4440.0000	87.7624	-14.01
4500.0000	87.3671	-19.11
4550.0000	87.0496	-23.28
4620.0000	86.5861	-28.72
4680.0000	86.1949	-32.56
4750.0000	85.8054	-36.51
4820.0000	85.3680	-39.79
4870.0000	85.1467	-42.00
4940.0000	84.8599	-44.19
5000.0000	84.6678	-45.09
5080.0000	84.5389	-46.88
5150.0000	84.4090	-46.84
5220.0000	84.4196	-46.70
5300.0000	84.4771	-46.13
5380.0000	84.7168	-45.30
5450.0000	84.9144	-44.21
5520.0000	85.1657	-42.57
5600.0000	85.4651	-40.86
5700.0000	85.9261	-38.56
5800.0000	86.4711	-35.77
5900.0000	87.0207	-33.25
6000.0000	87.6786	-30.75
6080.0000	88.1924	-29.38
6150.0000	88.6575	-27.35
6220.0000	89.1058	-26.35
6300.0000	89.6850	-25.22
6400.0000	90.3515	-24.21
6500.0000	90.9563	-23.95
6600.0000	91.5283	-23.52
6700.0000	92.0159	-23.72
6800.0000	92.4174	-24.05
6900.0000	92.7101	-24.42
7000.0000	92.9835	-24.50
7100.0000	93.1457	-24.07
7200.0000	93.2853	-23.20
7300.0000	93.4301	-22.11
7400.0000	93.6362	-20.72
7500.0000	93.8413	-19.18
7620.0000	94.1590	-17.27
7750.0000	94.5547	-15.56
7880.0000	94.9798	-14.81
8000.0000	95.4213	-15.56
8120.0000	95.7985	-18.37
8250.0000	95.8835	-23.35
8380.0000	95.4415	-29.44
8500.0000	94.5829	-34.23
8620.0000	93.3382	-37.08
8750.0000	91.7492	-37.52
8850.0000	90.5388	-36.03
9000.0000	88.7554	-31.44
9120.0000	87.4354	-26.39
9250.0000	86.0728	-19.64
9380.0000	84.8419	-12.19
9500.0000	83.7643	-4.82
9620.0000	82.8354	3.07
9750.0000	81.9396	12.54
9880.0000	81.1292	21.56
10000.0000	80.4208	31.09
10150.0000	79.6001	43.12
10300.0000	79.0508	55.54
10440.0000	78.5938	65.32
10600.0000	78.3327	77.84
10750.0000	78.3109	89.62
10900.0000	78.2390	99.99
11060.0000	77.8999	108.17
11200.0000	77.6682	117.23
11380.0000	77.0561	128.14
11500.0000	76.7879	137.28
11720.0000	76.5551	153.84
11800.0000	76.7256	160.99
12060.0000	77.1185	177.02
12200.0000	77.1112	-174.59
12410.0000	77.6575	-163.76
12500.0000	77.7745	-159.48
12650.0000	78.0644	-152.61
12800.0000	78.0546	-147.74
13150.0000	77.6761	-135.14
13200.0000	77.4223	-133.24
13400.0000	76.6994	-124.09
13600.0000	76.0271	-113.01
13800.0000	75.3085	-101.02
14000.0000	74.6208	-86.07
14300.0000	74.0425	-63.02
14500.0000	73.7233	-47.97
14750.0000	74.0057	-29.12
15000.0000	74.2208	-9.76
15250.0000	74.5507	9.52
15500.0000	75.8733	29.40
15750.0000	77.6777	43.77
16000.0000	79.6996	54.76
16250.0000	81.7866	52.50
16500.0000	81.5208	40.42
16750.0000	78.7387	38.24
17000.0000	75.9755	50.33
17250.0000	73.6254	67.47
17500.0000	71.6479	90.81
17750.0000	70.3557	109.84
18000.0000	69.4967	131.68
18250.0000	68.1319	151.62
18500.0000	68.2105	173.04
18750.0000	68.0097	-163.71
19000.0000	67.1821	-141.83
19250.0000	65.6240	-126.16
19500.0000	63.2728	-106.01
19750.0000	61.7715	-72.34
