* Measurement data measured by REW V5.20 Beta 60
* Source: Headset (USB-C to 3.5mm Headphone Jack Adapter), MICROPHONE (Master Volume), R, volume: 0.000
* Format: 256k Log Swept Sine, 1 sweep at -12.0 dBFS with no timing reference
* Dated: Sep 26, 2020 4:36:59 PM
* REW Settings:
*  C-weighting compensation: Off
*  Target level: 75.0 dB
* Note: ; 
* Measurement: Oriolus Crassirostris L
* Smoothing: None
* Frequency Step: 1/48 octave
* Start Frequency: 20.000 Hz
*
* Freq(Hz)	SPL(dB)	Phase(degrees)
20.000000	90.629440	159.8977
20.299999	90.600220	159.6746
20.600000	90.569870	159.4626
20.900000	90.537468	159.2682
21.200001	90.507477	159.0774
21.400000	90.487305	158.9569
21.799999	90.447098	158.7379
22.000000	90.428444	158.6313
22.400000	90.397751	158.3876
22.700001	90.374924	158.1981
23.000000	90.350830	157.9984
23.299999	90.326195	157.7839
23.600000	90.298050	157.5745
24.000000	90.254402	157.3219
24.299999	90.220329	157.1545
24.700001	90.175346	156.9661
25.000000	90.142693	156.8406
25.400000	90.102173	156.6671
25.799999	90.058731	156.5093
26.200001	90.013390	156.3752
26.500000	89.981110	156.2968
26.900000	89.942490	156.2287
27.200001	89.919830	156.1707
27.600000	89.896675	156.0382
28.000000	89.869186	155.8180
28.500000	89.816559	155.4598
29.000000	89.742065	155.1755
29.500000	89.666801	155.0240
30.000000	89.603241	154.9411
30.400000	89.560333	154.8388
30.700001	89.526711	154.7430
31.100000	89.477089	154.6130
31.500000	89.424744	154.5077
32.000000	89.361229	154.4406
32.500000	89.306885	154.3965
33.000000	89.258087	154.3634
33.500000	89.215332	154.3325
34.000000	89.181564	154.2748
34.500000	89.155144	154.0999
35.000000	89.112152	153.8252
35.500000	89.042427	153.5974
36.000000	88.963013	153.5747
36.500000	88.904419	153.7020
37.000000	88.875679	153.7842
37.500000	88.855331	153.6828
38.200001	88.790901	153.4119
38.700001	88.725685	153.3320
39.500000	88.647552	153.3894
40.000000	88.611755	153.3701
40.599998	88.557533	153.2643
41.200001	88.492233	153.2240
41.799999	88.434685	153.2590
42.500000	88.377243	153.2697
43.099998	88.324905	153.2415
43.700001	88.273018	153.2346
44.400002	88.219917	153.1950
45.000000	88.170692	153.0851
45.500000	88.120125	153.0007
46.200001	88.046661	153.0056
46.799999	87.999191	153.0462
47.500000	87.949638	152.9890
48.200001	87.882042	152.9433
48.700001	87.832687	152.9922
49.400002	87.777435	153.1280
50.000000	87.733482	153.2529
50.799999	87.691818	153.4302
51.500000	87.673584	153.4832
52.200001	87.629501	153.3549
53.000000	87.540817	153.4271
53.799999	87.494499	153.7053
54.500000	87.468292	153.6646
55.200001	87.405151	153.5620
56.000000	87.332527	153.6722
57.000000	87.268593	153.6744
58.000000	87.179398	153.6984
59.000000	87.111633	153.8455
60.000000	87.056252	153.9688
60.799999	87.016319	154.0343
61.500000	86.977356	154.0525
62.200001	86.932968	154.1178
63.000000	86.889915	154.2194
64.000000	86.830353	154.2740
65.000000	86.766083	154.4229
66.000000	86.712334	154.5358
67.000000	86.649673	154.6234
68.000000	86.590935	154.7905
69.000000	86.548141	154.9274
70.000000	86.498199	155.0143
71.000000	86.448608	155.1434
72.000000	86.401230	155.2612
73.000000	86.352066	155.4090
74.000000	86.310059	155.5565
75.000000	86.263802	155.6929
76.199997	86.217819	155.9047
77.500000	86.169495	156.0376
78.800003	86.109306	156.1833
80.000000	86.055389	156.4125
81.199997	86.018532	156.5908
82.500000	85.965057	156.7675
83.800003	85.924217	156.9477
85.000000	85.875832	157.1169
86.199997	85.828850	157.2849
87.500000	85.769310	157.5626
88.500000	85.739578	157.7912
90.000000	85.707954	158.0266
91.199997	85.666008	158.0196
92.500000	85.601395	158.2167
93.800003	85.558838	158.4085
95.000000	85.520065	158.5821
96.199997	85.487572	158.7044
97.500000	85.440567	158.8143
98.800003	85.405258	159.1325
100.000000	85.409935	159.1288
101.500000	85.326279	159.1996
103.000000	85.301392	159.5267
104.400002	85.249054	159.6963
106.000000	85.226204	160.0143
107.500000	85.172974	159.9861
109.000000	85.133133	160.3443
110.599998	85.121338	160.4937
112.000000	85.095520	160.5617
113.800003	85.062218	160.7915
115.000000	85.034187	161.0357
117.199997	84.986725	161.1913
118.000000	84.968353	161.3027
120.599998	84.909874	161.6542
122.000000	84.863281	161.7750
124.099998	84.826172	162.0615
125.000000	84.811470	162.2176
126.500000	84.795685	162.3377
128.000000	84.764900	162.5309
131.500000	84.708038	162.8965
132.000000	84.696930	162.9618
134.000000	84.675385	163.4243
136.000000	84.596275	163.5753
138.000000	84.612915	163.7115
140.000000	84.587540	163.9265
143.000000	84.537796	164.1560
145.000000	84.480957	164.3411
147.500000	84.455452	164.6556
150.000000	84.415833	164.7151
152.500000	84.383316	165.0718
155.000000	84.378464	165.2919
157.500000	84.337555	165.4979
160.000000	84.309723	165.7978
162.500000	84.283615	165.9354
165.000000	84.268478	166.2021
167.500000	84.247726	166.3750
170.000000	84.232452	166.5935
172.500000	84.197166	166.7485
175.000000	84.177940	166.9658
177.500000	84.125465	167.2460
180.000000	84.093521	167.3125
182.500000	84.052994	167.5452
185.000000	84.019089	167.7169
187.500000	83.984734	167.9519
190.000000	83.960373	168.1219
192.500000	83.932808	168.3129
195.000000	83.893951	168.5119
197.500000	83.862274	168.6911
200.000000	83.824402	168.8799
203.000000	83.795433	169.0566
206.000000	83.763885	169.3021
209.000000	83.723000	169.5143
212.000000	83.691879	169.7162
214.000000	83.675209	169.7902
218.000000	83.644478	170.1583
220.000000	83.630409	170.2630
224.000000	83.601959	170.4497
227.000000	83.579613	170.7289
230.000000	83.575020	170.9460
233.000000	83.552208	171.0436
236.000000	83.519379	171.1901
240.000000	83.517944	171.4543
243.000000	83.476166	171.3827
247.000000	83.462006	172.2684
250.000000	83.485565	172.0269
254.000000	83.343910	172.8048
258.000000	83.315849	172.2933
262.000000	83.334007	172.7666
265.000000	83.276505	172.9014
269.000000	83.250565	173.1475
272.000000	83.215149	173.3784
276.000000	83.198380	173.6107
280.000000	83.161324	173.9047
285.000000	83.125824	174.2191
290.000000	83.085289	174.5824
295.000000	83.038704	174.8481
300.000000	83.009911	175.1514
304.000000	82.995392	175.3745
307.000000	82.945663	175.5936
311.000000	82.945976	175.8228
315.000000	82.911835	176.0715
320.000000	82.854050	176.4321
325.000000	82.850082	176.6810
330.000000	82.781540	177.1140
335.000000	82.785782	177.4034
340.000000	82.722305	177.7540
345.000000	82.691017	177.8752
350.000000	82.661789	178.0743
355.000000	82.613876	178.3781
360.000000	82.601868	178.8714
365.000000	82.504440	179.0122
370.000000	82.515594	179.7420
375.000000	82.388176	179.6748
382.000000	82.442467	179.6319
387.000000	82.338860	-179.7462
395.000000	82.379059	-179.3429
400.000000	82.313416	-178.9762
406.000000	82.311356	-178.4366
412.000000	82.250175	-177.9751
418.000000	82.246582	-177.8966
425.000000	82.230362	-177.2442
431.000000	82.170334	-176.9064
437.000000	82.166656	-176.4950
444.000000	82.136528	-176.0885
450.000000	82.096695	-175.6710
455.000000	82.094330	-175.4427
462.000000	82.055145	-175.1158
468.000000	82.020126	-174.7803
475.000000	81.976364	-174.3261
482.000000	81.999489	-174.2027
487.000000	81.938538	-174.1464
494.000000	81.929024	-172.3311
500.000000	82.102882	-173.1505
508.000000	81.881302	-171.0490
515.000000	81.537857	-173.7274
522.000000	81.878586	-171.4998
530.000000	81.823364	-170.7807
538.000000	81.697609	-170.4435
545.000000	81.711082	-170.0337
552.000000	81.666504	-169.3379
560.000000	81.640572	-168.9939
570.000000	81.635513	-168.4181
580.000000	81.618195	-167.8008
590.000000	81.617775	-166.8460
600.000000	81.559280	-166.1380
608.000000	81.542542	-165.8013
615.000000	81.532539	-165.2687
622.000000	81.594666	-164.7280
630.000000	81.490891	-164.7972
640.000000	81.369827	-165.2098
650.000000	81.405960	-163.4130
660.000000	81.429359	-162.6686
670.000000	81.438431	-161.7082
680.000000	81.447159	-160.8731
690.000000	81.401451	-160.3238
700.000000	81.387939	-159.6799
710.000000	81.389091	-158.8813
720.000000	81.374664	-158.2274
730.000000	81.369858	-157.4890
740.000000	81.384377	-156.9222
750.000000	81.425293	-155.9938
762.000000	81.473770	-155.8714
775.000000	81.314285	-153.9874
788.000000	81.351242	-153.2919
800.000000	81.346359	-152.4189
812.000000	81.378319	-151.5939
825.000000	81.403893	-150.7290
838.000000	81.402023	-149.7330
850.000000	81.431976	-148.6600
862.000000	81.463356	-147.8293
875.000000	81.484207	-147.1133
885.000000	81.520081	-146.0214
900.000000	81.551620	-144.9989
912.000000	81.615089	-144.3469
925.000000	81.647369	-143.2062
938.000000	81.711624	-142.2523
950.000000	81.778404	-141.3790
962.000000	81.837158	-140.5600
975.000000	81.906288	-139.7783
988.000000	82.007294	-138.8374
1000.000000	82.153046	-137.8708
1015.000000	82.169067	-137.1883
1030.000000	82.230682	-136.2823
1044.000000	82.315788	-135.5531
1060.000000	82.433945	-134.6969
1075.000000	82.543793	-133.9090
1090.000000	82.663872	-133.2366
1106.000000	82.795914	-132.5324
1120.000000	82.902802	-131.9485
1138.000000	83.065346	-131.2950
1150.000000	83.151466	-130.8550
1172.000000	83.343132	-130.2642
1180.000000	83.403091	-129.9776
1206.000000	83.621239	-129.2750
1220.000000	83.733299	-129.0021
1241.000000	83.913185	-128.5132
1250.000000	83.988358	-128.3185
1265.000000	84.107353	-128.0623
1280.000000	84.229515	-127.7839
1315.000000	84.501945	-127.2105
1320.000000	84.536743	-127.1674
1340.000000	84.695457	-126.8939
1360.000000	84.843529	-126.6186
1380.000000	84.991516	-126.4116
1400.000000	85.144478	-126.1597
1430.000000	85.365921	-125.8099
1450.000000	85.510559	-125.6219
1475.000000	85.701469	-125.3896
1500.000000	85.889549	-125.1940
1525.000000	86.075851	-125.0329
1550.000000	86.277145	-124.8938
1575.000000	86.481049	-124.7712
1600.000000	86.686775	-124.7085
1625.000000	86.902054	-124.6763
1650.000000	87.114471	-124.7187
1675.000000	87.340248	-124.8436
1700.000000	87.566986	-124.9872
1725.000000	87.802139	-125.2855
1750.000000	88.041153	-125.6719
1775.000000	88.281441	-126.1484
1800.000000	88.525352	-126.8080
1825.000000	88.769096	-127.6148
1850.000000	89.013100	-128.6089
1875.000000	89.247887	-129.7919
1900.000000	89.466713	-131.1796
1925.000000	89.660034	-132.7716
1950.000000	89.816933	-134.5499
1975.000000	89.922119	-136.5710
2000.000000	89.929741	-138.8715
2030.000000	90.012009	-140.9654
2060.000000	89.966248	-143.1607
2090.000000	89.855888	-145.1053
2120.000000	89.710266	-146.6933
2140.000000	89.610649	-147.5798
2180.000000	89.387558	-148.8055
2200.000000	89.282623	-149.2688
2240.000000	89.097832	-150.1975
2270.000000	88.962280	-150.9816
2300.000000	88.839447	-151.8903
2330.000000	88.728172	-152.7248
2360.000000	88.611412	-153.5875
2400.000000	88.463348	-154.4037
2430.000000	88.368393	-154.7736
2470.000000	88.220398	-155.0048
2500.000000	88.109619	-155.2251
2540.000000	87.959351	-155.3371
2580.000000	87.808334	-155.4081
2620.000000	87.671043	-155.3785
2650.000000	87.565056	-155.2986
2690.000000	87.440475	-155.1362
2720.000000	87.345398	-154.9555
2760.000000	87.222336	-154.6178
2800.000000	87.105942	-154.1988
2850.000000	86.969780	-153.6341
2900.000000	86.858124	-152.9614
2950.000000	86.767349	-152.1939
3000.000000	86.700951	-151.0569
3040.000000	86.653679	-150.6860
3070.000000	86.628517	-150.2311
3110.000000	86.618744	-149.5921
3150.000000	86.614456	-148.8642
3200.000000	86.632065	-147.9554
3250.000000	86.678391	-147.0792
3300.000000	86.751961	-146.2354
3350.000000	86.847290	-145.5127
3400.000000	86.963585	-144.8819
3450.000000	87.116318	-144.2740
3500.000000	87.312698	-143.8172
3550.000000	87.523674	-143.4760
3600.000000	87.755440	-143.3126
3650.000000	88.011482	-143.2971
3700.000000	88.295151	-143.5036
3750.000000	88.588776	-143.9419
3820.000000	89.037964	-144.9986
3870.000000	89.362030	-146.1280
3950.000000	89.871796	-148.8266
4000.000000	90.164986	-151.2590
4060.000000	90.525070	-154.2824
4120.000000	90.795837	-158.1813
4180.000000	90.961647	-162.5876
4250.000000	90.999954	-167.8669
4310.000000	90.891663	-172.3799
4370.000000	90.690247	-176.6553
4440.000000	90.355751	178.7698
4500.000000	89.991577	175.1556
4550.000000	89.631882	172.3922
4620.000000	89.055099	169.0845
4680.000000	88.525177	166.7375
4750.000000	87.896095	164.6269
4820.000000	87.260315	162.9948
4870.000000	86.815773	162.1644
4940.000000	86.193001	161.2625
5000.000000	85.651787	160.7572
5080.000000	84.981728	160.9229
5150.000000	84.415451	161.4526
5220.000000	83.875038	162.3186
5300.000000	83.306389	163.7057
5380.000000	82.816856	165.5132
5450.000000	82.436340	167.2096
5520.000000	82.059662	168.9432
5600.000000	81.665855	171.0871
5700.000000	81.244888	173.8823
5800.000000	80.875969	176.7088
5900.000000	80.575043	179.7389
6000.000000	80.322723	-177.1061
6080.000000	80.213036	-174.4074
6150.000000	80.154381	-172.1357
6220.000000	80.144295	-169.9650
6300.000000	80.163139	-167.3497
6400.000000	80.232353	-164.3523
6500.000000	80.407303	-161.4419
6600.000000	80.633232	-158.5532
6700.000000	80.933029	-155.9662
6800.000000	81.303795	-153.6514
6900.000000	81.800659	-151.5540
7000.000000	82.385040	-149.8883
7100.000000	83.053802	-148.7817
7200.000000	83.819588	-148.3902
7300.000000	84.662361	-148.8700
7400.000000	85.569710	-150.6644
7500.000000	86.477303	-154.1463
7620.000000	87.466866	-160.7477
7750.000000	88.085770	-170.9294
7880.000000	87.962288	177.6694
8000.000000	87.205711	168.9265
8120.000000	86.145721	163.6807
8250.000000	84.989174	161.4922
8380.000000	83.984261	162.2310
8500.000000	83.296555	164.7372
8620.000000	82.898674	168.5610
8750.000000	82.842094	173.3947
8850.000000	83.096939	176.6724
9000.000000	83.913536	179.3024
9120.000000	84.742706	178.6735
9250.000000	85.574890	175.7019
9380.000000	86.321419	170.5753
9500.000000	86.813210	163.8328
9620.000000	86.960838	156.2078
9750.000000	86.748642	148.7323
9880.000000	86.444580	143.0020
10000.000000	86.236488	138.5144
10150.000000	86.198830	132.5671
10300.000000	86.258423	124.4094
10440.000000	86.126106	114.2056
10600.000000	85.310555	100.2062
10750.000000	83.787537	88.4325
10900.000000	81.811424	80.3484
11060.000000	79.593979	75.8358
11200.000000	77.753738	74.9119
11380.000000	75.593086	76.2208
11500.000000	74.316780	78.5244
11720.000000	72.352669	86.8987
11800.000000	71.821495	90.8583
12060.000000	72.306885	94.2840
12200.000000	71.124153	90.9128
12410.000000	69.529739	94.9211
12500.000000	69.033760	98.0435
12650.000000	68.467636	102.2937
12800.000000	68.031075	107.5252
13150.000000	67.530281	118.4747
13200.000000	67.555359	120.4982
13400.000000	67.623192	126.5098
13600.000000	67.984421	132.2877
13800.000000	68.557564	137.9542
14000.000000	69.358437	142.5243
14300.000000	71.159500	148.0796
14500.000000	72.800201	150.3023
14750.000000	75.545593	149.4557
15000.000000	79.130104	140.5672
15250.000000	82.852341	117.1236
15500.000000	85.070389	77.9789
15750.000000	84.427666	30.8927
16000.000000	80.493324	-8.7162
16250.000000	75.335884	-31.0117
16500.000000	70.714630	-41.0411
16750.000000	66.871323	-45.0356
17000.000000	63.599159	-45.4915
17250.000000	60.854027	-45.8107
17500.000000	58.436150	-45.6008
17750.000000	56.722878	-45.3046
18000.000000	55.204460	-50.6703
18250.000000	54.341835	-58.0377
18500.000000	52.985035	-67.5223
18750.000000	52.552711	-75.8305
19000.000000	52.882591	-94.3640
19250.000000	52.803112	-109.5103
19500.000000	53.236763	-143.5892
19750.000000	52.422653	165.4286
