* Measurement data measured by REW V5.20 Beta 60
* Source: Headset (USB-C to 3.5mm Headphone Jack Adapter), MICROPHONE (Master Volume), R, volume: 0.258
* Format: 256k Log Swept Sine, 1 sweep at -12.0 dBFS with no timing reference
* Dated: Mar 8, 2021 5:10:54 PM
* REW Settings:
*  C-weighting compensation: Off
*  Target level: 75.0 dB
* Note: ; 
* Measurement: QDC 5SH R
* Smoothing: None
* Frequency Step: 1/48 octave
* Start Frequency: 20.000 Hz
*
* Freq(Hz)	SPL(dB)	Phase(degrees)
20.000000	88.746521	26.5830
20.299999	88.853844	25.9471
20.600000	88.944389	25.1403
20.900000	89.005028	24.2365
21.200001	89.034920	23.3217
21.400000	89.038452	22.7664
21.799999	89.018860	21.8607
22.000000	89.005104	21.5223
22.400000	88.991646	21.0261
22.700001	88.999283	20.7655
23.000000	89.025139	20.5077
23.299999	89.065277	20.1757
23.600000	89.108147	19.7551
24.000000	89.153519	19.0784
24.299999	89.173523	18.5418
24.700001	89.184158	17.8928
25.000000	89.189545	17.4896
25.400000	89.209396	17.0147
25.799999	89.243156	16.5149
26.200001	89.277016	15.8897
26.500000	89.289757	15.3627
26.900000	89.280365	14.7192
27.200001	89.262360	14.3687
27.600000	89.247803	14.1212
28.000000	89.266808	14.0069
28.500000	89.341370	13.6978
29.000000	89.419441	13.0258
29.500000	89.456039	12.1761
30.000000	89.455132	11.5017
30.400000	89.460373	11.1274
30.700001	89.477219	10.8784
31.100000	89.511589	10.4559
31.500000	89.540871	9.8827
32.000000	89.541000	9.1058
32.500000	89.507622	8.5173
33.000000	89.481514	8.2479
33.500000	89.497971	8.0958
34.000000	89.547707	7.7623
34.500000	89.591660	7.1432
35.000000	89.594078	6.4493
35.500000	89.567657	5.9510
36.000000	89.551796	5.6935
36.500000	89.565140	5.4492
37.000000	89.585190	5.0651
37.500000	89.588226	4.6315
38.200001	89.583252	4.2220
38.700001	89.601677	3.9365
39.500000	89.613609	3.1667
40.000000	89.578606	2.7908
40.599998	89.543839	2.6648
41.200001	89.555115	2.5233
41.799999	89.554520	2.1856
42.500000	89.526237	2.1446
43.099998	89.593948	2.3075
43.700001	89.720787	1.7022
44.400002	89.735199	0.1676
45.000000	89.615456	-0.6319
45.500000	89.541321	-0.6969
46.200001	89.534889	-0.7379
46.799999	89.543228	-1.0276
47.500000	89.574982	-1.2934
48.200001	89.657730	-2.0090
48.700001	89.668022	-2.9354
49.400002	89.567238	-3.8316
50.000000	89.510155	-3.8210
50.799999	89.580414	-4.0861
51.500000	89.599838	-4.9009
52.200001	89.563477	-5.3219
53.000000	89.599136	-5.5648
53.799999	89.634941	-6.3084
54.500000	89.602493	-6.8195
55.200001	89.594879	-6.9854
56.000000	89.636246	-7.4139
57.000000	89.600754	-8.4053
58.000000	89.492813	-8.6145
59.000000	89.506973	-8.5806
60.000000	89.517319	-9.1692
60.799999	89.494461	-9.5240
61.500000	89.496552	-9.8758
62.200001	89.483482	-10.3805
63.000000	89.440941	-10.8507
64.000000	89.383064	-11.2037
65.000000	89.366959	-11.1207
66.000000	89.458473	-11.4757
67.000000	89.439270	-12.4981
68.000000	89.367012	-12.6754
69.000000	89.387985	-12.8911
70.000000	89.381943	-13.3546
71.000000	89.380234	-13.8697
72.000000	89.337479	-14.4652
73.000000	89.302368	-14.7617
74.000000	89.297874	-15.1767
75.000000	89.279663	-15.6048
76.199997	89.278358	-16.0535
77.500000	89.255844	-16.6958
78.800003	89.224770	-17.0140
80.000000	89.206505	-17.5336
81.199997	89.159790	-17.7992
82.500000	89.148148	-18.3020
83.800003	89.114601	-18.6891
85.000000	89.109428	-19.2487
86.199997	89.068535	-19.6162
87.500000	89.064102	-20.0525
88.500000	89.024620	-20.3171
90.000000	89.030113	-20.6299
91.199997	88.984970	-21.1549
92.500000	88.952972	-21.5255
93.800003	88.902313	-22.0086
95.000000	88.885582	-22.3775
96.199997	88.846466	-22.8021
97.500000	88.841721	-23.0792
98.800003	88.825546	-23.5608
100.000000	88.791023	-23.9866
101.500000	88.728386	-24.2540
103.000000	88.718102	-24.5923
104.400002	88.678200	-25.1429
106.000000	88.646927	-25.4772
107.500000	88.612549	-25.9634
109.000000	88.587509	-26.3409
110.599998	88.539619	-26.7515
112.000000	88.503578	-27.1007
113.800003	88.447357	-27.5611
115.000000	88.440620	-27.6381
117.199997	88.321709	-28.3504
118.000000	88.357338	-28.0626
120.599998	88.275215	-29.2689
122.000000	88.292091	-29.3553
124.099998	88.231544	-30.0447
125.000000	88.206863	-30.1847
126.500000	88.186691	-30.5667
128.000000	88.130669	-30.9300
131.500000	88.066116	-31.4713
132.000000	88.067482	-31.5461
134.000000	88.013268	-32.2214
136.000000	87.977097	-32.6318
138.000000	87.927109	-33.0932
140.000000	87.907578	-33.4523
143.000000	87.819595	-33.8445
145.000000	87.893715	-33.6133
147.500000	87.713402	-34.5840
150.000000	87.660324	-35.6035
152.500000	87.631439	-35.8523
155.000000	87.562447	-36.0760
157.500000	87.463371	-36.8314
160.000000	87.419701	-37.4259
162.500000	87.406464	-37.6996
165.000000	87.316513	-37.9713
167.500000	87.191788	-39.2005
170.000000	87.222305	-39.0497
172.500000	87.197357	-39.4368
175.000000	87.128540	-39.7811
177.500000	87.072166	-40.1315
180.000000	86.981735	-40.5310
182.500000	86.944084	-40.8693
185.000000	86.901299	-41.1824
187.500000	86.813103	-41.6370
190.000000	86.763748	-41.5992
192.500000	86.643562	-42.0986
195.000000	86.611755	-42.5625
197.500000	86.541183	-42.7127
200.000000	86.537491	-43.1819
203.000000	86.437813	-43.8395
206.000000	86.379784	-43.9561
209.000000	86.308022	-44.1909
212.000000	86.281273	-44.6317
214.000000	86.176559	-44.9233
218.000000	86.121933	-45.3558
220.000000	86.078690	-45.4477
224.000000	86.033913	-45.6780
227.000000	85.967430	-46.1958
230.000000	85.933235	-46.5649
233.000000	85.852867	-47.0091
236.000000	85.831947	-47.0190
240.000000	85.725464	-47.5158
243.000000	85.708786	-47.8582
247.000000	85.620216	-48.0290
250.000000	85.592056	-48.4979
254.000000	85.486969	-48.7008
258.000000	85.415237	-49.0343
262.000000	85.380234	-49.2522
265.000000	85.284996	-49.6340
269.000000	85.230820	-49.8144
272.000000	85.156036	-50.1292
276.000000	85.164948	-50.4213
280.000000	85.057030	-50.7036
285.000000	84.979576	-50.8851
290.000000	84.898582	-51.2423
295.000000	84.821808	-51.4159
300.000000	84.723953	-51.8517
304.000000	84.687279	-51.9580
307.000000	84.653107	-52.1804
311.000000	84.580505	-52.3284
315.000000	84.560715	-52.4835
320.000000	84.484360	-52.7986
325.000000	84.412453	-53.1089
330.000000	84.361572	-53.2766
335.000000	84.318375	-53.3260
340.000000	84.257927	-53.4490
345.000000	84.189835	-53.7977
350.000000	84.130196	-53.9631
355.000000	84.068062	-54.1119
360.000000	84.003342	-54.3364
365.000000	83.951385	-54.2844
370.000000	83.894554	-54.5791
375.000000	83.880249	-54.7667
382.000000	83.782539	-55.0177
387.000000	83.773582	-55.0097
395.000000	83.684097	-55.2709
400.000000	83.681709	-55.4343
406.000000	83.600571	-55.4572
412.000000	83.570000	-55.5436
418.000000	83.517395	-55.6788
425.000000	83.481155	-55.7265
431.000000	83.444954	-55.8115
437.000000	83.410736	-55.9100
444.000000	83.383392	-55.9472
450.000000	83.360184	-55.9761
455.000000	83.347740	-56.0303
462.000000	83.321793	-56.1575
468.000000	83.299301	-56.3015
475.000000	83.252716	-56.3480
482.000000	83.248016	-56.5184
487.000000	83.196640	-56.5733
494.000000	83.223724	-56.7433
500.000000	83.221489	-56.9458
508.000000	83.204216	-56.6012
515.000000	83.190369	-56.6354
522.000000	83.178932	-56.6459
530.000000	83.176239	-56.6488
538.000000	83.164993	-56.7083
545.000000	83.172035	-56.6799
552.000000	83.170166	-56.6307
560.000000	83.188034	-56.6831
570.000000	83.193420	-56.6922
580.000000	83.214737	-56.6124
590.000000	83.230545	-56.6847
600.000000	83.308037	-56.5469
608.000000	83.286446	-56.6560
615.000000	83.310730	-56.6401
622.000000	83.337891	-56.6659
630.000000	83.382767	-56.6770
640.000000	83.418480	-56.7265
650.000000	83.468872	-56.7913
660.000000	83.522171	-56.8682
670.000000	83.582672	-56.9466
680.000000	83.638870	-57.0458
690.000000	83.687462	-57.1413
700.000000	83.700943	-57.3329
710.000000	83.799393	-57.2957
720.000000	83.846863	-57.4555
730.000000	83.906387	-57.6424
740.000000	83.973381	-57.7902
750.000000	84.038521	-57.9755
762.000000	84.107620	-58.2345
775.000000	84.183037	-58.5268
788.000000	84.253624	-58.8454
800.000000	84.324753	-58.8409
812.000000	84.379654	-59.4819
825.000000	84.455688	-59.8461
838.000000	84.514000	-60.2440
850.000000	84.563560	-60.5742
862.000000	84.619202	-60.9300
875.000000	84.671532	-61.3260
885.000000	84.716125	-61.6331
900.000000	84.788139	-61.8774
912.000000	84.810440	-62.4573
925.000000	84.857918	-62.8703
938.000000	84.899513	-63.2474
950.000000	84.931313	-63.6473
962.000000	84.969505	-63.9674
975.000000	84.991898	-64.2874
988.000000	85.039566	-64.6269
1000.000000	85.114418	-65.0660
1015.000000	85.079048	-65.4122
1030.000000	85.088318	-65.8101
1044.000000	85.105301	-66.1703
1060.000000	85.126709	-66.5472
1075.000000	85.140289	-66.9231
1090.000000	85.167099	-67.2590
1106.000000	85.189491	-67.6686
1120.000000	85.207222	-67.9812
1138.000000	85.229202	-68.4050
1150.000000	85.237297	-68.6818
1172.000000	85.252617	-69.1203
1180.000000	85.256493	-69.2847
1206.000000	85.259155	-69.8347
1220.000000	85.270721	-70.0249
1241.000000	85.268860	-70.3870
1250.000000	85.269211	-70.5235
1265.000000	85.262192	-70.7159
1280.000000	85.260666	-70.8568
1315.000000	85.252174	-71.0974
1320.000000	85.253677	-71.1107
1340.000000	85.249199	-71.2333
1360.000000	85.249504	-71.3375
1380.000000	85.227715	-71.3623
1400.000000	85.182777	-71.4738
1430.000000	85.190376	-71.2036
1450.000000	85.180481	-70.9883
1475.000000	85.165001	-70.7114
1500.000000	85.164604	-70.1112
1525.000000	85.153595	-69.8906
1550.000000	85.164185	-69.4142
1575.000000	85.180679	-68.8853
1600.000000	85.227562	-68.0644
1625.000000	85.253685	-67.6917
1650.000000	85.292030	-67.0262
1675.000000	85.354622	-66.3441
1700.000000	85.406105	-65.4978
1725.000000	85.489265	-65.0211
1750.000000	85.569946	-64.3384
1775.000000	85.660889	-63.6787
1800.000000	85.734192	-62.8496
1825.000000	85.860741	-62.3267
1850.000000	85.975800	-61.7029
1875.000000	86.093826	-61.0603
1900.000000	86.233948	-60.2803
1925.000000	86.360352	-59.8555
1950.000000	86.503494	-59.3483
1975.000000	86.641457	-58.9069
2000.000000	86.731194	-58.8673
2030.000000	87.003273	-57.9401
2060.000000	87.227608	-57.5318
2090.000000	87.439857	-57.2843
2120.000000	87.666382	-57.1289
2140.000000	87.820694	-57.1075
2180.000000	88.131981	-57.1986
2200.000000	88.301506	-57.3472
2240.000000	88.606773	-58.0808
2270.000000	88.823654	-58.9941
2300.000000	89.026779	-60.3807
2330.000000	89.240074	-61.8674
2360.000000	89.415901	-63.4778
2400.000000	89.624458	-65.6831
2430.000000	89.768517	-67.2807
2470.000000	89.902702	-69.5169
2500.000000	89.947647	-71.3697
2540.000000	89.945175	-73.9198
2580.000000	89.861290	-76.5208
2620.000000	89.689835	-78.9383
2650.000000	89.515175	-80.6725
2690.000000	89.225372	-82.6391
2720.000000	88.962128	-83.9071
2760.000000	88.571030	-85.2502
2800.000000	88.133011	-86.0800
2850.000000	87.544327	-86.5403
2900.000000	86.934227	-86.1769
2950.000000	86.340988	-84.8555
3000.000000	85.785652	-82.3864
3040.000000	85.357765	-80.2620
3070.000000	85.096466	-78.0814
3110.000000	84.832298	-74.5692
3150.000000	84.699371	-70.8947
3200.000000	84.771217	-65.9482
3250.000000	85.051285	-62.0956
3300.000000	85.511139	-59.6686
3350.000000	85.889915	-59.0906
3400.000000	86.144699	-59.4918
3450.000000	86.326546	-60.0101
3500.000000	86.381516	-60.9143
3550.000000	86.342720	-61.5270
3600.000000	86.220734	-61.8788
3650.000000	85.975082	-61.9361
3700.000000	85.715538	-61.0592
3750.000000	85.416603	-59.0426
3820.000000	85.291969	-55.0477
3870.000000	85.359856	-52.3154
3950.000000	85.610413	-48.9745
4000.000000	85.748810	-47.3695
4060.000000	86.017151	-45.6479
4120.000000	86.261246	-44.2374
4180.000000	86.516289	-43.0711
4250.000000	86.882515	-41.7965
4310.000000	87.212952	-41.1812
4370.000000	87.590820	-40.9437
4440.000000	88.081795	-41.3646
4500.000000	88.516792	-42.5035
4550.000000	88.869598	-44.2904
4620.000000	89.293098	-47.7731
4680.000000	89.554001	-51.8934
4750.000000	89.642738	-57.9358
4820.000000	89.387634	-64.8246
4870.000000	88.957367	-69.6914
4940.000000	88.026733	-75.4596
5000.000000	87.009277	-78.9905
5080.000000	85.478470	-80.9491
5150.000000	84.093979	-80.3361
5220.000000	82.758415	-77.7469
5300.000000	81.341522	-72.9461
5380.000000	80.120316	-65.9098
5450.000000	79.215874	-58.6352
5520.000000	78.468239	-50.3562
5600.000000	77.896484	-40.0927
5700.000000	77.646011	-27.2193
5800.000000	77.709450	-14.6856
5900.000000	78.234077	-3.2460
6000.000000	78.998444	7.1646
6080.000000	79.747513	14.2719
6150.000000	80.492683	19.7044
6220.000000	81.355270	24.3401
6300.000000	82.348854	28.5105
6400.000000	83.716408	32.6571
6500.000000	85.069855	34.5894
6600.000000	86.428185	34.5194
6700.000000	87.677673	32.6370
6800.000000	88.698944	28.8061
6900.000000	89.422714	24.0945
7000.000000	89.861511	19.2058
7100.000000	90.072891	14.3929
7200.000000	89.820374	11.9535
7300.000000	89.879326	10.9753
7400.000000	89.960686	10.3677
7500.000000	90.094566	10.0774
7620.000000	90.363968	10.0110
7750.000000	90.789886	9.5772
7880.000000	91.307922	7.9145
8000.000000	91.817001	4.8506
8120.000000	92.223541	-0.0099
8250.000000	92.352608	-7.1333
8380.000000	92.003387	-14.6576
8500.000000	91.302094	-20.5245
8620.000000	90.369972	-24.3651
8750.000000	89.260368	-26.2708
8850.000000	88.436935	-26.4032
9000.000000	87.316040	-24.9640
9120.000000	86.588875	-22.9377
9250.000000	85.969482	-20.3217
9380.000000	85.437469	-17.8867
9500.000000	85.052315	-15.5159
9620.000000	84.645409	-13.0815
9750.000000	84.355629	-9.9606
9880.000000	84.266533	-6.9246
10000.000000	84.346436	-4.8130
10150.000000	84.688278	-3.8460
10300.000000	85.113106	-6.1923
10440.000000	85.329079	-12.2208
10600.000000	84.710510	-22.6773
10750.000000	83.017395	-31.2934
10900.000000	80.637085	-34.1394
11060.000000	77.970757	-29.7726
11200.000000	75.891670	-20.7463
11380.000000	74.338356	-4.2893
11500.000000	73.745255	8.8741
11720.000000	74.433922	30.4515
11800.000000	74.991875	35.9183
12060.000000	77.255966	44.7296
12200.000000	77.683434	44.5463
12410.000000	78.963120	49.8488
12500.000000	79.608047	49.6273
12650.000000	80.457443	47.4653
12800.000000	81.049026	44.1841
13150.000000	81.427742	37.7996
13200.000000	81.443985	37.2711
13400.000000	81.539276	36.1383
13600.000000	81.798302	35.6631
13800.000000	82.286057	34.5133
14000.000000	82.924492	31.9144
14300.000000	84.011497	23.1125
14500.000000	84.446915	13.1710
14750.000000	83.992203	-1.5892
15000.000000	82.635368	-12.7473
15250.000000	81.084015	-18.9422
15500.000000	79.723885	-21.3616
15750.000000	78.780304	-21.9236
16000.000000	78.325386	-21.6941
16250.000000	78.325394	-22.2267
16500.000000	78.821365	-25.1934
16750.000000	79.844978	-32.6461
17000.000000	80.921043	-47.1661
17250.000000	81.324608	-69.7858
17500.000000	80.044296	-94.3720
17750.000000	77.699593	-114.4345
18000.000000	75.351898	-130.5285
18250.000000	73.356445	-143.8944
18500.000000	71.878914	-156.1374
18750.000000	70.846367	-166.0000
19000.000000	70.288635	-176.8942
19250.000000	70.069153	171.9250
19500.000000	69.976944	156.1023
19750.000000	70.489281	134.8832
