* Measurement data measured by REW V5.20 Beta 60
* Source: In 1-2 (MOTU M Series), LINE_IN (Master Volume), L, volume: 0.250
* Format: 256k Log Swept Sine, 1 sweep at -10.0 dBFS with no timing reference
* Dated: Apr 2, 2022 3:46:50 PM
* REW Settings:
*  C-weighting compensation: Off
*  Target level: 75.0 dB
* Note: ; 
* Measurement: qdc 8SH L
* Smoothing: None
* Frequency Step: 1/48 octave
* Start Frequency: 20.000 Hz
*
* Freq(Hz) SPL(dB) Phase(degrees)
20.000000	83.971	74.0167
20.299999	84.007	72.4716
20.600000	84.016	71.1891
20.900000	84.024	70.2825
21.200001	84.070	69.7310
21.400000	84.140	69.4207
21.799999	84.363	68.5684
22.000000	84.498	67.8652
22.400000	84.744	65.7484
22.700001	84.851	63.7225
23.000000	84.860	61.6738
23.299999	84.785	59.9735
23.600000	84.667	58.8514
24.000000	84.538	58.3008
24.299999	84.522	58.2709
24.700001	84.618	58.0663
25.000000	84.728	57.4552
25.400000	84.840	56.0485
25.799999	84.860	54.4528
26.200001	84.815	53.1868
26.500000	84.783	52.5397
26.900000	84.786	51.8803
27.200001	84.822	51.3094
27.600000	84.884	50.2762
28.000000	84.921	49.0411
28.500000	84.927	47.6107
29.000000	84.947	46.4611
29.500000	85.009	45.2846
30.000000	85.069	43.8574
30.400000	85.085	42.6999
30.700001	85.081	41.9578
31.100000	85.083	41.1859
31.500000	85.109	40.5414
32.000000	85.171	39.6370
32.500000	85.219	38.5672
33.000000	85.231	37.5924
33.500000	85.241	36.8705
34.000000	85.281	36.2121
34.500000	85.332	35.3557
35.000000	85.355	34.3302
35.500000	85.341	33.3820
36.000000	85.321	32.6370
36.500000	85.322	31.9823
37.000000	85.340	31.2486
37.500000	85.359	30.4061
38.200001	85.373	29.1653
38.700001	85.378	28.2812
39.500000	85.375	26.9291
40.000000	85.370	26.1970
40.599998	85.378	25.4314
41.200001	85.403	24.6744
41.799999	85.430	23.8737
42.500000	85.452	22.9517
43.099998	85.468	22.2034
43.700001	85.482	21.4577
44.400002	85.492	20.5707
45.000000	85.491	19.8209
45.500000	85.486	19.2259
46.200001	85.483	18.4163
46.799999	85.482	17.6733
47.500000	85.461	16.8056
48.200001	85.436	16.1977
48.700001	85.451	15.8723
49.400002	85.517	15.1182
50.000000	85.541	14.1406
50.799999	85.502	13.1439
51.500000	85.512	12.6703
52.200001	85.564	11.8682
53.000000	85.558	10.7280
53.799999	85.538	9.9193
54.500000	85.532	9.0709
55.200001	85.473	8.3355
56.000000	85.461	8.1130
57.000000	85.569	6.7408
58.000000	85.401	5.2887
59.000000	85.405	5.7563
60.000000	85.554	4.2538
60.799999	85.435	3.1349
61.500000	85.373	3.1915
62.200001	85.421	2.9913
63.000000	85.431	2.1840
64.000000	85.387	1.5714
65.000000	85.406	0.9041
66.000000	85.404	-0.1585
67.000000	85.346	-1.1027
68.000000	85.325	-1.5715
69.000000	85.361	-2.3352
70.000000	85.340	-3.0833
71.000000	85.341	-3.4680
72.000000	85.360	-3.9988
73.000000	85.332	-4.6140
74.000000	85.284	-4.7527
75.000000	85.359	-5.1008
76.199997	85.324	-6.7144
77.500000	85.226	-7.5056
78.800003	85.157	-8.5886
80.000000	85.157	-9.1202
81.199997	85.136	-10.3016
82.500000	85.133	-10.4772
83.800003	85.199	-11.8023
85.000000	85.102	-12.4181
86.199997	85.042	-12.7973
87.500000	85.029	-13.1469
88.500000	84.862	-13.9481
90.000000	84.982	-12.2368
91.199997	85.099	-15.5745
92.500000	84.784	-15.8210
93.800003	84.892	-16.5220
95.000000	84.831	-17.5032
96.199997	84.792	-17.8826
97.500000	84.795	-18.4861
98.800003	84.729	-18.8641
100.000000	84.739	-19.4233
101.500000	84.672	-20.1968
103.000000	84.637	-21.0929
104.400002	84.615	-21.7313
106.000000	84.586	-22.5036
107.500000	84.557	-23.2242
109.000000	84.506	-23.6237
110.599998	84.474	-24.3845
112.000000	84.442	-24.8879
113.800003	84.370	-25.8029
115.000000	84.359	-26.0358
117.199997	84.306	-26.9923
118.000000	84.302	-27.0815
120.599998	84.224	-28.3900
122.000000	84.197	-28.8107
124.099998	84.142	-29.5657
125.000000	84.133	-29.8834
126.500000	84.090	-30.3651
128.000000	84.054	-30.8377
131.500000	84.007	-31.9518
132.000000	84.000	-32.2629
134.000000	83.982	-33.1559
136.000000	83.898	-33.5973
138.000000	83.840	-34.1085
140.000000	83.767	-34.4935
143.000000	83.707	-35.8387
145.000000	83.660	-36.4523
147.500000	83.613	-37.0159
150.000000	83.471	-37.7995
152.500000	83.460	-38.2997
155.000000	83.377	-39.4744
157.500000	83.313	-39.9269
160.000000	83.272	-41.3079
162.500000	83.294	-41.1801
165.000000	83.324	-41.8894
167.500000	83.196	-41.8743
170.000000	83.108	-42.7778
172.500000	82.836	-44.3407
175.000000	82.832	-43.8391
177.500000	83.097	-45.3215
180.000000	82.912	-44.0408
182.500000	82.667	-44.3548
185.000000	82.882	-47.0308
187.500000	82.502	-47.6573
190.000000	82.682	-47.6879
192.500000	82.555	-48.1572
195.000000	82.403	-48.6029
197.500000	82.445	-49.3068
200.000000	82.450	-49.8701
203.000000	82.357	-50.6699
206.000000	82.266	-50.8596
209.000000	82.152	-51.1871
212.000000	82.130	-52.1194
214.000000	82.104	-52.2341
218.000000	82.035	-53.1192
220.000000	81.947	-53.2949
224.000000	81.920	-54.1569
227.000000	81.816	-54.1453
230.000000	81.727	-55.5577
233.000000	81.822	-55.0710
236.000000	81.594	-56.0300
240.000000	81.634	-56.5848
243.000000	81.476	-56.9697
247.000000	81.483	-57.8070
250.000000	81.379	-58.1048
254.000000	81.378	-58.2545
258.000000	81.262	-59.0707
262.000000	81.192	-59.5406
265.000000	81.150	-59.9495
269.000000	81.039	-60.1592
272.000000	81.031	-60.5225
276.000000	80.951	-61.3007
280.000000	80.909	-61.6539
285.000000	80.832	-62.1694
290.000000	80.758	-62.9198
295.000000	80.645	-63.3938
300.000000	80.608	-63.7525
304.000000	80.596	-64.1866
307.000000	80.503	-64.4895
311.000000	80.466	-64.7070
315.000000	80.351	-65.0046
320.000000	80.300	-65.4965
325.000000	80.278	-66.1257
330.000000	80.240	-66.4642
335.000000	80.188	-66.8087
340.000000	80.120	-66.7997
345.000000	79.981	-67.2308
350.000000	79.945	-67.8728
355.000000	79.874	-68.0467
360.000000	79.904	-69.2824
365.000000	79.987	-68.4041
370.000000	79.733	-68.8897
375.000000	79.661	-69.1318
382.000000	79.710	-69.2977
387.000000	79.729	-69.6154
395.000000	79.543	-70.7053
400.000000	79.641	-71.3104
406.000000	79.414	-71.3675
412.000000	79.383	-71.1434
418.000000	79.523	-70.6979
425.000000	79.481	-71.3615
431.000000	79.432	-72.7117
437.000000	79.366	-71.9811
444.000000	79.223	-72.6533
450.000000	79.293	-71.9857
455.000000	79.340	-72.5023
462.000000	79.203	-73.1872
468.000000	79.196	-72.8126
475.000000	79.290	-73.0983
482.000000	79.255	-73.8483
487.000000	79.294	-73.6460
494.000000	79.261	-74.0563
500.000000	79.242	-73.9095
508.000000	79.197	-74.1699
515.000000	79.183	-74.0760
522.000000	79.189	-73.9476
530.000000	79.241	-73.9194
538.000000	79.260	-74.0570
545.000000	79.272	-74.0100
552.000000	79.231	-74.2378
560.000000	79.298	-74.9931
570.000000	79.336	-75.0618
580.000000	79.439	-75.4517
590.000000	79.506	-75.0836
600.000000	79.511	-74.7506
608.000000	79.506	-75.2615
615.000000	79.531	-75.1186
622.000000	79.611	-75.1592
630.000000	79.640	-75.3235
640.000000	79.758	-75.5661
650.000000	79.813	-75.6365
660.000000	79.892	-75.6190
670.000000	79.986	-75.6860
680.000000	80.076	-75.8693
690.000000	80.169	-75.9957
700.000000	80.267	-76.1575
710.000000	80.375	-76.3858
720.000000	80.492	-76.4757
730.000000	80.587	-76.6689
740.000000	80.705	-76.8269
750.000000	80.816	-77.0822
762.000000	80.965	-77.3463
775.000000	81.121	-77.6433
788.000000	81.274	-77.8899
800.000000	81.433	-78.2679
812.000000	81.601	-78.6459
825.000000	81.762	-79.0836
838.000000	81.938	-79.5352
850.000000	82.103	-79.9509
862.000000	82.284	-80.5256
875.000000	82.459	-81.1091
885.000000	82.608	-81.5631
900.000000	82.816	-82.3023
912.000000	82.983	-83.0159
925.000000	83.176	-83.7273
938.000000	83.351	-84.4901
950.000000	83.530	-85.2344
962.000000	83.703	-86.1063
975.000000	83.878	-87.0052
988.000000	84.049	-87.9751
1000.000000	84.205	-88.8483
1015.000000	84.397	-90.0620
1030.000000	84.584	-91.3322
1044.000000	84.756	-92.5557
1060.000000	84.935	-93.9891
1075.000000	85.099	-95.3519
1090.000000	85.243	-96.7717
1106.000000	85.388	-98.3245
1120.000000	85.507	-99.6930
1138.000000	85.647	-101.4824
1150.000000	85.732	-102.6641
1172.000000	85.862	-104.8701
1180.000000	85.902	-105.6805
1206.000000	86.012	-108.2195
1220.000000	86.065	-109.5801
1241.000000	86.118	-111.6010
1250.000000	86.140	-112.4393
1265.000000	86.161	-113.7987
1280.000000	86.172	-115.1216
1315.000000	86.174	-118.0596
1320.000000	86.171	-118.4344
1340.000000	86.151	-120.0135
1360.000000	86.126	-121.4669
1380.000000	86.094	-122.8591
1400.000000	86.047	-124.1340
1430.000000	85.980	-125.9639
1450.000000	85.935	-127.0599
1475.000000	85.872	-128.2958
1500.000000	85.806	-129.4716
1525.000000	85.741	-130.4993
1550.000000	85.678	-131.4146
1575.000000	85.617	-132.2806
1600.000000	85.571	-133.0739
1625.000000	85.522	-133.7629
1650.000000	85.477	-134.4111
1675.000000	85.439	-134.9650
1700.000000	85.391	-135.5175
1725.000000	85.369	-136.0142
1750.000000	85.343	-136.4557
1775.000000	85.323	-136.8823
1800.000000	85.313	-137.2479
1825.000000	85.303	-137.6327
1850.000000	85.303	-138.0057
1875.000000	85.309	-138.3271
1900.000000	85.320	-138.6683
1925.000000	85.336	-138.9674
1950.000000	85.355	-139.2675
1975.000000	85.379	-139.5974
2000.000000	85.410	-139.9119
2030.000000	85.445	-140.3140
2060.000000	85.494	-140.7460
2090.000000	85.545	-141.1659
2120.000000	85.598	-141.6617
2140.000000	85.637	-141.9872
2180.000000	85.714	-142.6616
2200.000000	85.752	-143.0286
2240.000000	85.834	-143.7882
2270.000000	85.898	-144.4292
2300.000000	85.953	-145.0377
2330.000000	86.014	-145.7529
2360.000000	86.066	-146.4937
2400.000000	86.130	-147.4807
2430.000000	86.173	-148.2500
2470.000000	86.217	-149.3381
2500.000000	86.245	-150.1608
2540.000000	86.269	-151.2946
2580.000000	86.282	-152.4103
2620.000000	86.274	-153.5032
2650.000000	86.258	-154.2875
2690.000000	86.226	-155.3252
2720.000000	86.196	-156.0386
2760.000000	86.138	-156.9554
2800.000000	86.070	-157.7048
2850.000000	85.973	-158.4627
2900.000000	85.882	-159.0360
2950.000000	85.792	-159.4067
3000.000000	85.720	-159.5093
3040.000000	85.680	-159.4533
3070.000000	85.668	-159.3456
3110.000000	85.672	-159.2467
3150.000000	85.712	-159.1648
3200.000000	85.784	-159.1746
3250.000000	85.879	-159.4188
3300.000000	85.967	-159.9018
3350.000000	86.037	-160.5280
3400.000000	86.094	-161.2050
3450.000000	86.131	-161.9122
3500.000000	86.156	-162.5319
3550.000000	86.165	-163.1082
3600.000000	86.181	-163.5966
3650.000000	86.188	-164.0358
3700.000000	86.216	-164.3817
3750.000000	86.249	-164.6544
3820.000000	86.320	-164.9770
3870.000000	86.410	-165.2646
3950.000000	86.585	-165.9349
4000.000000	86.716	-166.5566
4060.000000	86.878	-167.5374
4120.000000	87.048	-168.8954
4180.000000	87.197	-170.5589
4250.000000	87.358	-172.8311
4310.000000	87.448	-175.1961
4370.000000	87.489	-177.8472
4440.000000	87.447	178.7705
4500.000000	87.322	175.7397
4550.000000	87.157	173.1915
4620.000000	86.811	169.7929
4680.000000	86.425	167.2490
4750.000000	85.873	164.7609
4820.000000	85.265	162.9869
4870.000000	84.794	162.1899
4940.000000	84.122	161.7849
5000.000000	83.536	162.0930
5080.000000	82.769	163.3471
5150.000000	82.159	165.1520
5220.000000	81.587	167.5121
5300.000000	80.979	170.9078
5380.000000	80.550	174.9214
5450.000000	80.208	178.8209
5520.000000	79.985	-176.8946
5600.000000	79.789	-171.8156
5700.000000	79.834	-165.2346
5800.000000	80.042	-159.0779
5900.000000	80.445	-153.0262
6000.000000	81.071	-148.2665
6080.000000	81.583	-145.0944
6150.000000	82.154	-142.4066
6220.000000	82.746	-140.9341
6300.000000	83.476	-139.9444
6400.000000	84.336	-139.8824
6500.000000	85.137	-141.3059
6600.000000	85.794	-143.9654
6700.000000	86.292	-147.2527
6800.000000	86.506	-151.3853
6900.000000	86.485	-154.1141
7000.000000	86.437	-156.1150
7100.000000	86.342	-157.3661
7200.000000	86.231	-157.8763
7300.000000	86.181	-157.8788
7400.000000	86.199	-157.3672
7500.000000	86.336	-156.8844
7620.000000	86.585	-155.9207
7750.000000	87.060	-155.2502
7880.000000	87.673	-155.2838
8000.000000	88.341	-157.4599
8120.000000	89.084	-161.1042
8250.000000	89.722	-167.7094
8380.000000	90.023	-176.5555
8500.000000	89.757	174.7405
8620.000000	89.083	167.1017
8750.000000	88.026	161.3567
8850.000000	87.126	158.7773
9000.000000	85.898	157.4371
9120.000000	85.001	158.0464
9250.000000	84.190	159.8556
9380.000000	83.602	161.7390
9500.000000	83.107	163.8104
9620.000000	82.763	165.9122
9750.000000	82.476	168.4629
9880.000000	82.384	170.9443
10000.000000	82.485	172.2670
10150.000000	82.700	171.7614
10300.000000	82.785	168.3401
10440.000000	82.410	163.3930
10600.000000	81.284	158.7464
10750.000000	79.876	158.2725
10900.000000	78.563	161.4721
11060.000000	77.478	167.4023
11200.000000	76.834	173.6417
11380.000000	76.392	-178.1796
11500.000000	76.289	-173.0393
11720.000000	76.371	-163.9168
11800.000000	76.509	-161.0319
12060.000000	77.154	-153.8221
12200.000000	77.605	-151.2017
12410.000000	78.161	-147.9109
12500.000000	78.486	-146.6102
12650.000000	79.158	-145.5187
12800.000000	79.850	-146.3906
13150.000000	80.856	-152.9951
13200.000000	80.904	-154.1750
13400.000000	80.968	-158.4883
13600.000000	80.861	-162.2767
13800.000000	80.644	-165.8091
14000.000000	80.198	-168.1520
14300.000000	80.081	-167.5114
14500.000000	80.421	-169.7038
14750.000000	80.493	-174.8812
15000.000000	80.711	-179.6071
15250.000000	81.029	170.2717
15500.000000	80.326	156.2611
15750.000000	78.574	145.2499
16000.000000	76.510	140.1525
16250.000000	74.591	139.1146
16500.000000	72.972	140.6460
16750.000000	71.719	143.8629
17000.000000	70.737	147.2273
17250.000000	70.033	150.9642
17500.000000	69.637	154.6232
17750.000000	69.546	157.0736
18000.000000	69.715	158.9625
18250.000000	70.274	159.1456
18500.000000	71.325	155.6785
18750.000000	72.135	144.9289
19000.000000	72.050	131.1692
19250.000000	71.256	119.4725
19500.000000	70.200	110.5577
19750.000000	69.290	103.6419
