* Measurement data measured by REW V5.20 Beta 60
* Source: Headset (USB-C to 3.5mm Headphone Jack Adapter), MICROPHONE (Master Volume), R, volume: 0.258
* Format: 256k Log Swept Sine, 1 sweep at -12.0 dBFS with no timing reference
* Dated: Mar 8, 2021 4:56:15 PM
* REW Settings:
*  C-weighting compensation: Off
*  Target level: 75.0 dB
* Note: ; 
* Measurement: QDC 10SE L
* Smoothing: None
* Frequency Step: 1/48 octave
* Start Frequency: 20.000 Hz
*
* Freq(Hz)	SPL(dB)	Phase(degrees)
20.000000	89.530014	-11.0650
20.299999	89.539375	-11.6467
20.600000	89.515678	-12.1943
20.900000	89.463768	-12.5870
21.200001	89.404617	-12.7621
21.400000	89.371384	-12.7631
21.799999	89.333145	-12.5942
22.000000	89.331779	-12.5013
22.400000	89.359192	-12.4719
22.700001	89.384583	-12.5991
23.000000	89.400139	-12.8230
23.299999	89.405121	-13.0858
23.600000	89.400620	-13.3351
24.000000	89.387169	-13.6254
24.299999	89.376892	-13.8407
24.700001	89.359604	-14.1450
25.000000	89.339607	-14.3698
25.400000	89.306244	-14.6168
25.799999	89.274391	-14.7297
26.200001	89.263062	-14.7690
26.500000	89.271683	-14.8350
26.900000	89.294037	-15.0419
27.200001	89.308151	-15.2993
27.600000	89.313080	-15.7105
28.000000	89.300858	-16.0869
28.500000	89.285385	-16.4619
29.000000	89.283775	-16.8314
29.500000	89.281349	-17.3301
30.000000	89.246796	-17.8410
30.400000	89.201035	-18.1033
30.700001	89.167908	-18.1576
31.100000	89.146263	-18.1101
31.500000	89.158188	-18.0919
32.000000	89.194702	-18.3412
32.500000	89.202522	-18.9272
33.000000	89.141525	-19.4955
33.500000	89.036407	-19.6399
34.000000	88.964859	-19.2590
34.500000	88.989449	-18.8184
35.000000	89.074341	-18.8645
35.500000	89.128395	-19.4990
36.000000	89.098679	-20.2567
36.500000	89.019409	-20.6828
37.000000	88.965935	-20.7660
37.500000	88.962341	-20.9166
38.200001	88.944817	-21.5650
38.700001	88.884949	-21.9783
39.500000	88.826012	-22.1019
40.000000	88.841110	-22.2946
40.599998	88.838242	-22.8918
41.200001	88.775551	-23.3619
41.799999	88.722702	-23.4062
42.500000	88.730370	-23.4289
43.099998	88.737366	-23.7304
43.700001	88.715225	-23.9662
44.400002	88.709862	-24.0393
45.000000	88.734024	-24.3064
45.500000	88.728302	-24.7475
46.200001	88.651840	-25.1981
46.799999	88.592545	-25.1308
47.500000	88.616547	-25.1283
48.200001	88.637672	-25.9342
48.700001	88.563065	-26.7022
49.400002	88.368713	-26.9441
50.000000	88.288361	-26.2830
50.799999	88.396179	-25.9822
51.500000	88.461304	-26.8490
52.200001	88.406197	-27.6361
53.000000	88.355370	-27.9542
53.799999	88.337242	-28.4255
54.500000	88.282242	-28.7881
55.200001	88.237778	-28.9039
56.000000	88.201134	-29.0645
57.000000	88.152763	-29.0475
58.000000	88.173737	-29.2609
59.000000	88.130699	-29.9096
60.000000	88.052132	-30.2382
60.799999	88.009438	-30.2346
61.500000	88.045601	-30.3395
62.200001	88.062584	-31.1683
63.000000	87.898926	-31.8323
64.000000	87.843346	-30.6213
65.000000	88.039772	-31.3807
66.000000	87.891602	-32.5154
67.000000	87.859734	-32.3144
68.000000	87.800331	-33.3244
69.000000	87.633369	-33.2626
70.000000	87.624489	-33.2436
71.000000	87.553078	-33.7026
72.000000	87.498642	-33.8122
73.000000	87.461342	-34.1308
74.000000	87.430252	-34.3714
75.000000	87.401100	-34.8926
76.199997	87.307625	-35.1356
77.500000	87.301849	-35.4186
78.800003	87.223228	-35.8965
80.000000	87.174995	-36.1213
81.199997	87.128052	-36.4014
82.500000	87.065369	-36.8650
83.800003	86.998497	-37.0163
85.000000	86.968521	-37.3699
86.199997	86.917366	-37.6224
87.500000	86.900558	-37.9891
88.500000	86.851074	-38.4371
90.000000	86.755684	-38.6211
91.199997	86.697693	-38.7728
92.500000	86.651291	-38.8789
93.800003	86.593216	-39.2927
95.000000	86.523300	-39.5736
96.199997	86.445747	-39.7608
97.500000	86.427101	-39.9009
98.800003	86.356407	-40.3483
100.000000	86.331360	-40.3896
101.500000	86.260925	-40.9753
103.000000	86.191666	-41.1354
104.400002	86.129478	-41.4174
106.000000	86.065201	-41.7347
107.500000	86.013855	-41.9867
109.000000	85.953979	-42.2451
110.599998	85.898209	-42.4678
112.000000	85.834930	-42.7336
113.800003	85.766441	-42.9092
115.000000	85.725380	-43.1721
117.199997	85.649765	-43.5081
118.000000	85.626228	-43.7364
120.599998	85.493706	-44.0544
122.000000	85.470215	-44.2607
124.099998	85.370171	-44.5070
125.000000	85.350723	-44.6568
126.500000	85.275421	-44.8486
128.000000	85.252579	-44.9745
131.500000	85.076508	-45.6917
132.000000	85.059387	-45.5723
134.000000	85.022751	-46.0316
136.000000	84.944908	-45.9952
138.000000	84.826912	-46.1254
140.000000	84.790672	-46.5184
143.000000	84.685585	-46.8793
145.000000	84.632240	-46.9200
147.500000	84.518929	-47.3404
150.000000	84.452332	-47.5137
152.500000	84.367371	-47.8181
155.000000	84.292572	-48.1328
157.500000	84.293961	-48.3545
160.000000	84.152969	-48.4598
162.500000	84.102951	-48.5772
165.000000	84.026627	-48.8362
167.500000	83.977386	-48.6445
170.000000	83.859451	-49.0817
172.500000	83.788879	-49.4811
175.000000	83.700539	-49.5767
177.500000	83.630707	-49.7014
180.000000	83.538910	-49.9957
182.500000	83.466522	-50.1214
185.000000	83.417671	-50.2728
187.500000	83.325989	-50.3506
190.000000	83.219604	-50.5528
192.500000	83.170685	-50.5645
195.000000	83.108627	-50.9493
197.500000	83.031464	-50.8675
200.000000	82.988991	-50.9112
203.000000	82.859192	-51.2157
206.000000	82.773949	-51.2735
209.000000	82.670326	-51.5607
212.000000	82.611710	-51.4955
214.000000	82.566071	-51.5727
218.000000	82.480774	-51.8223
220.000000	82.433144	-51.7764
224.000000	82.362083	-51.9667
227.000000	82.297119	-52.0990
230.000000	82.235222	-52.1507
233.000000	82.164040	-52.2405
236.000000	82.113525	-52.3199
240.000000	82.049309	-52.2688
243.000000	81.964859	-52.4415
247.000000	81.891342	-52.5247
250.000000	81.851784	-52.5697
254.000000	81.768410	-52.5152
258.000000	81.696884	-52.6820
262.000000	81.592636	-52.7067
265.000000	81.530052	-52.6391
269.000000	81.465240	-52.7178
272.000000	81.424561	-52.7202
276.000000	81.360367	-52.8521
280.000000	81.292831	-52.7724
285.000000	81.210663	-52.7768
290.000000	81.132668	-52.7877
295.000000	81.062073	-52.8044
300.000000	81.044075	-52.5747
304.000000	80.923553	-52.7222
307.000000	80.884346	-52.7188
311.000000	80.834167	-52.6553
315.000000	80.779701	-52.6491
320.000000	80.726517	-52.5925
325.000000	80.648476	-52.5437
330.000000	80.595955	-52.5369
335.000000	80.542809	-52.3734
340.000000	80.473404	-52.2913
345.000000	80.430489	-52.1921
350.000000	80.376572	-52.1991
355.000000	80.319756	-52.0209
360.000000	80.277946	-51.9500
365.000000	80.230209	-51.7143
370.000000	80.183876	-51.5869
375.000000	80.157455	-51.6844
382.000000	80.087494	-51.4555
387.000000	80.063606	-51.3301
395.000000	80.008255	-51.1154
400.000000	80.031357	-50.9104
406.000000	79.954208	-50.7256
412.000000	79.909477	-50.6567
418.000000	79.878311	-50.4703
425.000000	79.859039	-50.1821
431.000000	79.832382	-49.9538
437.000000	79.818001	-49.8268
444.000000	79.815765	-49.5566
450.000000	79.805763	-49.2783
455.000000	79.790855	-49.1717
462.000000	79.791084	-49.0485
468.000000	79.765663	-48.9345
475.000000	79.755531	-48.6954
482.000000	79.741943	-48.4433
487.000000	79.743668	-48.3723
494.000000	79.760948	-48.1196
500.000000	79.716293	-48.1898
508.000000	79.782967	-47.5362
515.000000	79.778099	-47.2780
522.000000	79.792023	-47.0172
530.000000	79.800346	-46.6597
538.000000	79.824257	-46.3486
545.000000	79.841209	-46.0635
552.000000	79.867569	-45.7667
560.000000	79.894272	-45.4246
570.000000	79.931274	-44.9835
580.000000	79.976318	-44.5583
590.000000	80.028656	-44.1521
600.000000	80.074638	-43.1372
608.000000	80.136948	-43.2243
615.000000	80.194481	-42.9856
622.000000	80.234734	-42.6755
630.000000	80.317307	-42.3548
640.000000	80.384888	-41.9460
650.000000	80.491257	-41.4830
660.000000	80.587845	-41.0418
670.000000	80.683556	-40.6017
680.000000	80.800621	-40.2177
690.000000	80.902046	-39.8008
700.000000	80.995026	-38.8679
710.000000	81.144119	-39.0216
720.000000	81.258492	-38.6841
730.000000	81.399277	-38.3550
740.000000	81.532074	-38.0556
750.000000	81.672455	-37.8227
762.000000	81.841164	-37.5019
775.000000	82.025185	-37.2419
788.000000	82.211143	-37.0261
800.000000	82.322411	-36.8133
812.000000	82.577118	-36.6905
825.000000	82.783768	-36.6349
838.000000	82.984253	-36.5965
850.000000	83.173157	-36.5459
862.000000	83.373917	-36.6519
875.000000	83.585518	-36.7552
885.000000	83.749527	-36.8892
900.000000	84.058731	-37.2251
912.000000	84.196724	-37.3784
925.000000	84.412811	-37.7191
938.000000	84.630829	-38.1083
950.000000	84.822510	-38.5031
962.000000	85.010605	-38.9740
975.000000	85.213615	-39.4769
988.000000	85.435394	-40.0242
1000.000000	85.732834	-40.4206
1015.000000	85.810455	-41.4724
1030.000000	86.000763	-42.3752
1044.000000	86.181892	-43.2778
1060.000000	86.382812	-44.2702
1075.000000	86.560417	-45.2997
1090.000000	86.735550	-46.3865
1106.000000	86.904671	-47.5796
1120.000000	87.045776	-48.6414
1138.000000	87.208229	-50.0192
1150.000000	87.302124	-50.9709
1172.000000	87.466400	-52.6409
1180.000000	87.522575	-53.2577
1206.000000	87.671585	-55.2032
1220.000000	87.745468	-56.2510
1241.000000	87.831604	-57.7423
1250.000000	87.867020	-58.3828
1265.000000	87.915894	-59.4253
1280.000000	87.956421	-60.3696
1315.000000	88.030243	-62.5178
1320.000000	88.033691	-62.7648
1340.000000	88.055328	-63.8412
1360.000000	88.073631	-64.8450
1380.000000	88.083878	-65.7648
1400.000000	88.114990	-66.4085
1430.000000	88.088638	-67.6896
1450.000000	88.084869	-68.3493
1475.000000	88.082893	-69.0907
1500.000000	88.070557	-69.5243
1525.000000	88.079819	-70.2759
1550.000000	88.086914	-70.7527
1575.000000	88.103477	-71.1917
1600.000000	88.141266	-71.6898
1625.000000	88.136673	-71.8580
1650.000000	88.158768	-72.1484
1675.000000	88.195679	-72.3844
1700.000000	88.201874	-72.6533
1725.000000	88.275314	-72.8332
1750.000000	88.322189	-73.0829
1775.000000	88.373039	-73.2840
1800.000000	88.447456	-73.4025
1825.000000	88.484512	-73.7750
1850.000000	88.546867	-74.0982
1875.000000	88.612465	-74.3851
1900.000000	88.658821	-74.7114
1925.000000	88.738159	-75.0755
1950.000000	88.796066	-75.5019
1975.000000	88.839478	-76.0283
2000.000000	88.813797	-76.8370
2030.000000	88.956528	-77.1419
2060.000000	89.013123	-77.7878
2090.000000	89.050934	-78.5529
2120.000000	89.074959	-79.3656
2140.000000	89.081436	-79.9196
2180.000000	89.077454	-81.0275
2200.000000	89.072372	-81.6202
2240.000000	89.013184	-82.8994
2270.000000	88.936066	-84.0827
2300.000000	88.843781	-85.3686
2330.000000	88.738251	-86.6583
2360.000000	88.607513	-87.8508
2400.000000	88.403366	-88.9902
2430.000000	88.254028	-89.4682
2470.000000	88.015877	-89.7104
2500.000000	87.832283	-89.6944
2540.000000	87.570786	-89.4379
2580.000000	87.316414	-88.8391
2620.000000	87.080429	-87.8726
2650.000000	86.924858	-87.0476
2690.000000	86.752289	-85.6126
2720.000000	86.661209	-84.4329
2760.000000	86.564011	-82.8405
2800.000000	86.515266	-81.2033
2850.000000	86.534500	-79.5112
2900.000000	86.581421	-78.1147
2950.000000	86.654617	-77.1844
3000.000000	86.716827	-76.1615
3040.000000	86.724037	-76.0085
3070.000000	86.728622	-75.7996
3110.000000	86.710846	-75.4367
3150.000000	86.694016	-75.1009
3200.000000	86.629791	-74.4827
3250.000000	86.600830	-73.9147
3300.000000	86.574455	-73.2593
3350.000000	86.502998	-72.5223
3400.000000	86.472801	-71.5946
3450.000000	86.416512	-70.7400
3500.000000	86.391907	-69.8637
3550.000000	86.419304	-68.6490
3600.000000	86.421532	-67.4820
3650.000000	86.505615	-66.1316
3700.000000	86.618149	-64.9814
3750.000000	86.738602	-63.6745
3820.000000	87.016731	-62.1651
3870.000000	87.253159	-61.4081
3950.000000	87.693565	-61.0222
4000.000000	88.000877	-61.5947
4060.000000	88.396164	-62.6084
4120.000000	88.763222	-64.8822
4180.000000	89.048386	-68.2456
4250.000000	89.193275	-73.3756
4310.000000	89.052597	-78.5530
4370.000000	88.650620	-83.8120
4440.000000	87.840149	-89.0543
4500.000000	86.933998	-92.3110
4550.000000	86.084755	-93.6973
4620.000000	84.825500	-94.1003
4680.000000	83.751083	-92.9100
4750.000000	82.564720	-90.1001
4820.000000	81.479736	-85.9827
4870.000000	80.785141	-82.2765
4940.000000	79.875381	-76.6835
5000.000000	79.205322	-70.9777
5080.000000	78.455368	-62.5469
5150.000000	77.961906	-54.3371
5220.000000	77.657776	-45.4342
5300.000000	77.588631	-34.7399
5380.000000	77.816719	-24.3038
5450.000000	78.278473	-15.7671
5520.000000	78.903656	-8.0345
5600.000000	79.767326	-0.4942
5700.000000	81.059792	6.1251
5800.000000	82.367691	10.2679
5900.000000	83.511772	12.5094
6000.000000	84.524246	13.9457
6080.000000	85.363792	14.3324
6150.000000	86.058762	13.9670
6220.000000	86.709457	12.9821
6300.000000	87.360481	10.9139
6400.000000	87.964760	7.6989
6500.000000	88.290634	4.1098
6600.000000	88.382591	1.0645
6700.000000	88.306557	-1.4182
6800.000000	88.166695	-2.6476
6900.000000	88.007935	-2.9046
7000.000000	87.952736	-2.2543
7100.000000	87.936317	-1.2875
7200.000000	88.026642	-0.0324
7300.000000	88.227005	1.2547
7400.000000	88.455536	2.4187
7500.000000	88.783470	3.2905
7620.000000	89.286827	3.7177
7750.000000	89.878540	2.7909
7880.000000	90.400833	0.1212
8000.000000	90.756844	-4.1519
8120.000000	90.814873	-9.5124
8250.000000	90.505112	-15.2790
8380.000000	89.863091	-20.1009
8500.000000	89.096825	-23.0476
8620.000000	88.257225	-24.5472
8750.000000	87.250717	-24.9379
8850.000000	86.448013	-23.7708
9000.000000	85.525963	-20.1384
9120.000000	84.957092	-17.2364
9250.000000	84.491364	-13.8548
9380.000000	84.165154	-10.9150
9500.000000	83.941635	-8.7375
9620.000000	83.729324	-7.5555
9750.000000	83.376511	-7.1873
9880.000000	82.801323	-6.9252
10000.000000	82.044518	-5.7759
10150.000000	81.051514	-1.4364
10300.000000	80.250755	5.1014
10440.000000	79.860130	12.4633
10600.000000	79.785637	20.9507
10750.000000	80.012840	28.1903
10900.000000	80.437767	34.2255
11060.000000	81.103958	39.2604
11200.000000	81.762939	42.3697
11380.000000	82.701904	44.2059
11500.000000	83.229561	43.5143
11720.000000	84.153694	42.9815
11800.000000	84.488815	41.5679
12060.000000	85.138924	35.9545
12200.000000	85.327850	32.1425
12410.000000	85.354904	26.5513
12500.000000	85.307007	24.6651
12650.000000	85.193092	22.0270
12800.000000	85.083740	19.8158
13150.000000	85.001488	15.1213
13200.000000	85.004311	14.4978
13400.000000	85.097939	11.1636
13600.000000	85.245224	6.5297
13800.000000	85.347862	0.0958
14000.000000	85.172470	-8.1411
14300.000000	84.053879	-21.6643
14500.000000	82.853302	-28.5807
14750.000000	81.130173	-33.4442
15000.000000	79.627953	-34.8952
15250.000000	78.515274	-35.6795
15500.000000	77.511406	-37.2146
15750.000000	76.519798	-37.2534
16000.000000	75.898865	-36.4012
16250.000000	75.921074	-35.6526
16500.000000	76.524521	-37.7267
16750.000000	77.644501	-45.3569
17000.000000	78.736176	-62.7102
17250.000000	78.493065	-88.5661
17500.000000	76.222313	-111.6333
17750.000000	73.260437	-126.9412
18000.000000	70.741318	-138.9975
18250.000000	68.830444	-149.0994
18500.000000	67.490784	-157.1445
18750.000000	66.802170	-163.4731
19000.000000	66.638618	-173.0259
19250.000000	67.286057	172.4138
19500.000000	67.817375	154.6942
19750.000000	68.086113	127.1104
