* Measurement data measured by REW V5.20 Beta 60
* Source: Headset (USB-C to 3.5mm Headphone Jack Adapter), MICROPHONE (Master Volume), R, volume: 0.258
* Format: 256k Log Swept Sine, 1 sweep at -12.0 dBFS with no timing reference
* Dated: Mar 8, 2021 5:20:54 PM
* REW Settings:
*  C-weighting compensation: Off
*  Target level: 75.0 dB
* Note: ; 
* Measurement: QDC 3SH SE R
* Smoothing: None
* Frequency Step: 1/48 octave
* Start Frequency: 20.000 Hz
*
* Freq(Hz)	SPL(dB)	Phase(degrees)
20.000000	88.989113	-153.6409
20.299999	89.040405	-154.3469
20.600000	89.067772	-155.1005
20.900000	89.064758	-155.7928
21.200001	89.041107	-156.3157
21.400000	89.022507	-156.5216
21.799999	89.002609	-156.6161
22.000000	89.013092	-156.5638
22.400000	89.089325	-156.4794
22.700001	89.179131	-156.5660
23.000000	89.275543	-156.8661
23.299999	89.360825	-157.3546
23.600000	89.421906	-157.9367
24.000000	89.460754	-158.6958
24.299999	89.468513	-159.1551
24.700001	89.469757	-159.5649
25.000000	89.476700	-159.7529
25.400000	89.505188	-159.9532
25.799999	89.548462	-160.1910
26.200001	89.595047	-160.5483
26.500000	89.623405	-160.8958
26.900000	89.641632	-161.4004
27.200001	89.640274	-161.7614
27.600000	89.624832	-162.1484
28.000000	89.605423	-162.3874
28.500000	89.603294	-162.5593
29.000000	89.634315	-162.7776
29.500000	89.680130	-163.2247
30.000000	89.702751	-163.8532
30.400000	89.696907	-164.3596
30.700001	89.682022	-164.6642
31.100000	89.662537	-164.9491
31.500000	89.656349	-165.1427
32.000000	89.671356	-165.3652
32.500000	89.701942	-165.6911
33.000000	89.725945	-166.1074
33.500000	89.733444	-166.5340
34.000000	89.729500	-166.8678
34.500000	89.733566	-167.1170
35.000000	89.746582	-167.3475
35.500000	89.759338	-167.6281
36.000000	89.758339	-167.9004
36.500000	89.748322	-168.0670
37.000000	89.752998	-168.0931
37.500000	89.790260	-168.1316
38.200001	89.863098	-168.5126
38.700001	89.891304	-168.9920
39.500000	89.886757	-169.6333
40.000000	89.878929	-169.8523
40.599998	89.880905	-170.0364
41.200001	89.894707	-170.1928
41.799999	89.918564	-170.3454
42.500000	89.953934	-170.5721
43.099998	89.981125	-170.8738
43.700001	89.985435	-171.2471
44.400002	89.951729	-171.5308
45.000000	89.931496	-171.4772
45.500000	89.954552	-171.4411
46.200001	89.995125	-171.8419
46.799999	89.954201	-172.3355
47.500000	89.882835	-172.2082
48.200001	89.950554	-171.8986
48.700001	90.036484	-172.3477
49.400002	90.022438	-173.5189
50.000000	89.908607	-173.8543
50.799999	89.881027	-173.4464
51.500000	89.954933	-173.6131
52.200001	89.966133	-174.1371
53.000000	89.941078	-174.4077
53.799999	89.930084	-174.5132
54.500000	89.932922	-174.4698
55.200001	89.978081	-174.5558
56.000000	89.991295	-175.0959
57.000000	89.922691	-175.2170
58.000000	89.985023	-175.1815
59.000000	89.999672	-176.1978
60.000000	89.820183	-176.5066
60.799999	89.798729	-175.3799
61.500000	89.998055	-175.1756
62.200001	90.091743	-176.5694
63.000000	89.896530	-177.3842
64.000000	89.893044	-176.1267
65.000000	90.012718	-177.1465
66.000000	89.855270	-177.2254
67.000000	89.953438	-176.8530
68.000000	89.949158	-177.6948
69.000000	89.903046	-177.7717
70.000000	89.899292	-178.0168
71.000000	89.886116	-178.2193
72.000000	89.862801	-178.5436
73.000000	89.831383	-178.4924
74.000000	89.871727	-178.6242
75.000000	89.858376	-178.9961
76.199997	89.859314	-179.1684
77.500000	89.821449	-179.4420
78.800003	89.830750	-179.3439
80.000000	89.835632	-179.2859
81.199997	89.930687	-179.4022
82.500000	89.893356	179.7827
83.800003	89.852440	179.9857
85.000000	89.865021	179.6289
86.199997	89.795959	179.5544
87.500000	89.826157	179.5050
88.500000	89.803589	179.1303
90.000000	89.786354	179.0175
91.199997	89.784119	178.8156
92.500000	89.774277	178.6566
93.800003	89.769814	178.5381
95.000000	89.727852	178.3680
96.199997	89.716766	178.6105
97.500000	89.746483	178.1370
98.800003	89.661011	177.8984
100.000000	89.670052	177.9879
101.500000	89.685074	177.6838
103.000000	89.665253	177.3555
104.400002	89.640999	177.3331
106.000000	89.630394	177.2880
107.500000	89.600494	176.9320
109.000000	89.605003	177.1285
110.599998	89.608322	176.5295
112.000000	89.585823	176.5379
113.800003	89.580948	176.5424
115.000000	89.571236	176.3889
117.199997	89.520103	176.1908
118.000000	89.509384	176.2008
120.599998	89.505936	175.7930
122.000000	89.509758	175.7403
124.099998	89.510971	175.5697
125.000000	89.490112	175.4565
126.500000	89.469238	175.5570
128.000000	89.453819	175.3239
131.500000	89.417419	174.9994
132.000000	89.399696	174.8443
134.000000	89.353798	175.1042
136.000000	89.350594	174.7354
138.000000	89.360176	174.6542
140.000000	89.335548	174.4896
143.000000	89.290558	174.3685
145.000000	89.263077	174.2454
147.500000	89.247452	174.1559
150.000000	89.213257	173.9284
152.500000	89.176453	173.7618
155.000000	89.177948	173.5554
157.500000	89.169281	173.4471
160.000000	89.130463	173.4646
162.500000	89.123245	173.2728
165.000000	89.090927	173.0713
167.500000	89.095016	172.9382
170.000000	89.072472	172.8782
172.500000	89.035004	172.8398
175.000000	88.997368	172.6753
177.500000	88.974472	172.5825
180.000000	88.937508	172.5609
182.500000	88.894455	172.4596
185.000000	88.843788	172.3854
187.500000	88.818123	172.2077
190.000000	88.791252	172.1106
192.500000	88.757790	172.0231
195.000000	88.720505	172.2368
197.500000	88.686081	171.9956
200.000000	88.668022	172.0113
203.000000	88.632683	171.8438
206.000000	88.570663	171.5970
209.000000	88.516228	171.5720
212.000000	88.493439	171.4798
214.000000	88.485947	171.4203
218.000000	88.429123	171.5490
220.000000	88.415871	171.4146
224.000000	88.392456	171.1710
227.000000	88.354820	171.2059
230.000000	88.313133	171.2863
233.000000	88.289993	171.1772
236.000000	88.286827	171.1138
240.000000	88.223969	170.9752
243.000000	88.179878	170.8757
247.000000	88.142998	170.8876
250.000000	88.102264	170.8861
254.000000	88.059090	170.8329
258.000000	88.012222	170.7603
262.000000	87.958290	170.7909
265.000000	87.919525	170.6801
269.000000	87.870392	170.6807
272.000000	87.835884	170.7264
276.000000	87.790001	170.7157
280.000000	87.745605	170.7598
285.000000	87.685776	170.6954
290.000000	87.628983	170.7410
295.000000	87.568512	170.7249
300.000000	87.533112	170.7732
304.000000	87.474434	170.8471
307.000000	87.440765	170.8658
311.000000	87.395531	170.8513
315.000000	87.328300	170.9634
320.000000	87.281746	170.9962
325.000000	87.226891	171.1653
330.000000	87.176277	171.1764
335.000000	87.117676	171.2645
340.000000	87.059753	171.2890
345.000000	87.005280	171.4054
350.000000	86.945236	171.4397
355.000000	86.885948	171.6269
360.000000	86.825104	171.7300
365.000000	86.769989	171.8814
370.000000	86.721619	171.9444
375.000000	86.666092	172.0177
382.000000	86.587883	172.2450
387.000000	86.542908	172.4235
395.000000	86.456482	172.6676
400.000000	86.383278	172.6675
406.000000	86.339943	172.9473
412.000000	86.288109	173.2625
418.000000	86.218864	173.4263
425.000000	86.165375	173.7323
431.000000	86.097946	174.0108
437.000000	86.048676	174.2584
444.000000	85.992752	174.5124
450.000000	85.966064	174.8536
455.000000	85.923958	174.9473
462.000000	85.864342	175.1922
468.000000	85.816055	175.4633
475.000000	85.771027	175.5919
482.000000	85.688942	175.7740
487.000000	85.660622	176.0610
494.000000	85.601776	176.3256
500.000000	85.589691	176.5861
508.000000	85.533524	176.9811
515.000000	85.466049	177.1989
522.000000	85.418869	177.4537
530.000000	85.360527	177.6889
538.000000	85.298790	178.0425
545.000000	85.253479	178.3983
552.000000	85.191887	178.7212
560.000000	85.127220	179.0367
570.000000	85.064392	179.5037
580.000000	84.978508	-179.9929
590.000000	84.882133	-179.4511
600.000000	84.783432	-178.5956
608.000000	84.797234	-178.2222
615.000000	84.746284	-177.8612
622.000000	84.709290	-177.4315
630.000000	84.659775	-176.8809
640.000000	84.611366	-176.1913
650.000000	84.572578	-175.7614
660.000000	84.543190	-175.0976
670.000000	84.499924	-174.4961
680.000000	84.460297	-173.8923
690.000000	84.413193	-173.2824
700.000000	84.364883	-172.5121
710.000000	84.344498	-172.0150
720.000000	84.308136	-171.3791
730.000000	84.287598	-170.7875
740.000000	84.265686	-170.0954
750.000000	84.244598	-169.4979
762.000000	84.200912	-168.6149
775.000000	84.174324	-167.7953
788.000000	84.146996	-166.9317
800.000000	84.120033	-166.0545
812.000000	84.116669	-165.3722
825.000000	84.111305	-164.5704
838.000000	84.104004	-163.6545
850.000000	84.102631	-162.8145
862.000000	84.108627	-161.9979
875.000000	84.122574	-161.1276
885.000000	84.135178	-160.4886
900.000000	84.142410	-159.6607
912.000000	84.186188	-158.7290
925.000000	84.226570	-157.8681
938.000000	84.270721	-157.1058
950.000000	84.309540	-156.3661
962.000000	84.355057	-155.6269
975.000000	84.417694	-154.8966
988.000000	84.500732	-154.1172
1000.000000	84.591507	-153.2995
1015.000000	84.620712	-152.8069
1030.000000	84.688057	-152.1044
1044.000000	84.776009	-151.5337
1060.000000	84.880661	-150.9109
1075.000000	84.981926	-150.3965
1090.000000	85.092026	-149.9261
1106.000000	85.214294	-149.5815
1120.000000	85.323547	-149.2750
1138.000000	85.458969	-148.9888
1150.000000	85.552467	-148.8397
1172.000000	85.723091	-148.7111
1180.000000	85.773705	-148.6923
1206.000000	85.963928	-148.6811
1220.000000	86.068672	-148.7597
1241.000000	86.207947	-148.9509
1250.000000	86.271790	-149.0835
1265.000000	86.368759	-149.3156
1280.000000	86.462143	-149.5450
1315.000000	86.653214	-150.2781
1320.000000	86.682007	-150.3903
1340.000000	86.774963	-150.8618
1360.000000	86.861740	-151.4214
1380.000000	86.943596	-151.9974
1400.000000	87.009438	-152.7964
1430.000000	87.089493	-153.5430
1450.000000	87.132332	-154.1926
1475.000000	87.170227	-155.0434
1500.000000	87.186272	-156.0005
1525.000000	87.192429	-156.5648
1550.000000	87.186172	-157.3337
1575.000000	87.185005	-158.0372
1600.000000	87.194336	-158.6221
1625.000000	87.171310	-159.4471
1650.000000	87.158180	-160.2111
1675.000000	87.135086	-161.0095
1700.000000	87.078270	-161.9497
1725.000000	87.049660	-162.7250
1750.000000	86.983238	-163.5923
1775.000000	86.894440	-164.4385
1800.000000	86.815582	-165.2113
1825.000000	86.679039	-166.0331
1850.000000	86.551674	-166.7300
1875.000000	86.410194	-167.3339
1900.000000	86.267059	-167.7608
1925.000000	86.103241	-168.4131
1950.000000	85.931747	-168.7867
1975.000000	85.742081	-169.1998
2000.000000	85.519356	-169.6214
2030.000000	85.347580	-169.5396
2060.000000	85.141907	-169.5163
2090.000000	84.924187	-169.4377
2120.000000	84.708290	-169.2388
2140.000000	84.566628	-169.0546
2180.000000	84.277916	-168.5822
2200.000000	84.157623	-168.1666
2240.000000	83.887627	-167.5888
2270.000000	83.693085	-167.3869
2300.000000	83.509697	-167.1239
2330.000000	83.334663	-166.9506
2360.000000	83.161003	-166.7115
2400.000000	82.959213	-165.8989
2430.000000	82.823914	-165.1528
2470.000000	82.644882	-163.9326
2500.000000	82.520737	-162.8913
2540.000000	82.387573	-161.5570
2580.000000	82.265373	-160.1386
2620.000000	82.156143	-158.7078
2650.000000	82.097939	-157.6768
2690.000000	82.025620	-156.2115
2720.000000	81.991577	-155.1475
2760.000000	81.948746	-153.7569
2800.000000	81.922935	-152.3189
2850.000000	81.949516	-150.7398
2900.000000	82.007393	-149.0353
2950.000000	82.073746	-147.5327
3000.000000	82.181007	-145.9662
3040.000000	82.299858	-145.1492
3070.000000	82.403015	-144.4274
3110.000000	82.576256	-143.6615
3150.000000	82.759346	-143.0059
3200.000000	83.006554	-142.5760
3250.000000	83.325310	-142.1601
3300.000000	83.677902	-142.2483
3350.000000	84.008255	-142.8431
3400.000000	84.408806	-144.0903
3450.000000	84.770767	-145.7809
3500.000000	85.145966	-148.0056
3550.000000	85.495117	-151.3286
3600.000000	85.767441	-155.0241
3650.000000	85.884323	-159.5214
3700.000000	85.873383	-164.0471
3750.000000	85.727180	-168.8794
3820.000000	85.266747	-174.9054
3870.000000	84.787254	-178.4439
3950.000000	83.895729	177.3368
4000.000000	83.326103	175.3982
4060.000000	82.647415	174.5862
4120.000000	82.007370	174.2584
4180.000000	81.400162	174.5560
4250.000000	80.826080	175.4774
4310.000000	80.363815	176.6388
4370.000000	79.985329	178.0651
4440.000000	79.620590	179.8154
4500.000000	79.338173	-178.8284
4550.000000	79.205811	-177.2025
4620.000000	78.993584	-175.2855
4680.000000	78.897835	-173.6376
4750.000000	78.810349	-171.7962
4820.000000	78.774376	-170.0860
4870.000000	78.773232	-168.9049
4940.000000	78.787170	-167.3354
5000.000000	78.830307	-166.2935
5080.000000	78.913704	-164.4734
5150.000000	79.008675	-162.9688
5220.000000	79.126709	-161.6545
5300.000000	79.308403	-160.3778
5380.000000	79.496468	-158.8705
5450.000000	79.680763	-157.6431
5520.000000	79.859161	-156.6581
5600.000000	80.048729	-155.3783
5700.000000	80.367783	-154.2216
5800.000000	80.730545	-153.0846
5900.000000	81.140129	-152.2026
6000.000000	81.531792	-152.0414
6080.000000	81.886505	-151.4881
6150.000000	82.208115	-151.5451
6220.000000	82.551277	-151.5546
6300.000000	82.948692	-151.7923
6400.000000	83.488998	-152.3879
6500.000000	84.082947	-153.6788
6600.000000	84.615440	-156.1016
6700.000000	84.897354	-160.1528
6800.000000	84.971527	-161.0768
6900.000000	85.386932	-162.2529
7000.000000	85.756569	-164.6269
7100.000000	86.066254	-167.1374
7200.000000	86.313904	-169.6207
7300.000000	86.523369	-172.1578
7400.000000	86.684769	-174.5995
7500.000000	86.826920	-177.1468
7620.000000	86.947723	179.8785
7750.000000	87.003448	176.5789
7880.000000	86.946800	173.1376
8000.000000	86.781364	169.9894
8120.000000	86.516342	167.1233
8250.000000	86.066650	164.9150
8380.000000	85.536354	164.2021
8500.000000	85.091064	165.4292
8620.000000	84.929840	168.0439
8750.000000	85.213631	170.7953
8850.000000	85.710152	170.8676
9000.000000	86.393608	166.0414
9120.000000	86.441727	159.6533
9250.000000	85.961197	153.2449
9380.000000	85.168030	148.6687
9500.000000	84.237762	146.5290
9620.000000	83.535149	146.3859
9750.000000	82.862770	146.3479
9880.000000	82.289803	146.4661
10000.000000	81.777977	146.3288
10150.000000	81.104347	145.6895
10300.000000	80.143913	145.6286
10440.000000	79.189514	147.5073
10600.000000	78.330742	152.3496
10750.000000	77.831573	157.1830
10900.000000	77.573578	161.7704
11060.000000	77.367485	166.2066
11200.000000	77.328629	169.4993
11380.000000	77.394257	173.3051
11500.000000	77.483955	175.3077
11720.000000	77.717567	178.0389
11800.000000	77.963860	178.5286
12060.000000	78.321945	179.1383
12200.000000	78.544456	178.6432
12410.000000	78.933144	177.1072
12500.000000	79.055527	176.0157
12650.000000	79.205971	173.6555
12800.000000	79.234924	170.8930
13150.000000	78.910965	164.6682
13200.000000	78.833000	163.9620
13400.000000	78.430748	161.5225
13600.000000	78.004913	160.0220
13800.000000	77.609818	158.9954
14000.000000	77.276474	158.7896
14300.000000	76.922958	159.4417
14500.000000	76.896721	160.2144
14750.000000	77.086563	160.8565
15000.000000	77.736557	160.1589
15250.000000	78.477081	157.1777
15500.000000	79.602684	150.5484
15750.000000	80.751846	138.5397
16000.000000	81.327896	120.2272
16250.000000	80.641144	98.6333
16500.000000	78.954483	81.6194
16750.000000	77.089928	70.3360
17000.000000	75.430977	62.4955
17250.000000	74.272774	56.1450
17500.000000	73.431686	49.3360
17750.000000	72.867065	39.8863
18000.000000	72.493080	26.0132
18250.000000	72.278915	9.1235
18500.000000	72.001724	-11.5798
18750.000000	71.489899	-30.5521
19000.000000	70.805817	-50.3633
19250.000000	70.011452	-68.2495
19500.000000	69.517776	-87.4977
19750.000000	69.541946	-112.3665
