* Measurement data measured by REW V5.20 Beta 60
* Source: Headset (USB-C to 3.5mm Headphone Jack Adapter), MICROPHONE (Master Volume), R, volume: 0.258
* Format: 256k Log Swept Sine, 1 sweep at -12.0 dBFS with no timing reference
* Dated: Jan 19, 2021 3:16:59 PM
* REW Settings:
*  C-weighting compensation: Off
*  Target level: 75.0 dB
* Note: ; 
* Measurement: QKZ VK4 L
* Smoothing: None
* Frequency Step: 1/48 octave
* Start Frequency: 20.000 Hz
*
* Freq(Hz)	SPL(dB)	Phase(degrees)
20.000000	88.972992	39.1692
20.299999	89.048767	38.6166
20.600000	89.119965	38.0800
20.900000	89.185753	37.5725
21.200001	89.251640	37.0848
21.400000	89.294975	36.7740
21.799999	89.381729	36.1806
22.000000	89.426468	35.8821
22.400000	89.520752	35.2305
22.700001	89.587593	34.7114
23.000000	89.647415	34.1708
23.299999	89.700592	33.6202
23.600000	89.745422	33.0934
24.000000	89.795364	32.4581
24.299999	89.832214	32.0280
24.700001	89.885498	31.4960
25.000000	89.928818	31.0959
25.400000	89.989296	30.5165
25.799999	90.041794	29.9148
26.200001	90.085258	29.3286
26.500000	90.116196	28.9227
26.900000	90.160431	28.4381
27.200001	90.200264	28.0739
27.600000	90.259949	27.5259
28.000000	90.310638	26.8839
28.500000	90.345627	26.0505
29.000000	90.358986	25.4347
29.500000	90.395714	25.0649
30.000000	90.478088	24.6638
30.400000	90.558434	24.0975
30.700001	90.605537	23.5306
31.100000	90.633446	22.7173
31.500000	90.625801	22.0204
32.000000	90.602875	21.5056
32.500000	90.615730	21.2402
33.000000	90.667038	20.8981
33.500000	90.718689	20.3327
34.000000	90.741646	19.7093
34.500000	90.753181	19.2015
35.000000	90.773895	18.8061
35.500000	90.809700	18.3723
36.000000	90.843491	17.8429
36.500000	90.863731	17.2659
37.000000	90.875084	16.7326
37.500000	90.888435	16.2347
38.200001	90.906059	15.5355
38.700001	90.912964	15.0416
39.500000	90.926636	14.3459
40.000000	90.940643	13.9409
40.599998	90.958321	13.4312
41.200001	90.976158	12.9253
41.799999	90.996063	12.4144
42.500000	91.012619	11.7938
43.099998	91.017113	11.2866
43.700001	91.021156	10.8465
44.400002	91.033699	10.3537
45.000000	91.046120	9.8869
45.500000	91.051300	9.4788
46.200001	91.048836	8.9570
46.799999	91.047363	8.5627
47.500000	91.052551	8.0954
48.200001	91.053078	7.6014
48.700001	91.049538	7.2567
49.400002	91.047234	6.8225
50.000000	91.047188	6.4387
50.799999	91.043259	5.8463
51.500000	91.029839	5.4098
52.200001	91.022522	5.0342
53.000000	91.021416	4.5534
53.799999	91.011154	4.0506
54.500000	90.997452	3.6587
55.200001	90.990036	3.2846
56.000000	90.983444	2.8198
57.000000	90.962852	2.1986
58.000000	90.929428	1.6423
59.000000	90.896469	1.2060
60.000000	90.885994	0.7991
60.799999	90.873367	0.3797
61.500000	90.857155	0.0353
62.200001	90.845154	-0.2919
63.000000	90.832130	-0.7056
64.000000	90.807442	-1.2539
65.000000	90.768784	-1.8176
66.000000	90.707275	-2.1888
67.000000	90.689751	-2.3627
68.000000	90.690887	-2.8598
69.000000	90.651260	-3.3522
70.000000	90.621086	-3.6467
71.000000	90.603714	-4.0344
72.000000	90.575676	-4.4064
73.000000	90.552933	-4.7657
74.000000	90.524406	-5.1498
75.000000	90.492561	-5.4766
76.199997	90.464859	-5.8695
77.500000	90.420448	-6.3691
78.800003	90.366592	-6.7120
80.000000	90.333969	-6.9970
81.199997	90.307487	-7.3739
82.500000	90.258270	-7.7919
83.800003	90.224319	-8.1184
85.000000	90.187309	-8.4853
86.199997	90.147316	-8.7949
87.500000	90.099960	-9.0737
88.500000	90.076370	-9.2819
90.000000	90.018112	-9.7204
91.199997	89.967331	-9.9545
92.500000	89.919312	-10.2784
93.800003	89.866119	-10.5587
95.000000	89.832260	-10.8703
96.199997	89.772308	-11.1632
97.500000	89.735634	-11.3111
98.800003	89.687561	-11.5605
100.000000	89.656586	-11.7642
101.500000	89.576744	-12.1054
103.000000	89.514610	-12.1160
104.400002	89.512207	-12.4215
106.000000	89.418274	-12.8934
107.500000	89.385849	-12.9648
109.000000	89.332817	-13.2693
110.599998	89.284538	-13.4346
112.000000	89.231247	-13.6497
113.800003	89.164238	-13.8318
115.000000	89.126030	-13.9360
117.199997	89.050011	-14.2448
118.000000	89.021568	-14.2945
120.599998	88.924667	-14.6052
122.000000	88.882698	-14.7141
124.099998	88.816612	-14.8985
125.000000	88.783447	-15.0595
126.500000	88.724258	-15.1557
128.000000	88.667618	-15.2359
131.500000	88.551880	-15.4674
132.000000	88.533829	-15.5037
134.000000	88.472214	-15.6137
136.000000	88.402878	-15.6571
138.000000	88.314552	-15.8094
140.000000	88.245819	-15.9192
143.000000	88.149406	-16.1044
145.000000	88.089615	-16.2209
147.500000	88.017517	-16.2146
150.000000	87.932884	-16.2782
152.500000	87.852051	-16.3344
155.000000	87.787735	-16.3606
157.500000	87.711319	-16.3009
160.000000	87.640747	-16.3670
162.500000	87.570862	-16.3973
165.000000	87.515602	-16.4103
167.500000	87.448250	-16.4186
170.000000	87.373131	-16.3868
172.500000	87.292389	-16.2939
175.000000	87.219429	-16.3002
177.500000	87.140762	-16.2434
180.000000	87.065994	-16.1653
182.500000	86.977432	-16.0842
185.000000	86.904495	-16.0346
187.500000	86.831963	-15.9795
190.000000	86.762245	-15.8568
192.500000	86.689255	-15.7080
195.000000	86.612305	-15.6721
197.500000	86.540215	-15.5563
200.000000	86.467697	-15.4312
203.000000	86.386223	-15.2771
206.000000	86.298904	-15.1487
209.000000	86.219437	-15.0539
212.000000	86.148026	-14.7672
214.000000	86.087662	-14.7078
218.000000	85.999367	-14.4470
220.000000	85.965553	-14.3386
224.000000	85.878471	-14.0701
227.000000	85.811195	-13.8736
230.000000	85.746353	-13.7298
233.000000	85.683678	-13.4918
236.000000	85.625557	-13.1970
240.000000	85.540031	-12.9884
243.000000	85.473320	-12.7605
247.000000	85.400940	-12.4743
250.000000	85.338310	-12.2206
254.000000	85.241196	-11.8620
258.000000	85.170631	-11.5806
262.000000	85.084862	-11.2156
265.000000	85.024651	-10.9943
269.000000	84.945091	-10.6419
272.000000	84.886742	-10.3667
276.000000	84.826851	-10.0518
280.000000	84.743629	-9.6562
285.000000	84.655991	-9.2053
290.000000	84.572685	-8.7437
295.000000	84.488571	-8.2787
300.000000	84.414764	-7.7442
304.000000	84.347404	-7.4138
307.000000	84.293999	-7.1228
311.000000	84.229408	-6.7057
315.000000	84.175682	-6.3397
320.000000	84.100342	-5.7892
325.000000	84.012276	-5.3593
330.000000	83.944496	-4.7732
335.000000	83.883728	-4.3144
340.000000	83.804413	-3.8107
345.000000	83.731949	-3.3327
350.000000	83.669922	-2.7571
355.000000	83.605476	-2.3306
360.000000	83.534943	-1.7594
365.000000	83.468437	-1.1112
370.000000	83.411919	-0.6563
375.000000	83.361580	-0.0953
382.000000	83.263527	0.6403
387.000000	83.217827	1.0876
395.000000	83.141434	2.0406
400.000000	83.091286	2.5016
406.000000	83.030334	3.1671
412.000000	82.973137	3.8361
418.000000	82.903046	4.4142
425.000000	82.850037	5.2461
431.000000	82.806725	5.8169
437.000000	82.746269	6.5113
444.000000	82.689545	7.2641
450.000000	82.659462	7.9451
455.000000	82.629318	8.5165
462.000000	82.564484	9.2214
468.000000	82.528381	9.7567
475.000000	82.459167	10.4610
482.000000	82.418839	11.1288
487.000000	82.387802	11.5706
494.000000	82.347633	12.3403
500.000000	82.308441	12.9998
508.000000	82.263046	13.8154
515.000000	82.215118	14.6569
522.000000	82.174721	15.3467
530.000000	82.133301	16.2299
538.000000	82.085121	17.0521
545.000000	82.044701	17.7933
552.000000	82.011276	18.6160
560.000000	81.975288	19.5017
570.000000	81.919754	20.5336
580.000000	81.876221	21.6152
590.000000	81.836563	22.7477
600.000000	81.802643	23.8421
608.000000	81.768890	24.6991
615.000000	81.747787	25.4405
622.000000	81.720352	26.1219
630.000000	81.709129	27.1090
640.000000	81.678055	28.1342
650.000000	81.657944	29.2013
660.000000	81.634781	30.2115
670.000000	81.627075	31.3125
680.000000	81.608810	32.4248
690.000000	81.591248	33.4988
700.000000	81.572052	34.5932
710.000000	81.561035	35.6739
720.000000	81.548019	36.7216
730.000000	81.537430	37.8781
740.000000	81.537674	38.9259
750.000000	81.537384	39.9659
762.000000	81.533981	41.2079
775.000000	81.529808	42.6447
788.000000	81.528847	44.0505
800.000000	81.543213	45.2978
812.000000	81.543884	46.5683
825.000000	81.557816	47.9159
838.000000	81.567818	49.2398
850.000000	81.579193	50.3782
862.000000	81.576675	51.6220
875.000000	81.560501	53.1132
885.000000	81.569901	54.4245
900.000000	81.641312	56.1962
912.000000	81.692238	57.4533
925.000000	81.724792	58.7904
938.000000	81.744507	60.3931
950.000000	81.822685	62.0734
962.000000	81.935631	63.5254
975.000000	82.065010	64.8039
988.000000	82.190430	66.0966
1000.000000	82.355064	67.2604
1015.000000	82.410423	68.3091
1030.000000	82.509132	69.4860
1044.000000	82.619637	70.5347
1060.000000	82.751022	71.7776
1075.000000	82.865555	72.7906
1090.000000	83.000122	73.7887
1106.000000	83.142761	74.7939
1120.000000	83.266296	75.5158
1138.000000	83.421021	76.5670
1150.000000	83.525543	77.2191
1172.000000	83.714119	78.2354
1180.000000	83.778717	78.5801
1206.000000	83.975441	79.6526
1220.000000	84.096359	80.2955
1241.000000	84.254005	80.9840
1250.000000	84.319199	81.2585
1265.000000	84.430138	81.8183
1280.000000	84.541473	82.2218
1315.000000	84.766556	83.3644
1320.000000	84.790298	83.4759
1340.000000	84.917206	83.9892
1360.000000	85.021156	84.6164
1380.000000	85.146477	85.0487
1400.000000	85.245209	85.5822
1430.000000	85.398285	86.3022
1450.000000	85.494019	86.8626
1475.000000	85.605949	87.4419
1500.000000	85.708519	88.0796
1525.000000	85.805023	88.6509
1550.000000	85.894394	89.2281
1575.000000	85.987473	89.8780
1600.000000	86.074234	90.5006
1625.000000	86.156624	91.0951
1650.000000	86.237930	91.7234
1675.000000	86.308083	92.3943
1700.000000	86.382088	93.0401
1725.000000	86.447777	93.7088
1750.000000	86.521286	94.3254
1775.000000	86.591713	95.0282
1800.000000	86.653870	95.7423
1825.000000	86.715408	96.3090
1850.000000	86.777779	97.0016
1875.000000	86.839020	97.6839
1900.000000	86.898460	98.3541
1925.000000	86.961716	99.0178
1950.000000	87.020012	99.6856
1975.000000	87.056732	100.3056
2000.000000	87.049110	100.6738
2030.000000	87.181740	101.8034
2060.000000	87.254799	102.6155
2090.000000	87.313431	103.4430
2120.000000	87.371040	104.2047
2140.000000	87.410103	104.7334
2180.000000	87.480400	105.7453
2200.000000	87.519730	106.2836
2240.000000	87.596336	107.1269
2270.000000	87.629944	107.5798
2300.000000	87.665115	107.7902
2330.000000	87.712372	108.0226
2360.000000	87.744583	108.2296
2400.000000	87.792694	108.7937
2430.000000	87.837723	109.4515
2470.000000	87.875061	110.4688
2500.000000	87.903275	111.1988
2540.000000	87.939621	112.2106
2580.000000	87.966644	113.2340
2620.000000	88.003883	114.2585
2650.000000	88.028084	115.0430
2690.000000	88.062607	116.0693
2720.000000	88.090042	116.8803
2760.000000	88.113663	117.9125
2800.000000	88.134979	118.9667
2850.000000	88.161514	120.3241
2900.000000	88.202477	121.6342
2950.000000	88.246231	122.9811
3000.000000	88.284470	124.6106
3040.000000	88.328865	125.3485
3070.000000	88.357132	126.0671
3110.000000	88.393356	127.0946
3150.000000	88.435570	128.1259
3200.000000	88.491020	129.3538
3250.000000	88.561348	130.5932
3300.000000	88.627991	131.7545
3350.000000	88.695236	132.8996
3400.000000	88.764328	133.9738
3450.000000	88.856720	135.0320
3500.000000	88.959587	136.0596
3550.000000	89.066162	137.0284
3600.000000	89.166252	137.9372
3650.000000	89.276642	138.7803
3700.000000	89.390610	139.5874
3750.000000	89.497520	140.3412
3820.000000	89.644928	141.3091
3870.000000	89.741463	141.9307
3950.000000	89.871185	142.7722
4000.000000	89.932251	143.0414
4060.000000	90.049080	143.7924
4120.000000	90.137054	144.2106
4180.000000	90.218773	144.5592
4250.000000	90.307526	145.0292
4310.000000	90.371140	145.2517
4370.000000	90.425018	145.4548
4440.000000	90.478889	145.5920
4500.000000	90.514282	145.6473
4550.000000	90.527267	145.6994
4620.000000	90.536240	145.7411
4680.000000	90.521713	145.7500
4750.000000	90.491119	145.7595
4820.000000	90.436493	145.7949
4870.000000	90.386337	145.8510
4940.000000	90.307373	145.9102
5000.000000	90.216187	145.9506
5080.000000	90.090195	146.5014
5150.000000	89.956863	146.9458
5220.000000	89.820709	147.5241
5300.000000	89.661308	148.3643
5380.000000	89.508224	149.3287
5450.000000	89.362457	150.3875
5520.000000	89.190544	151.5844
5600.000000	89.020935	153.0854
5700.000000	88.811302	155.0675
5800.000000	88.663162	157.0912
5900.000000	88.509277	159.1816
6000.000000	88.385284	161.3763
6080.000000	88.323647	163.2847
6150.000000	88.280594	164.9177
6220.000000	88.245537	166.6881
6300.000000	88.244881	168.6753
6400.000000	88.275230	171.2618
6500.000000	88.360474	173.9762
6600.000000	88.498360	176.5741
6700.000000	88.715813	179.1481
6800.000000	88.982605	-178.3544
6900.000000	89.346985	-176.0414
7000.000000	89.816635	-174.0573
7100.000000	90.392693	-172.5763
7200.000000	91.029488	-171.5569
7300.000000	91.780563	-171.2990
7400.000000	92.737984	-172.2820
7500.000000	93.643776	-175.9297
7620.000000	94.580414	177.0830
7750.000000	95.148209	166.4344
7880.000000	94.903061	154.1053
8000.000000	93.986542	144.1749
8120.000000	92.693886	137.5950
8250.000000	91.231445	133.4953
8380.000000	89.814613	132.0363
8500.000000	88.562981	132.3136
8620.000000	87.458832	133.6363
8750.000000	86.388649	135.8195
8850.000000	85.648331	137.8136
9000.000000	84.622276	141.0453
9120.000000	83.856613	144.0476
9250.000000	83.122154	147.1507
9380.000000	82.446548	150.5778
9500.000000	81.889740	153.4855
9620.000000	81.403885	156.8967
9750.000000	80.932686	160.0894
9880.000000	80.497704	163.0395
10000.000000	80.134277	165.4648
10150.000000	79.712303	168.5954
10300.000000	79.306328	171.1039
10440.000000	78.915947	173.3836
10600.000000	78.415909	175.5412
10750.000000	77.915825	177.5819
10900.000000	77.386963	179.6278
11060.000000	76.825111	-177.8249
11200.000000	76.253441	-175.6049
11380.000000	75.520653	-172.3591
11500.000000	74.999199	-169.6956
11720.000000	74.052231	-164.1319
11800.000000	73.723099	-161.4882
12060.000000	72.895699	-152.3204
12200.000000	72.530342	-147.1505
12410.000000	72.337357	-138.8592
12500.000000	72.403793	-135.4489
12650.000000	72.547005	-130.3818
12800.000000	72.729767	-126.0856
13150.000000	73.192490	-117.8347
13200.000000	73.284821	-116.4546
13400.000000	73.438377	-112.3015
13600.000000	73.661049	-107.6736
13800.000000	74.007523	-103.0024
14000.000000	74.434494	-98.3005
14300.000000	75.390961	-91.3203
14500.000000	76.303513	-87.2521
14750.000000	77.814148	-84.0053
15000.000000	79.771782	-84.1115
15250.000000	82.163277	-90.4700
15500.000000	84.145355	-107.7333
15750.000000	84.160652	-132.0112
16000.000000	82.375748	-148.7164
16250.000000	80.543007	-156.3508
16500.000000	79.192642	-159.1993
16750.000000	78.424576	-160.7977
17000.000000	78.171494	-163.3519
17250.000000	78.432785	-168.1638
17500.000000	78.878632	-178.5205
17750.000000	78.772743	162.8578
18000.000000	77.361282	139.4444
18250.000000	74.985580	119.7390
18500.000000	72.448181	106.1742
18750.000000	69.612022	99.7540
19000.000000	66.121155	103.9111
19250.000000	68.696396	143.5471
19500.000000	73.775200	105.5468
19750.000000	73.824196	75.0686
