* Measurement data measured by REW V5.20 Beta 60
* Source: Headset (USB-C to 3.5mm Headphone Jack Adapter), MICROPHONE (Master Volume), R, volume: 0.258
* Format: 256k Log Swept Sine, 1 sweep at -12.0 dBFS with no timing reference
* Dated: Jun 19, 2021 6:00:16 PM
* REW Settings:
*  C-weighting compensation: Off
*  Target level: 75.0 dB
* Note: ; 
* Measurement: insects awaken R
* Smoothing: None
* Frequency Step: 1/48 octave
* Start Frequency: 20.000 Hz
*
* Freq(Hz)	SPL(dB)	Phase(degrees)
20.000000	92.315216	-3.4438
20.299999	92.338867	-3.7118
20.600000	92.357933	-4.0796
20.900000	92.361046	-4.5039
21.200001	92.347977	-4.9184
21.400000	92.331909	-5.1384
21.799999	92.296066	-5.4091
22.000000	92.284782	-5.4746
22.400000	92.290726	-5.5751
22.700001	92.313797	-5.6894
23.000000	92.343422	-5.8981
23.299999	92.370934	-6.2012
23.600000	92.388214	-6.5444
24.000000	92.392975	-6.9794
24.299999	92.390182	-7.2489
24.700001	92.387482	-7.5222
25.000000	92.390007	-7.6922
25.400000	92.401192	-7.9286
25.799999	92.412781	-8.1729
26.200001	92.423874	-8.4316
26.500000	92.432968	-8.6408
26.900000	92.443398	-8.9436
27.200001	92.448059	-9.2111
27.600000	92.444099	-9.6189
28.000000	92.418900	-10.0299
28.500000	92.364487	-10.4340
29.000000	92.309357	-10.6191
29.500000	92.281586	-10.7001
30.000000	92.277199	-10.8567
30.400000	92.278275	-11.1022
30.700001	92.274384	-11.3259
31.100000	92.263039	-11.6355
31.500000	92.250053	-11.9381
32.000000	92.236458	-12.3030
32.500000	92.227142	-12.7073
33.000000	92.212563	-13.1333
33.500000	92.189636	-13.5423
34.000000	92.161377	-13.8856
34.500000	92.137466	-14.1682
35.000000	92.116043	-14.3707
35.500000	92.105003	-14.4986
36.000000	92.111816	-14.6126
36.500000	92.131302	-14.8508
37.000000	92.139359	-15.2437
37.500000	92.117668	-15.6639
38.200001	92.057602	-15.9267
38.700001	92.041786	-15.8983
39.500000	92.085381	-16.1455
40.000000	92.096710	-16.6194
40.599998	92.056267	-17.2013
41.200001	91.999863	-17.4769
41.799999	91.976486	-17.6107
42.500000	91.970924	-17.9371
43.099998	91.951462	-18.2919
43.700001	91.931168	-18.5735
44.400002	91.920822	-18.9400
45.000000	91.902573	-19.3508
45.500000	91.873108	-19.6441
46.200001	91.835190	-19.8601
46.799999	91.828247	-20.0170
47.500000	91.829010	-20.3784
48.200001	91.804100	-20.8087
48.700001	91.775734	-21.0525
49.400002	91.740532	-21.2852
50.000000	91.714127	-21.4545
50.799999	91.688660	-21.6956
51.500000	91.676682	-21.9169
52.200001	91.660423	-22.2644
53.000000	91.614456	-22.6939
53.799999	91.559288	-22.9952
54.500000	91.512650	-23.2342
55.200001	91.467056	-23.4185
56.000000	91.437691	-23.5905
57.000000	91.409637	-24.0654
58.000000	91.354752	-24.4724
59.000000	91.324944	-24.8031
60.000000	91.297905	-25.1656
60.799999	91.280861	-25.4493
61.500000	91.262871	-25.7504
62.200001	91.235283	-26.0006
63.000000	91.212990	-26.2461
64.000000	91.171173	-26.7047
65.000000	91.103363	-26.9525
66.000000	91.071365	-27.1641
67.000000	91.026466	-27.5886
68.000000	90.971367	-27.8371
69.000000	90.952148	-28.1920
70.000000	90.887527	-28.6810
71.000000	90.828857	-28.7348
72.000000	90.828781	-28.9915
73.000000	90.783524	-29.4100
74.000000	90.749214	-29.6336
75.000000	90.700142	-30.0504
76.199997	90.637192	-30.0898
77.500000	90.635429	-30.6456
78.800003	90.539284	-31.0837
80.000000	90.502090	-31.3573
81.199997	90.441673	-31.7052
82.500000	90.397095	-31.9905
83.800003	90.341270	-32.3009
85.000000	90.312546	-32.5654
86.199997	90.252060	-32.9797
87.500000	90.200226	-33.1830
88.500000	90.159286	-33.5608
90.000000	90.075500	-33.8397
91.199997	90.028000	-34.1564
92.500000	89.973106	-34.4603
93.800003	89.903030	-34.7897
95.000000	89.861755	-34.9037
96.199997	89.824753	-35.2920
97.500000	89.744690	-35.5896
98.800003	89.696487	-35.7096
100.000000	89.645958	-36.0892
101.500000	89.584557	-36.2261
103.000000	89.522736	-36.7364
104.400002	89.464401	-36.9785
106.000000	89.371628	-37.2630
107.500000	89.336472	-37.4590
109.000000	89.264824	-37.8505
110.599998	89.203506	-38.1193
112.000000	89.133812	-38.4637
113.800003	89.064857	-38.6403
115.000000	89.012848	-38.8304
117.199997	88.957130	-38.9894
118.000000	88.934494	-39.2644
120.599998	88.798866	-39.5950
122.000000	88.723938	-39.8134
124.099998	88.643478	-40.1566
125.000000	88.603516	-40.3274
126.500000	88.495483	-40.4570
128.000000	88.485779	-40.6080
131.500000	88.339882	-41.4109
132.000000	88.317917	-41.4909
134.000000	88.226974	-41.7646
136.000000	88.157761	-41.9090
138.000000	88.077156	-42.1028
140.000000	87.994720	-42.3824
143.000000	87.854141	-42.7664
145.000000	87.770996	-43.0649
147.500000	87.675583	-43.3020
150.000000	87.565140	-43.5780
152.500000	87.459549	-43.8563
155.000000	87.387657	-44.1085
157.500000	87.257370	-44.1016
160.000000	87.145355	-44.4538
162.500000	87.117340	-44.7230
165.000000	87.007805	-44.5924
167.500000	87.002571	-44.9889
170.000000	86.875267	-44.8472
172.500000	86.736107	-45.0615
175.000000	86.641708	-45.2910
177.500000	86.531746	-45.3713
180.000000	86.450806	-45.5661
182.500000	86.327141	-45.6831
185.000000	86.203239	-45.8346
187.500000	86.119659	-45.9337
190.000000	86.022491	-46.0485
192.500000	85.942299	-45.9880
195.000000	85.838150	-46.0954
197.500000	85.701630	-46.3014
200.000000	85.554817	-46.4304
203.000000	85.506836	-46.5136
206.000000	85.401443	-46.6362
209.000000	85.286667	-46.4812
212.000000	85.175667	-46.4435
214.000000	85.116928	-46.6710
218.000000	84.988068	-46.5203
220.000000	84.896622	-46.7943
224.000000	84.783554	-46.5472
227.000000	84.706161	-46.5919
230.000000	84.603706	-46.4208
233.000000	84.537506	-46.4788
236.000000	84.449448	-45.9921
240.000000	84.307541	-46.4678
243.000000	84.213661	-46.4028
247.000000	84.110580	-46.2108
250.000000	84.008705	-46.1596
254.000000	83.894829	-45.9600
258.000000	83.743240	-45.9307
262.000000	83.652946	-45.8427
265.000000	83.561386	-45.6362
269.000000	83.466873	-45.6458
272.000000	83.395859	-45.2006
276.000000	83.270065	-44.8828
280.000000	83.161217	-44.7544
285.000000	83.014702	-44.4549
290.000000	82.891762	-44.1747
295.000000	82.793213	-43.9954
300.000000	82.690987	-43.9053
304.000000	82.594131	-43.5203
307.000000	82.515007	-43.3610
311.000000	82.443001	-42.9002
315.000000	82.344757	-42.7915
320.000000	82.266342	-42.4388
325.000000	82.158737	-41.9205
330.000000	82.059479	-41.6626
335.000000	81.960648	-41.3341
340.000000	81.865906	-40.9933
345.000000	81.785538	-40.5745
350.000000	81.694572	-40.2700
355.000000	81.610176	-39.7256
360.000000	81.520752	-39.4421
365.000000	81.428757	-38.9375
370.000000	81.358810	-38.6469
375.000000	81.288177	-38.1822
382.000000	81.182472	-37.6985
387.000000	81.115768	-37.2675
395.000000	81.009277	-36.4065
400.000000	80.974968	-36.1351
406.000000	80.901680	-35.6350
412.000000	80.820183	-35.1189
418.000000	80.768738	-34.5595
425.000000	80.707031	-34.0208
431.000000	80.659424	-33.4886
437.000000	80.603058	-33.0378
444.000000	80.584076	-32.4929
450.000000	80.536453	-31.8952
455.000000	80.473953	-31.6292
462.000000	80.451797	-31.1430
468.000000	80.412125	-30.6044
475.000000	80.347832	-30.0873
482.000000	80.307808	-29.7143
487.000000	80.296349	-29.2323
494.000000	80.255692	-28.8212
500.000000	80.228233	-28.4298
508.000000	80.197884	-27.7665
515.000000	80.164825	-27.1320
522.000000	80.143799	-26.5798
530.000000	80.111053	-25.9498
538.000000	80.065979	-25.5870
545.000000	80.041428	-24.7277
552.000000	80.029388	-24.0204
560.000000	80.007011	-23.5260
570.000000	79.995270	-22.6815
580.000000	79.982376	-21.7800
590.000000	79.959343	-20.9887
600.000000	79.958412	-20.0717
608.000000	79.968094	-19.3570
615.000000	79.974342	-18.7391
622.000000	79.990906	-18.1268
630.000000	80.003876	-17.4010
640.000000	80.042747	-16.5044
650.000000	80.088821	-15.6606
660.000000	80.127808	-14.8268
670.000000	80.193192	-13.9342
680.000000	80.247444	-13.0463
690.000000	80.311188	-12.3208
700.000000	80.389336	-11.5073
710.000000	80.471848	-10.7771
720.000000	80.547020	-10.0040
730.000000	80.636482	-9.3192
740.000000	80.740799	-8.5330
750.000000	80.855919	-7.9802
762.000000	80.960190	-7.2820
775.000000	81.107254	-6.6207
788.000000	81.240288	-6.0297
800.000000	81.367859	-5.4834
812.000000	81.493698	-4.9783
825.000000	81.640396	-4.4325
838.000000	81.792007	-3.9764
850.000000	81.936096	-3.5745
862.000000	82.077751	-3.2180
875.000000	82.243813	-2.9162
885.000000	82.365616	-2.7211
900.000000	82.548096	-2.4961
912.000000	82.695351	-2.3849
925.000000	82.850121	-2.2282
938.000000	83.010849	-2.2123
950.000000	83.141312	-2.1833
962.000000	83.273933	-2.1670
975.000000	83.416183	-2.1791
988.000000	83.575066	-2.1313
1000.000000	83.764206	-2.0677
1015.000000	83.836105	-2.3464
1030.000000	83.972404	-2.4678
1044.000000	84.102356	-2.6118
1060.000000	84.264015	-2.7822
1075.000000	84.399498	-2.9353
1090.000000	84.553749	-3.1262
1106.000000	84.718613	-3.3901
1120.000000	84.846893	-3.5976
1138.000000	85.021561	-3.9483
1150.000000	85.138641	-4.1886
1172.000000	85.338394	-4.6416
1180.000000	85.412369	-4.8048
1206.000000	85.643639	-5.3873
1220.000000	85.771858	-5.6948
1241.000000	85.953667	-6.2257
1250.000000	86.038284	-6.4649
1265.000000	86.167236	-6.8675
1280.000000	86.291283	-7.2320
1315.000000	86.586777	-8.1703
1320.000000	86.626274	-8.2577
1340.000000	86.790924	-8.8382
1360.000000	86.959557	-9.4133
1380.000000	87.117767	-9.9601
1400.000000	87.278496	-10.5694
1430.000000	87.510345	-11.5719
1450.000000	87.666183	-12.2269
1475.000000	87.859642	-13.1984
1500.000000	88.036339	-14.2190
1525.000000	88.202148	-15.2648
1550.000000	88.359108	-16.4776
1575.000000	88.501503	-17.6604
1600.000000	88.628822	-18.9256
1625.000000	88.735489	-20.1634
1650.000000	88.814171	-21.4717
1675.000000	88.873459	-22.7111
1700.000000	88.913292	-23.9505
1725.000000	88.928749	-25.1340
1750.000000	88.930679	-26.2411
1775.000000	88.913872	-27.2616
1800.000000	88.881104	-28.1818
1825.000000	88.834671	-29.0449
1850.000000	88.777428	-29.7421
1875.000000	88.712730	-30.3862
1900.000000	88.635269	-30.9434
1925.000000	88.561188	-31.2979
1950.000000	88.475441	-31.6214
1975.000000	88.369507	-31.9135
2000.000000	88.215546	-32.2881
2030.000000	88.177879	-31.9459
2060.000000	88.083542	-31.7746
2090.000000	87.977455	-31.4626
2120.000000	87.885307	-31.0624
2140.000000	87.826225	-30.7132
2180.000000	87.721405	-29.8618
2200.000000	87.672836	-29.3832
2240.000000	87.610184	-28.4863
2270.000000	87.567291	-27.9462
2300.000000	87.530563	-27.5796
2330.000000	87.524963	-27.1589
2360.000000	87.522583	-26.7051
2400.000000	87.545876	-25.8674
2430.000000	87.589432	-25.0243
2470.000000	87.654305	-23.6905
2500.000000	87.718956	-22.7823
2540.000000	87.826965	-21.5714
2580.000000	87.955482	-20.4653
2620.000000	88.092590	-19.4688
2650.000000	88.218430	-18.7766
2690.000000	88.389084	-18.0242
2720.000000	88.522217	-17.5155
2760.000000	88.708008	-17.0304
2800.000000	88.882797	-16.6849
2850.000000	89.099274	-16.3940
2900.000000	89.310219	-16.4178
2950.000000	89.491997	-16.5422
3000.000000	89.671532	-16.5544
3040.000000	89.782837	-17.2469
3070.000000	89.860062	-17.6214
3110.000000	89.938103	-18.0653
3150.000000	90.003540	-18.5266
3200.000000	90.072830	-19.0647
3250.000000	90.130913	-19.7007
3300.000000	90.151787	-20.4770
3350.000000	90.141739	-21.1891
3400.000000	90.106331	-21.8563
3450.000000	90.059860	-22.5672
3500.000000	89.994194	-23.1137
3550.000000	89.902962	-23.6403
3600.000000	89.779640	-24.0885
3650.000000	89.617142	-24.3268
3700.000000	89.427582	-24.4086
3750.000000	89.209198	-24.0984
3820.000000	88.855927	-22.9696
3870.000000	88.625664	-21.6010
3950.000000	88.307358	-18.4755
4000.000000	88.174286	-16.2653
4060.000000	88.152176	-13.0633
4120.000000	88.223221	-10.0530
4180.000000	88.350220	-7.1894
4250.000000	88.602966	-4.2315
4310.000000	88.864952	-1.8799
4370.000000	89.180519	0.0736
4440.000000	89.580338	1.9369
4500.000000	89.963776	3.1781
4550.000000	90.282715	4.0482
4620.000000	90.757767	4.6742
4680.000000	91.154388	4.9085
4750.000000	91.634125	4.6760
4820.000000	92.098137	3.9870
4870.000000	92.423294	3.1488
4940.000000	92.840775	1.3875
5000.000000	93.144096	-0.5650
5080.000000	93.480408	-3.3655
5150.000000	93.667091	-6.2685
5220.000000	93.761604	-9.3598
5300.000000	93.732956	-12.9740
5380.000000	93.552895	-16.3783
5450.000000	93.285065	-18.9667
5520.000000	92.905968	-20.9367
5600.000000	92.425758	-22.3714
5700.000000	91.824120	-23.0437
5800.000000	91.299469	-22.6210
5900.000000	90.854034	-21.7220
6000.000000	90.463760	-20.5936
6080.000000	90.209320	-19.2940
6150.000000	90.022598	-18.3064
6220.000000	89.866104	-17.1165
6300.000000	89.703560	-15.6950
6400.000000	89.569443	-13.8884
6500.000000	89.472275	-11.7053
6600.000000	89.425629	-9.6935
6700.000000	89.481270	-7.8912
6800.000000	89.571060	-5.9558
6900.000000	89.741699	-4.3247
7000.000000	90.002602	-3.0546
7100.000000	90.308662	-2.1612
7200.000000	90.669357	-1.7593
7300.000000	91.058975	-2.0206
7400.000000	91.383865	-2.9574
7500.000000	91.739670	-4.3164
7620.000000	92.129410	-6.8098
7750.000000	92.394783	-10.5777
7880.000000	92.428711	-15.0627
8000.000000	92.305527	-19.4054
8120.000000	91.994087	-23.3374
8250.000000	91.529533	-27.1823
8380.000000	90.959618	-29.9552
8500.000000	90.460121	-31.6444
8620.000000	90.019554	-33.4658
8750.000000	89.505775	-35.5128
8850.000000	89.066719	-37.5434
9000.000000	88.281288	-40.1308
9120.000000	87.561966	-42.2147
9250.000000	86.744476	-44.0259
9380.000000	85.827103	-45.4675
9500.000000	84.918602	-46.1012
9620.000000	83.991066	-46.3552
9750.000000	82.932877	-46.1406
9880.000000	81.872177	-44.9480
10000.000000	80.890060	-43.5674
10150.000000	79.663872	-40.4935
10300.000000	78.540779	-36.2574
10440.000000	77.555283	-31.6676
10600.000000	76.545036	-25.3972
10750.000000	75.790161	-18.8021
10900.000000	75.215836	-12.0423
11060.000000	74.774750	-4.6894
11200.000000	74.580383	1.4823
11380.000000	74.534874	8.5051
11500.000000	74.489929	12.7081
11720.000000	74.559914	20.5928
11800.000000	74.726006	23.0568
12060.000000	75.411537	30.2967
12200.000000	75.835968	32.0237
12410.000000	76.734650	32.3580
12500.000000	77.039673	31.4899
12650.000000	77.387810	29.4356
12800.000000	77.501221	26.2771
13150.000000	76.777695	19.6487
13200.000000	76.563446	19.3540
13400.000000	75.742256	19.6361
13600.000000	75.004135	21.6158
13800.000000	74.436958	25.5713
14000.000000	74.098953	29.7167
14300.000000	73.893326	37.0827
14500.000000	74.104950	41.6316
14750.000000	74.548630	46.6600
15000.000000	75.466904	49.5629
15250.000000	76.631805	48.3722
15500.000000	77.597687	41.9874
15750.000000	77.776947	30.8319
16000.000000	76.946587	21.8265
16250.000000	75.798470	16.8241
16500.000000	74.621857	15.6673
16750.000000	73.827820	16.7696
17000.000000	73.412178	18.5894
17250.000000	73.417412	20.7529
17500.000000	73.691940	21.2130
17750.000000	74.239021	17.7568
18000.000000	74.791458	8.1853
18250.000000	75.198715	-4.2061
18500.000000	75.212029	-18.8914
18750.000000	74.828865	-32.2191
19000.000000	73.734848	-44.1579
19250.000000	72.014877	-52.0476
19500.000000	69.903519	-52.2513
19750.000000	68.904633	-47.2186
