* Measurement data measured by REW V5.20 Beta 60
* Source: Headset (USB-C to 3.5mm Headphone Jack Adapter), MICROPHONE (Master Volume), R, volume: 0.258
* Format: 256k Log Swept Sine, 1 sweep at -12.0 dBFS with no timing reference
* Dated: Mar 4, 2021 3:26:54 PM
* REW Settings:
*  C-weighting compensation: Off
*  Target level: 75.0 dB
* Note: ; 
* Measurement: SHICHIKU.KANGEN L
* Smoothing: None
* Frequency Step: 1/48 octave
* Start Frequency: 20.000 Hz
*
* Freq(Hz)	SPL(dB)	Phase(degrees)
20.000000	93.229370	-176.0556
20.299999	93.232132	-176.4913
20.600000	93.228668	-176.8700
20.900000	93.223007	-177.1674
21.200001	93.226807	-177.4058
21.400000	93.236053	-177.5530
21.799999	93.269791	-177.8804
22.000000	93.292465	-178.1000
22.400000	93.340813	-178.7236
22.700001	93.362778	-179.3064
23.000000	93.363869	-179.9288
23.299999	93.346146	179.4762
23.600000	93.313110	178.9774
24.000000	93.259529	178.5144
24.299999	93.227539	178.2971
24.700001	93.207428	178.1035
25.000000	93.209946	177.9489
25.400000	93.230690	177.6297
25.799999	93.250267	177.1718
26.200001	93.254028	176.6163
26.500000	93.243317	176.1998
26.900000	93.213425	175.7452
27.200001	93.189758	175.5038
27.600000	93.171669	175.2891
28.000000	93.174438	175.0872
28.500000	93.197075	174.6519
29.000000	93.202446	174.0020
29.500000	93.169518	173.3196
30.000000	93.109230	172.8464
30.400000	93.067261	172.6249
30.700001	93.045868	172.5058
31.100000	93.029121	172.3195
31.500000	93.017212	172.0627
32.000000	92.995964	171.7017
32.500000	92.972839	171.3439
33.000000	92.952263	170.9790
33.500000	92.927216	170.5551
34.000000	92.887344	170.1451
34.500000	92.847298	169.8339
35.000000	92.821014	169.6026
35.500000	92.809410	169.3059
36.000000	92.789680	168.9159
36.500000	92.750648	168.5532
37.000000	92.711525	168.3496
37.500000	92.697617	168.2049
38.200001	92.695175	167.7804
38.700001	92.668076	167.3649
39.500000	92.603333	167.0056
40.000000	92.588638	166.8794
40.599998	92.582077	166.5133
41.200001	92.541443	166.0345
41.799999	92.480927	165.7666
42.500000	92.448700	165.6266
43.099998	92.442680	165.2454
43.700001	92.396851	164.6937
44.400002	92.295319	164.3299
45.000000	92.228294	164.3438
45.500000	92.203545	164.3626
46.200001	92.184265	164.2402
46.799999	92.164085	164.0300
47.500000	92.126328	163.6724
48.200001	92.047096	163.3786
48.700001	91.985275	163.3997
49.400002	91.960701	163.6117
50.000000	91.984131	163.4314
50.799999	91.951912	162.6121
51.500000	91.849030	162.2357
52.200001	91.787971	162.2632
53.000000	91.782455	162.0247
53.799999	91.747185	161.4700
54.500000	91.683044	161.0966
55.200001	91.618927	160.9085
56.000000	91.560242	160.8472
57.000000	91.517212	160.8641
58.000000	91.510826	160.6616
59.000000	91.433784	160.0784
60.000000	91.304024	160.2509
60.799999	91.301292	160.4645
61.500000	91.299896	160.1149
62.200001	91.238220	159.7477
63.000000	91.172043	159.5902
64.000000	91.088470	159.1841
65.000000	90.966599	159.2305
66.000000	90.938347	159.3719
67.000000	90.894753	159.1735
68.000000	90.872322	159.1265
69.000000	90.846237	158.6591
70.000000	90.761398	158.4771
71.000000	90.731941	158.3460
72.000000	90.652557	158.0285
73.000000	90.586502	158.1193
74.000000	90.536957	157.8997
75.000000	90.443451	158.0495
76.199997	90.451721	158.0453
77.500000	90.340652	157.8380
78.800003	90.363922	157.8357
80.000000	90.244698	157.2639
81.199997	90.157974	157.8701
82.500000	90.200874	157.7464
83.800003	90.043243	156.9807
85.000000	89.935562	157.6984
86.199997	89.955902	157.0287
87.500000	89.718704	156.7694
88.500000	89.691437	157.5154
90.000000	89.755508	157.3785
91.199997	89.727295	156.8403
92.500000	89.580811	156.9088
93.800003	89.572807	157.4023
95.000000	89.542877	157.0560
96.199997	89.430435	156.6888
97.500000	89.270111	157.1532
98.800003	89.316772	157.7510
100.000000	89.337105	157.1650
101.500000	89.175400	156.8149
103.000000	89.071831	157.5173
104.400002	89.075691	157.7622
106.000000	89.036858	157.1744
107.500000	88.915756	157.1767
109.000000	88.845718	157.1161
110.599998	88.769379	157.5630
112.000000	88.745247	157.7422
113.800003	88.709869	157.7951
115.000000	88.662025	157.6071
117.199997	88.538910	157.6103
118.000000	88.501953	157.7025
120.599998	88.412796	158.1440
122.000000	88.374176	158.2095
124.099998	88.293137	158.3904
125.000000	88.266266	158.4528
126.500000	88.204773	158.4671
128.000000	88.161087	158.6204
131.500000	88.056030	158.7952
132.000000	88.036423	158.9031
134.000000	87.975067	158.9213
136.000000	87.908913	158.9879
138.000000	87.829887	159.0146
140.000000	87.801117	159.0827
143.000000	87.720665	159.4526
145.000000	87.648766	159.6349
147.500000	87.567024	159.9567
150.000000	87.501114	160.1809
152.500000	87.458221	160.5498
155.000000	87.373375	161.1114
157.500000	87.259956	161.6635
160.000000	87.159569	161.5904
162.500000	87.073990	161.4844
165.000000	87.060715	161.4802
167.500000	87.056778	161.9005
170.000000	87.000824	162.2715
172.500000	86.909073	162.6884
175.000000	86.833862	162.8549
177.500000	86.769699	163.1072
180.000000	86.714340	163.3078
182.500000	86.645554	163.5472
185.000000	86.594933	163.8965
187.500000	86.527748	164.1598
190.000000	86.470245	164.4886
192.500000	86.418663	164.6682
195.000000	86.352943	164.8972
197.500000	86.292404	165.1462
200.000000	86.246368	165.4023
203.000000	86.172104	165.7964
206.000000	86.125427	166.1682
209.000000	86.064392	166.5098
212.000000	86.005135	166.6525
214.000000	85.969002	167.0131
218.000000	85.906189	167.4559
220.000000	85.862549	167.7718
224.000000	85.810318	168.0679
227.000000	85.779655	168.4714
230.000000	85.670097	168.9955
233.000000	85.599396	169.5006
236.000000	85.630814	169.6118
240.000000	85.571373	170.0454
243.000000	85.506371	170.7446
247.000000	85.565262	170.2873
250.000000	85.544228	170.7615
254.000000	85.340775	171.0592
258.000000	85.286400	171.9397
262.000000	85.278198	172.4239
265.000000	85.226074	172.6805
269.000000	85.163528	173.0594
272.000000	85.138206	173.3561
276.000000	85.103477	173.8307
280.000000	85.045792	174.2572
285.000000	84.994118	174.6989
290.000000	84.928215	175.2420
295.000000	84.898079	175.8174
300.000000	84.845604	176.3491
304.000000	84.786552	176.7723
307.000000	84.758537	177.0553
311.000000	84.711922	177.5052
315.000000	84.679878	177.9676
320.000000	84.620056	178.3727
325.000000	84.577751	178.9707
330.000000	84.529312	179.5248
335.000000	84.495201	-179.9852
340.000000	84.445564	-179.5409
345.000000	84.392624	-179.0360
350.000000	84.350716	-178.4860
355.000000	84.310562	-177.9342
360.000000	84.258423	-177.4644
365.000000	84.216125	-176.8963
370.000000	84.171280	-176.4542
375.000000	84.134109	-175.9309
382.000000	84.088402	-175.2871
387.000000	84.054657	-174.7796
395.000000	84.001129	-173.9637
400.000000	83.969162	-173.4105
406.000000	83.928276	-172.9345
412.000000	83.895157	-172.2891
418.000000	83.852135	-171.6623
425.000000	83.812500	-171.0217
431.000000	83.769096	-170.3892
437.000000	83.706947	-169.7686
444.000000	83.681633	-169.0462
450.000000	83.693405	-168.5516
455.000000	83.645798	-168.1812
462.000000	83.637604	-167.5545
468.000000	83.534515	-166.8712
475.000000	83.566261	-166.4556
482.000000	83.478828	-166.0455
487.000000	83.449142	-165.3014
494.000000	83.424599	-164.6546
500.000000	83.404022	-164.3164
508.000000	83.350609	-163.7264
515.000000	83.352280	-162.9589
522.000000	83.339630	-162.0882
530.000000	83.297203	-161.4144
538.000000	83.241936	-160.6219
545.000000	83.198891	-159.9111
552.000000	83.177139	-159.2570
560.000000	83.143913	-158.5094
570.000000	83.098122	-157.5264
580.000000	83.060150	-156.5831
590.000000	83.025688	-155.6652
600.000000	83.000137	-154.6610
608.000000	82.974998	-153.7677
615.000000	82.937202	-153.3080
622.000000	82.913116	-152.4598
630.000000	82.894753	-151.7190
640.000000	82.880676	-150.7693
650.000000	82.852180	-149.8355
660.000000	82.831329	-148.9098
670.000000	82.815292	-147.9202
680.000000	82.790710	-147.0219
690.000000	82.768806	-146.0045
700.000000	82.745087	-144.9977
710.000000	82.728279	-144.0226
720.000000	82.699974	-143.0492
730.000000	82.696495	-142.0540
740.000000	82.677551	-141.0504
750.000000	82.664688	-140.0016
762.000000	82.653694	-138.8792
775.000000	82.644257	-137.5190
788.000000	82.636688	-136.2352
800.000000	82.638779	-135.0199
812.000000	82.627960	-133.8066
825.000000	82.634758	-132.5063
838.000000	82.643349	-131.1682
850.000000	82.656570	-129.9542
862.000000	82.662354	-128.7588
875.000000	82.689804	-127.4374
885.000000	82.711372	-126.3900
900.000000	82.741600	-124.9231
912.000000	82.769157	-123.7037
925.000000	82.814133	-122.4302
938.000000	82.861908	-121.1089
950.000000	82.909187	-120.0271
962.000000	82.963585	-118.8414
975.000000	83.021225	-117.7080
988.000000	83.105705	-116.5442
1000.000000	83.233170	-115.2777
1015.000000	83.236595	-114.2046
1030.000000	83.301727	-112.9969
1044.000000	83.391838	-111.9235
1060.000000	83.480057	-110.7139
1075.000000	83.568863	-109.6222
1090.000000	83.679375	-108.6499
1106.000000	83.794640	-107.6768
1120.000000	83.885765	-106.8589
1138.000000	84.005577	-105.8770
1150.000000	84.082611	-105.2268
1172.000000	84.221664	-104.1777
1180.000000	84.272293	-103.7867
1206.000000	84.423599	-102.6798
1220.000000	84.493713	-102.1027
1241.000000	84.602539	-101.3049
1250.000000	84.640137	-100.9183
1265.000000	84.712540	-100.3654
1280.000000	84.773819	-99.7566
1315.000000	84.889290	-98.3135
1320.000000	84.910614	-98.0601
1340.000000	84.984222	-97.0743
1360.000000	85.060745	-95.9740
1380.000000	85.159225	-94.8600
1400.000000	85.304382	-93.8131
1430.000000	85.524323	-92.8425
1450.000000	85.646225	-92.3909
1475.000000	85.753098	-91.9733
1500.000000	85.834747	-91.4554
1525.000000	85.893745	-90.8422
1550.000000	85.943939	-90.1700
1575.000000	85.993698	-89.4265
1600.000000	86.039536	-88.6859
1625.000000	86.086220	-87.8296
1650.000000	86.126266	-87.0103
1675.000000	86.172226	-86.1583
1700.000000	86.213013	-85.3049
1725.000000	86.249374	-84.4166
1750.000000	86.286728	-83.4812
1775.000000	86.326843	-82.5935
1800.000000	86.363312	-81.6864
1825.000000	86.389404	-80.7443
1850.000000	86.429726	-79.8275
1875.000000	86.455940	-78.8621
1900.000000	86.479111	-77.8433
1925.000000	86.517059	-76.8432
1950.000000	86.537285	-75.8189
1975.000000	86.545288	-74.8188
2000.000000	86.509705	-73.9612
2030.000000	86.606644	-72.2838
2060.000000	86.665237	-70.6930
2090.000000	86.741814	-69.0993
2120.000000	86.860237	-67.6565
2140.000000	86.946846	-66.8579
2180.000000	87.100060	-65.5841
2200.000000	87.160179	-65.0547
2240.000000	87.228989	-64.2214
2270.000000	87.249702	-63.7162
2300.000000	87.251152	-63.2982
2330.000000	87.262444	-62.8216
2360.000000	87.252518	-62.2507
2400.000000	87.237228	-61.0697
2430.000000	87.248062	-59.7398
2470.000000	87.276367	-57.6330
2500.000000	87.335663	-55.9425
2540.000000	87.482674	-53.9441
2580.000000	87.643753	-52.4711
2620.000000	87.770302	-51.3367
2650.000000	87.836060	-50.5286
2690.000000	87.885666	-49.3941
2720.000000	87.912140	-48.3890
2760.000000	87.941063	-46.8821
2800.000000	87.994736	-45.3083
2850.000000	88.084061	-43.2786
2900.000000	88.203217	-41.4487
2950.000000	88.338493	-39.8058
3000.000000	88.447960	-38.0115
3040.000000	88.517929	-37.0917
3070.000000	88.572311	-36.2913
3110.000000	88.633972	-35.0659
3150.000000	88.697502	-33.8067
3200.000000	88.775955	-32.2285
3250.000000	88.864540	-30.5760
3300.000000	88.970238	-28.9768
3350.000000	89.071503	-27.4095
3400.000000	89.183121	-25.8377
3450.000000	89.314301	-24.2449
3500.000000	89.471466	-22.7303
3550.000000	89.634674	-21.2812
3600.000000	89.802246	-19.9230
3650.000000	89.968422	-18.6107
3700.000000	90.132980	-17.3317
3750.000000	90.293617	-16.0879
3820.000000	90.510895	-14.2975
3870.000000	90.679070	-13.0102
3950.000000	90.953613	-11.0646
4000.000000	91.114334	-10.0852
4060.000000	91.379669	-8.5757
4120.000000	91.620331	-7.4654
4180.000000	91.863060	-6.4043
4250.000000	92.163307	-5.1216
4310.000000	92.420799	-4.1494
4370.000000	92.705170	-3.2669
4440.000000	93.065659	-2.4229
4500.000000	93.394859	-1.9240
4550.000000	93.675537	-1.6612
4620.000000	94.081085	-1.6377
4680.000000	94.426941	-1.9063
4750.000000	94.826447	-2.6139
4820.000000	95.203636	-3.7660
4870.000000	95.462601	-4.8399
4940.000000	95.789383	-6.7539
5000.000000	96.023720	-8.7627
5080.000000	96.278954	-11.5032
5150.000000	96.415649	-14.3186
5220.000000	96.468857	-17.3482
5300.000000	96.407433	-20.8339
5380.000000	96.224113	-24.1948
5450.000000	95.963821	-26.8151
5520.000000	95.594780	-29.0587
5600.000000	95.108894	-31.0317
5700.000000	94.445473	-32.5930
5800.000000	93.774086	-33.2432
5900.000000	93.115891	-33.0671
6000.000000	92.480186	-32.2264
6080.000000	92.018890	-31.1273
6150.000000	91.650238	-29.8771
6220.000000	91.305687	-28.4871
6300.000000	90.963333	-26.6749
6400.000000	90.582039	-24.1655
6500.000000	90.266449	-21.4285
6600.000000	90.016060	-18.6164
6700.000000	89.823738	-15.6958
6800.000000	89.691017	-12.7674
6900.000000	89.631340	-9.8346
7000.000000	89.675781	-6.9104
7100.000000	89.773239	-4.0899
7200.000000	89.949783	-1.4618
7300.000000	90.181000	0.9392
7400.000000	90.477951	3.1093
7500.000000	90.848610	4.8222
7620.000000	91.361771	6.2468
7750.000000	91.992821	6.7479
7880.000000	92.665855	5.7300
8000.000000	93.304398	3.0762
8120.000000	93.839645	-1.5419
8250.000000	94.170776	-8.7304
8380.000000	94.044655	-17.2297
8500.000000	93.469307	-24.8010
8620.000000	92.558273	-30.9360
8750.000000	91.331841	-35.3259
8850.000000	90.328758	-37.2259
9000.000000	88.872231	-38.1164
9120.000000	87.798035	-37.5149
9250.000000	86.733261	-35.9874
9380.000000	85.783783	-33.7541
9500.000000	85.013275	-31.4190
9620.000000	84.334290	-28.7858
9750.000000	83.700714	-26.0582
9880.000000	83.152390	-23.4687
10000.000000	82.675468	-21.1962
10150.000000	82.196762	-18.6042
10300.000000	81.736954	-16.3082
10440.000000	81.345108	-14.3944
10600.000000	80.926376	-12.7324
10750.000000	80.513535	-11.5076
10900.000000	80.139252	-10.5770
11060.000000	79.717590	-9.8018
11200.000000	79.311554	-9.3969
11380.000000	78.748871	-9.2352
11500.000000	78.338226	-9.0375
11720.000000	77.546463	-8.9548
11800.000000	77.215439	-8.7967
12060.000000	76.104759	-8.3404
12200.000000	75.507286	-7.2257
12410.000000	74.623505	-5.2775
12500.000000	74.259438	-4.5444
12650.000000	73.662231	-2.2539
12800.000000	73.158241	-0.0891
13150.000000	72.054268	5.3158
13200.000000	71.939056	6.5557
13400.000000	71.395393	10.7312
13600.000000	71.074089	14.2231
13800.000000	70.911095	17.4967
14000.000000	70.783676	21.7128
14300.000000	70.763840	26.6970
14500.000000	70.916222	29.9363
14750.000000	71.479462	32.2221
15000.000000	72.190559	33.2034
15250.000000	73.262344	31.6896
15500.000000	74.545906	26.0329
15750.000000	75.849648	14.0333
16000.000000	76.442459	-4.9514
16250.000000	75.594193	-25.4050
16500.000000	73.920471	-41.1731
16750.000000	72.147682	-52.4567
17000.000000	70.716301	-60.0547
17250.000000	69.709793	-67.6685
17500.000000	69.206940	-74.9392
17750.000000	69.781128	-87.4747
18000.000000	70.199883	-120.8276
18250.000000	67.646446	-158.1249
18500.000000	63.761475	174.6427
18750.000000	60.082794	155.2998
19000.000000	56.795464	144.3517
19250.000000	54.271145	130.3276
19500.000000	52.223251	118.9759
19750.000000	50.035057	103.9799
