* Measurement data measured by REW V5.20 Beta 47
* Source: Headset (USB-C to 3.5mm Headphone Jack Adapter), MICROPHONE (Master Volume), L, volume: 0.000
* Format: 256k Log Swept Sine, 1 sweep at -3.0 dBFS with no timing reference
* Dated: Jun 11, 2020 8:56:10 PM
* REW Settings:
*  C-weighting compensation: Off
*  Target level: 75.0 dB
* Note: ; 
* Measurement: Shouer Singer L
* Smoothing: None
* Frequency Step: 1/48 octave
* Start Frequency: 20.000 Hz
*
* Freq(Hz)	SPL(dB)	Phase(degrees)
20.0000	94.7726	0.23
20.3000	94.7790	-0.32
20.6000	94.7827	-0.87
20.9000	94.7802	-1.41
21.2000	94.7753	-1.93
21.4000	94.7705	-2.24
21.8000	94.7621	-2.82
22.0000	94.7618	-3.09
22.4000	94.7747	-3.67
22.7000	94.7873	-4.15
23.0000	94.7953	-4.69
23.3000	94.7947	-5.27
23.6000	94.7817	-5.83
24.0000	94.7483	-6.48
24.3000	94.7223	-6.87
24.7000	94.6985	-7.28
25.0000	94.6929	-7.58
25.4000	94.6990	-8.06
25.8000	94.7021	-8.63
26.2000	94.6904	-9.27
26.5000	94.6713	-9.74
26.9000	94.6364	-10.27
27.2000	94.6113	-10.60
27.6000	94.5872	-11.00
28.0000	94.5701	-11.41
28.5000	94.5516	-11.99
29.0000	94.5275	-12.57
29.5000	94.5042	-13.14
30.0000	94.4824	-13.70
30.4000	94.4646	-14.19
30.7000	94.4467	-14.56
31.1000	94.4164	-15.03
31.5000	94.3835	-15.46
32.0000	94.3458	-15.92
32.5000	94.3177	-16.39
33.0000	94.2885	-16.88
33.5000	94.2513	-17.36
34.0000	94.2123	-17.76
34.5000	94.1884	-18.15
35.0000	94.1711	-18.61
35.5000	94.1429	-19.15
36.0000	94.0953	-19.64
36.5000	94.0444	-20.00
37.0000	94.0119	-20.29
37.5000	93.9973	-20.68
38.2000	93.9569	-21.41
38.7000	93.9014	-21.88
39.5000	93.8304	-22.32
40.0000	93.8136	-22.61
40.6000	93.7911	-23.17
41.2000	93.7417	-23.76
41.8000	93.6821	-24.21
42.5000	93.6250	-24.64
43.1000	93.5829	-25.03
43.7000	93.5389	-25.42
44.4000	93.4897	-25.85
45.0000	93.4510	-26.23
45.5000	93.4161	-26.57
46.2000	93.3597	-27.01
46.8000	93.3116	-27.35
47.5000	93.2494	-27.78
48.2000	93.1634	-28.08
48.7000	93.1079	-28.10
49.4000	93.0886	-28.04
50.0000	93.1099	-28.32
50.8000	93.0872	-29.26
51.5000	92.9900	-29.90
52.2000	92.9014	-30.17
53.0000	92.8405	-30.52
53.8000	92.7698	-30.97
54.5000	92.7069	-31.28
55.2000	92.6568	-31.60
56.0000	92.5918	-32.00
57.0000	92.5093	-32.38
58.0000	92.4411	-32.77
59.0000	92.3647	-33.18
60.0000	92.2939	-33.54
60.8000	92.2368	-33.90
61.5000	92.1758	-34.24
62.2000	92.1091	-34.50
63.0000	92.0501	-34.72
64.0000	91.9795	-35.14
65.0000	91.8959	-35.46
66.0000	91.8228	-35.75
67.0000	91.7453	-35.98
68.0000	91.6848	-36.26
69.0000	91.6005	-36.56
70.0000	91.5289	-36.81
71.0000	91.4205	-37.14
72.0000	91.3554	-36.99
73.0000	91.3490	-37.52
74.0000	91.2310	-38.06
75.0000	91.1672	-38.14
76.2000	91.0847	-38.63
77.5000	91.0043	-38.86
78.8000	90.9178	-39.30
80.0000	90.8464	-39.53
81.2000	90.7775	-39.81
82.5000	90.6911	-40.04
83.8000	90.6067	-40.16
85.0000	90.5265	-40.21
86.2000	90.4505	-40.60
87.5000	90.3136	-40.63
88.5000	90.2926	-41.38
90.0000	89.9330	-41.29
91.2000	90.0778	-40.82
92.5000	89.9840	-41.82
93.8000	89.9698	-41.93
95.0000	89.8674	-42.19
96.2000	89.8306	-42.19
97.5000	89.7245	-42.42
98.8000	89.6429	-42.52
100.0000	89.5582	-42.75
101.5000	89.4724	-42.93
103.0000	89.3919	-43.36
104.4000	89.2872	-43.36
106.0000	89.2081	-43.42
107.5000	89.1297	-43.48
109.0000	89.0385	-43.57
110.6000	88.9595	-43.79
112.0000	88.8779	-43.92
113.8000	88.7879	-44.06
115.0000	88.7183	-44.20
117.2000	88.6060	-44.20
118.0000	88.5664	-44.26
120.6000	88.4355	-44.47
122.0000	88.3635	-44.50
124.1000	88.2526	-44.54
125.0000	88.2023	-44.64
126.5000	88.1205	-44.56
128.0000	88.0645	-44.78
131.5000	87.8790	-44.87
132.0000	87.8518	-44.87
134.0000	87.7547	-44.98
136.0000	87.6559	-45.02
138.0000	87.5605	-45.05
140.0000	87.4750	-45.12
143.0000	87.3197	-45.07
145.0000	87.2455	-45.13
147.5000	87.1167	-45.28
150.0000	87.0061	-45.24
152.5000	86.9071	-45.19
155.0000	86.8154	-45.21
157.5000	86.7082	-45.14
160.0000	86.6136	-45.02
162.5000	86.5127	-45.05
165.0000	86.4234	-45.01
167.5000	86.3688	-45.28
170.0000	86.2488	-44.84
172.5000	86.1420	-44.71
175.0000	86.0210	-44.75
177.5000	85.9449	-44.78
180.0000	85.8301	-44.79
182.5000	85.7462	-44.61
185.0000	85.6447	-44.46
187.5000	85.5325	-44.40
190.0000	85.4375	-44.26
192.5000	85.3619	-44.46
195.0000	85.2643	-44.14
197.5000	85.1978	-44.07
200.0000	85.1017	-43.89
203.0000	84.9875	-43.89
206.0000	84.8822	-43.67
209.0000	84.7639	-43.46
212.0000	84.7072	-43.36
214.0000	84.6140	-43.24
218.0000	84.4898	-42.97
220.0000	84.4511	-42.87
224.0000	84.3455	-42.69
227.0000	84.2830	-42.45
230.0000	84.1847	-42.30
233.0000	84.1145	-42.14
236.0000	84.0242	-41.91
240.0000	83.9208	-41.75
243.0000	83.8391	-41.56
247.0000	83.7282	-41.22
250.0000	83.6638	-41.22
254.0000	83.5487	-40.82
258.0000	83.4431	-40.52
262.0000	83.3495	-40.21
265.0000	83.2657	-40.05
269.0000	83.1683	-39.74
272.0000	83.1114	-39.57
276.0000	83.0191	-39.16
280.0000	82.9174	-38.96
285.0000	82.8128	-38.61
290.0000	82.7015	-38.17
295.0000	82.5891	-37.85
300.0000	82.4940	-37.41
304.0000	82.4062	-37.14
307.0000	82.3540	-36.91
311.0000	82.2673	-36.47
315.0000	82.1839	-36.11
320.0000	82.1111	-35.82
325.0000	81.9991	-35.25
330.0000	81.9189	-34.95
335.0000	81.8263	-34.51
340.0000	81.7330	-34.13
345.0000	81.6507	-33.69
350.0000	81.5959	-33.28
355.0000	81.4764	-32.89
360.0000	81.3829	-32.43
365.0000	81.2975	-31.90
370.0000	81.2244	-31.56
375.0000	81.1477	-31.20
382.0000	81.0398	-30.55
387.0000	80.9785	-30.14
395.0000	80.8530	-29.32
400.0000	80.7901	-28.93
406.0000	80.7210	-28.40
412.0000	80.6472	-27.89
418.0000	80.5580	-27.32
425.0000	80.4696	-26.66
431.0000	80.3974	-26.23
437.0000	80.3413	-25.57
444.0000	80.2734	-25.01
450.0000	80.2100	-24.41
455.0000	80.1674	-24.08
462.0000	80.0854	-23.51
468.0000	80.0272	-22.99
475.0000	79.9499	-22.44
482.0000	79.8720	-21.90
487.0000	79.8316	-21.45
494.0000	79.7452	-20.98
500.0000	79.7316	-20.33
508.0000	79.6470	-19.75
515.0000	79.6085	-19.05
522.0000	79.5319	-18.36
530.0000	79.4668	-17.52
538.0000	79.4036	-16.99
545.0000	79.3638	-16.34
552.0000	79.2236	-15.52
560.0000	79.2324	-14.87
570.0000	79.1617	-13.97
580.0000	79.1163	-13.11
590.0000	79.0457	-12.26
600.0000	78.9767	-11.09
608.0000	78.9399	-10.37
615.0000	78.8959	-9.74
622.0000	78.8874	-9.19
630.0000	78.8493	-8.47
640.0000	78.8058	-7.53
650.0000	78.7518	-6.46
660.0000	78.7199	-5.64
670.0000	78.6995	-4.82
680.0000	78.6710	-3.83
690.0000	78.6373	-2.76
700.0000	78.5952	-1.93
710.0000	78.5831	-0.87
720.0000	78.5371	0.07
730.0000	78.5350	1.00
740.0000	78.5159	1.89
750.0000	78.5087	2.87
762.0000	78.4976	4.04
775.0000	78.5152	5.27
788.0000	78.4891	6.46
800.0000	78.4576	7.70
812.0000	78.4520	8.86
825.0000	78.4653	9.97
838.0000	78.4848	11.29
850.0000	78.5161	12.32
862.0000	78.5290	13.63
875.0000	78.5691	14.74
885.0000	78.5923	15.67
900.0000	78.6420	17.02
912.0000	78.6924	18.20
925.0000	78.7275	19.35
938.0000	78.7799	20.35
950.0000	78.8478	21.61
962.0000	78.9154	22.49
975.0000	78.9794	23.60
988.0000	79.0712	24.71
1000.0000	79.2084	25.85
1015.0000	79.2300	26.80
1030.0000	79.2984	27.80
1044.0000	79.3829	28.78
1060.0000	79.5053	29.91
1075.0000	79.6111	30.91
1090.0000	79.7155	31.85
1106.0000	79.8532	32.74
1120.0000	79.9750	33.50
1138.0000	80.0964	34.44
1150.0000	80.1978	35.11
1172.0000	80.3751	36.09
1180.0000	80.4390	36.46
1206.0000	80.6515	37.58
1220.0000	80.7595	38.19
1241.0000	80.9339	38.97
1250.0000	80.9985	39.28
1265.0000	81.1228	39.85
1280.0000	81.2373	40.46
1315.0000	81.4992	41.64
1320.0000	81.5331	41.82
1340.0000	81.6829	42.47
1360.0000	81.8349	43.10
1380.0000	81.9775	43.73
1400.0000	82.1246	44.48
1430.0000	82.3338	45.38
1450.0000	82.4811	46.10
1475.0000	82.6611	46.88
1500.0000	82.8438	47.72
1525.0000	83.0295	48.57
1550.0000	83.2103	49.29
1575.0000	83.4240	50.12
1600.0000	83.6185	50.87
1625.0000	83.8237	51.66
1650.0000	84.0331	52.39
1675.0000	84.2380	53.16
1700.0000	84.4527	53.88
1725.0000	84.6705	54.62
1750.0000	84.9041	55.30
1775.0000	85.1330	55.94
1800.0000	85.3646	56.62
1825.0000	85.6093	57.21
1850.0000	85.8536	57.81
1875.0000	86.1091	58.30
1900.0000	86.3577	58.81
1925.0000	86.6250	59.30
1950.0000	86.8926	59.65
1975.0000	87.1414	59.95
2000.0000	87.3552	59.96
2030.0000	87.7588	60.61
2060.0000	88.1140	60.89
2090.0000	88.4582	60.98
2120.0000	88.8163	61.03
2140.0000	89.0536	60.93
2180.0000	89.5299	60.70
2200.0000	89.7753	60.52
2240.0000	90.2712	59.75
2270.0000	90.6179	58.79
2300.0000	90.9785	57.52
2330.0000	91.3300	56.10
2360.0000	91.6726	54.52
2400.0000	92.1207	52.46
2430.0000	92.4506	50.98
2470.0000	92.8543	48.95
2500.0000	93.1348	47.27
2540.0000	93.4820	44.85
2580.0000	93.7838	42.28
2620.0000	94.0518	39.54
2650.0000	94.2220	37.44
2690.0000	94.4022	34.61
2720.0000	94.5137	32.54
2760.0000	94.6172	29.85
2800.0000	94.6906	27.26
2850.0000	94.7582	24.13
2900.0000	94.7922	21.08
2950.0000	94.8027	18.16
3000.0000	94.7804	15.71
3040.0000	94.7539	13.27
3070.0000	94.7278	11.69
3110.0000	94.6799	9.74
3150.0000	94.6336	7.84
3200.0000	94.5778	5.55
3250.0000	94.5174	3.31
3300.0000	94.4661	1.06
3350.0000	94.4058	-1.22
3400.0000	94.3413	-3.53
3450.0000	94.2757	-5.87
3500.0000	94.2042	-8.27
3550.0000	94.1261	-10.63
3600.0000	94.0390	-12.99
3650.0000	93.9449	-15.43
3700.0000	93.8371	-17.96
3750.0000	93.7019	-20.64
3820.0000	93.4490	-24.47
3870.0000	93.2135	-27.20
3950.0000	92.7345	-31.33
4000.0000	92.3758	-33.84
4060.0000	91.9762	-36.11
4120.0000	91.5315	-38.40
4180.0000	91.0696	-40.57
4250.0000	90.5147	-42.74
4310.0000	90.0150	-44.43
4370.0000	89.4962	-45.90
4440.0000	88.8772	-47.22
4500.0000	88.3336	-48.07
4550.0000	87.8788	-48.55
4620.0000	87.2545	-48.91
4680.0000	86.7221	-48.94
4750.0000	86.1085	-48.73
4820.0000	85.5387	-48.15
4870.0000	85.1297	-47.72
4940.0000	84.5948	-46.82
5000.0000	84.1314	-46.05
5080.0000	83.5776	-44.39
5150.0000	83.1038	-42.83
5220.0000	82.6621	-41.08
5300.0000	82.1874	-38.95
5380.0000	81.7381	-36.78
5450.0000	81.3834	-34.65
5520.0000	81.0290	-32.28
5600.0000	80.6275	-29.66
5700.0000	80.2060	-26.19
5800.0000	79.8651	-22.83
5900.0000	79.5346	-19.30
6000.0000	79.2706	-15.83
6080.0000	79.0859	-12.74
6150.0000	78.9700	-10.30
6220.0000	78.8867	-7.60
6300.0000	78.8033	-4.70
6400.0000	78.7659	-0.83
6500.0000	78.8299	2.91
6600.0000	78.8806	6.50
6700.0000	79.0399	10.12
6800.0000	79.2176	13.58
6900.0000	79.5262	17.16
7000.0000	79.9243	20.28
7100.0000	80.3896	23.31
7200.0000	80.9196	26.04
7300.0000	81.5880	28.26
7400.0000	82.3176	30.05
7500.0000	83.1376	31.14
7620.0000	84.2646	31.13
7750.0000	85.5971	28.77
7880.0000	86.9483	22.98
8000.0000	87.9408	13.49
8120.0000	88.3428	1.14
8250.0000	87.8693	-12.32
8380.0000	86.7352	-22.75
8500.0000	85.4415	-29.11
8620.0000	84.1203	-32.87
8750.0000	82.6818	-34.76
8850.0000	81.6620	-34.97
9000.0000	80.2693	-34.00
9120.0000	79.2607	-32.49
9250.0000	78.2903	-30.20
9380.0000	77.4458	-27.74
9500.0000	76.6828	-25.02
9620.0000	75.9903	-21.73
9750.0000	75.3517	-18.09
9880.0000	74.8220	-14.37
10000.0000	74.3832	-10.61
10150.0000	73.9376	-5.82
10300.0000	73.6536	-1.14
10440.0000	73.4614	3.97
10600.0000	73.4672	9.31
10750.0000	73.5718	14.35
10900.0000	73.8756	18.69
11060.0000	74.3699	23.41
11200.0000	74.8666	26.80
11380.0000	75.8522	30.52
11500.0000	76.6029	32.23
11720.0000	78.3404	32.80
11800.0000	79.0771	32.16
12060.0000	81.6333	24.07
12200.0000	82.8933	14.75
12410.0000	83.8051	-4.85
12500.0000	83.6744	-13.41
12650.0000	82.9124	-25.17
12800.0000	81.8578	-33.03
13150.0000	79.6673	-41.12
13200.0000	79.4129	-41.57
13400.0000	78.5979	-42.54
13600.0000	78.0044	-42.98
13800.0000	77.6630	-43.41
14000.0000	77.4847	-43.90
14300.0000	77.5022	-46.29
14500.0000	77.6136	-48.83
14750.0000	77.7943	-53.51
15000.0000	77.9746	-60.09
15250.0000	78.0919	-68.29
15500.0000	78.1763	-78.22
15750.0000	78.2588	-89.32
16000.0000	78.3373	-102.08
16250.0000	78.5204	-117.25
16500.0000	78.5869	-135.32
16750.0000	78.4143	-156.57
17000.0000	77.7574	-179.05
17250.0000	76.6441	158.98
17500.0000	75.1237	138.76
17750.0000	73.8183	119.98
18000.0000	72.5104	100.33
18250.0000	71.5181	80.48
18500.0000	70.6597	60.54
18750.0000	70.0423	41.85
19000.0000	69.5243	23.04
19250.0000	69.0177	2.68
19500.0000	68.6478	-21.34
19750.0000	67.9818	-48.28
