* Measurement data measured by REW V5.20 Beta 47
* Source: Microphone (Realtek Audio), MICROPHONE (Master Volume), R, volume: 0.250
* Format: 256k Log Swept Sine, 1 sweep at -12.0 dBFS with no timing reference
* Dated: Aug 12, 2020 10:26:17 AM
* REW Settings:
*  C-weighting compensation: Off
*  Target level: 75.0 dB
* Note: ; 
* Measurement: Shozy CP R
* Smoothing: None
* Frequency Step: 1/48 octave
* Start Frequency: 20.000 Hz
*
* Freq(Hz)	SPL(dB)	Phase(degrees)
20.0000	86.1216	-150.52
20.3000	86.2817	-151.00
20.6000	86.4198	-151.87
20.9000	86.5190	-152.93
21.2000	86.5818	-154.02
21.4000	86.6062	-154.71
21.8000	86.6221	-155.95
22.0000	86.6218	-156.47
22.4000	86.6260	-157.22
22.7000	86.6307	-157.58
23.0000	86.6478	-157.79
23.3000	86.6870	-157.90
23.6000	86.7423	-158.01
24.0000	86.8228	-158.25
24.3000	86.8730	-158.47
24.7000	86.9154	-158.74
25.0000	86.9317	-158.86
25.4000	86.9477	-158.85
25.8000	86.9770	-158.76
26.2000	87.0135	-158.75
26.5000	87.0355	-158.81
26.9000	87.0556	-158.93
27.2000	87.0680	-159.03
27.6000	87.0991	-159.19
28.0000	87.1571	-159.55
28.5000	87.2261	-160.58
29.0000	87.2147	-162.00
29.5000	87.1163	-163.18
30.0000	87.0396	-163.67
30.4000	87.0646	-163.96
30.7000	87.1215	-164.44
31.1000	87.1752	-165.56
31.5000	87.1356	-166.86
32.0000	86.9513	-167.66
32.5000	86.8123	-166.79
33.0000	86.9291	-165.38
33.5000	87.2224	-165.13
34.0000	87.4061	-166.23
34.5000	87.3699	-167.10
35.0000	87.2742	-166.60
35.5000	87.3436	-165.34
36.0000	87.5630	-164.85
36.5000	87.7340	-165.47
37.0000	87.7784	-166.26
37.5000	87.7709	-166.68
38.2000	87.7975	-167.33
38.7000	87.7645	-168.03
39.5000	87.6860	-168.14
40.0000	87.8018	-168.18
40.6000	87.9825	-169.92
41.2000	87.8433	-172.60
41.8000	87.4140	-173.21
42.5000	87.2293	-170.35
43.1000	87.5638	-168.90
43.7000	87.8511	-169.88
44.4000	87.8489	-171.22
45.0000	87.7911	-170.99
45.5000	87.8442	-170.55
46.2000	87.9590	-170.67
46.8000	87.9696	-171.10
47.5000	87.9114	-171.20
48.2000	87.8746	-170.93
48.7000	87.8792	-170.79
49.4000	87.8907	-170.94
50.0000	87.8667	-171.21
50.8000	87.8295	-171.36
51.5000	87.8400	-171.63
52.2000	87.8171	-172.15
53.0000	87.7628	-172.23
53.8000	87.8245	-172.18
54.5000	87.8736	-172.78
55.2000	87.8258	-173.21
56.0000	87.7997	-172.99
57.0000	87.8384	-173.07
58.0000	87.8018	-173.02
59.0000	87.8464	-172.77
60.0000	87.9002	-173.29
60.8000	87.8725	-173.86
61.5000	87.8441	-174.09
62.2000	87.8572	-174.37
63.0000	87.8537	-174.86
64.0000	87.9237	-174.94
65.0000	88.0680	-176.75
66.0000	87.7140	-177.85
67.0000	87.6858	-175.04
68.0000	87.9819	-175.26
69.0000	87.9001	-175.45
70.0000	87.9556	-174.85
71.0000	87.9359	-175.08
72.0000	87.9414	-175.06
73.0000	87.8844	-175.93
74.0000	87.7774	-175.78
75.0000	87.8787	-175.93
76.2000	87.9015	-176.80
77.5000	87.9505	-176.94
78.8000	87.9638	-176.99
80.0000	87.9760	-176.71
81.2000	87.9221	-176.73
82.5000	87.9161	-176.93
83.8000	87.7777	-177.66
85.0000	87.8202	-177.94
86.2000	87.8565	-177.39
87.5000	88.1464	-178.81
88.5000	87.9504	-175.69
90.0000	89.3157	-178.72
91.2000	88.1113	178.07
92.5000	88.2327	-177.37
93.8000	87.9624	-177.62
95.0000	88.0838	-178.58
96.2000	87.6855	-179.13
97.5000	87.8652	-178.95
98.8000	87.7902	-179.75
100.0000	87.8558	-179.38
101.5000	87.9027	-179.57
103.0000	87.8333	-179.13
104.4000	87.8757	-179.00
106.0000	87.8053	-179.50
107.5000	87.7585	-179.22
109.0000	87.8205	179.97
110.6000	87.7957	179.84
112.0000	87.7282	179.37
113.8000	87.8294	179.12
115.0000	87.7497	179.15
117.2000	87.8574	179.46
118.0000	87.8599	179.06
120.6000	87.8277	178.79
122.0000	87.7305	178.67
124.1000	87.7626	178.37
125.0000	87.7429	179.35
126.5000	87.9601	178.81
128.0000	87.8558	179.27
131.5000	87.6720	178.49
132.0000	87.6844	178.60
134.0000	87.6768	177.73
136.0000	87.7219	177.79
138.0000	87.6597	177.85
140.0000	87.6250	177.69
143.0000	87.6499	177.51
145.0000	87.5714	177.37
147.5000	87.6145	177.05
150.0000	87.5438	177.21
152.5000	87.5331	177.08
155.0000	87.5196	176.90
157.5000	87.5007	176.74
160.0000	87.4900	176.68
162.5000	87.4778	176.45
165.0000	87.4622	176.37
167.5000	87.4873	176.22
170.0000	87.4757	176.09
172.5000	87.4489	175.98
175.0000	87.4155	175.93
177.5000	87.3800	175.86
180.0000	87.3563	175.58
182.5000	87.3201	175.53
185.0000	87.3370	175.69
187.5000	87.2687	175.54
190.0000	87.2534	175.45
192.5000	87.2436	175.40
195.0000	87.2169	175.23
197.5000	87.2022	175.04
200.0000	87.1861	174.89
203.0000	87.1511	174.68
206.0000	87.1111	174.75
209.0000	87.0814	174.72
212.0000	87.0552	174.84
214.0000	86.9956	174.83
218.0000	86.9953	174.63
220.0000	87.0242	174.43
224.0000	86.9440	174.42
227.0000	86.9296	174.31
230.0000	86.9287	174.04
233.0000	86.9043	174.11
236.0000	86.8893	174.00
240.0000	86.8522	174.02
243.0000	86.8366	173.97
247.0000	86.8086	173.86
250.0000	86.7659	173.77
254.0000	86.7242	173.62
258.0000	86.6875	173.50
262.0000	86.6327	173.54
265.0000	86.6086	173.51
269.0000	86.5610	173.44
272.0000	86.5372	173.44
276.0000	86.5128	173.49
280.0000	86.4667	173.47
285.0000	86.3995	173.38
290.0000	86.3544	173.44
295.0000	86.3255	173.27
300.0000	86.2772	173.39
304.0000	86.2442	173.15
307.0000	86.2009	173.22
311.0000	86.1663	173.16
315.0000	86.1453	173.24
320.0000	86.1147	173.19
325.0000	86.0839	173.20
330.0000	86.0481	173.19
335.0000	86.0117	173.09
340.0000	85.9783	173.25
345.0000	85.9389	173.24
350.0000	85.8983	173.26
355.0000	85.8592	173.20
360.0000	85.8135	173.38
365.0000	85.7436	173.39
370.0000	85.7062	173.36
375.0000	85.6834	173.47
382.0000	85.5899	173.49
387.0000	85.5639	173.53
395.0000	85.4834	173.65
400.0000	85.4423	173.71
406.0000	85.3800	173.77
412.0000	85.3190	173.84
418.0000	85.2755	174.04
425.0000	85.2289	174.17
431.0000	85.1830	174.28
437.0000	85.1298	174.18
444.0000	85.0934	174.50
450.0000	85.0563	174.46
455.0000	85.0143	174.63
462.0000	84.9630	174.76
468.0000	84.9247	174.91
475.0000	84.8715	175.17
482.0000	84.8074	175.25
487.0000	84.7715	175.40
494.0000	84.6906	175.57
500.0000	84.6470	175.76
508.0000	84.5968	175.94
515.0000	84.5537	176.02
522.0000	84.5002	176.17
530.0000	84.4461	176.42
538.0000	84.4030	176.75
545.0000	84.3431	176.90
552.0000	84.2989	177.18
560.0000	84.2441	177.67
570.0000	84.1691	177.90
580.0000	84.0992	178.00
590.0000	83.9880	178.48
600.0000	83.9671	178.90
608.0000	83.9158	179.12
615.0000	83.8666	179.36
622.0000	83.8322	179.67
630.0000	83.8060	179.94
640.0000	83.7426	-179.67
650.0000	83.6728	-179.24
660.0000	83.6469	-178.87
670.0000	83.5596	-178.36
680.0000	83.5055	-177.96
690.0000	83.4925	-177.50
700.0000	83.4445	-176.96
710.0000	83.3943	-176.57
720.0000	83.3651	-176.06
730.0000	83.3402	-175.52
740.0000	83.2802	-175.16
750.0000	83.2201	-174.66
762.0000	83.2065	-173.82
775.0000	83.1832	-173.10
788.0000	83.1147	-172.44
800.0000	83.1245	-171.99
812.0000	83.0808	-171.29
825.0000	83.0526	-170.51
838.0000	83.0342	-169.77
850.0000	83.0241	-169.07
862.0000	83.0054	-168.38
875.0000	83.0041	-167.54
885.0000	82.9492	-167.09
900.0000	82.9949	-166.17
912.0000	82.9597	-165.62
925.0000	83.0063	-164.85
938.0000	83.0265	-164.17
950.0000	83.0613	-163.46
962.0000	83.1072	-163.05
975.0000	83.1082	-162.23
988.0000	83.1122	-161.63
1000.0000	83.1897	-161.04
1015.0000	83.2229	-160.35
1030.0000	83.3015	-159.96
1044.0000	83.3228	-159.25
1060.0000	83.3837	-158.80
1075.0000	83.4606	-158.14
1090.0000	83.5622	-157.66
1106.0000	83.6584	-157.40
1120.0000	83.7540	-157.16
1138.0000	83.8332	-156.49
1150.0000	83.9115	-157.01
1172.0000	84.0314	-156.26
1180.0000	84.0958	-156.11
1206.0000	84.1958	-156.25
1220.0000	84.2575	-155.76
1241.0000	84.3654	-155.96
1250.0000	84.4327	-155.98
1265.0000	84.5076	-156.15
1280.0000	84.5711	-156.05
1315.0000	84.7202	-156.35
1320.0000	84.7521	-156.36
1340.0000	84.8163	-156.72
1360.0000	84.8822	-156.50
1380.0000	84.9625	-156.50
1400.0000	85.0095	-156.62
1430.0000	85.0925	-157.03
1450.0000	85.1503	-157.11
1475.0000	85.2096	-157.20
1500.0000	85.2882	-157.44
1525.0000	85.3596	-157.51
1550.0000	85.3759	-157.78
1575.0000	85.4274	-158.01
1600.0000	85.4945	-158.04
1625.0000	85.5479	-158.04
1650.0000	85.5827	-158.29
1675.0000	85.6522	-158.40
1700.0000	85.7099	-158.40
1725.0000	85.7638	-158.51
1750.0000	85.8100	-158.53
1775.0000	85.8641	-158.77
1800.0000	85.9456	-159.16
1825.0000	85.9926	-159.09
1850.0000	86.0558	-159.51
1875.0000	86.1074	-159.62
1900.0000	86.1167	-159.87
1925.0000	86.2234	-159.77
1950.0000	86.2550	-160.27
1975.0000	86.2867	-160.55
2000.0000	86.3296	-160.67
2030.0000	86.3832	-161.04
2060.0000	86.4234	-161.24
2090.0000	86.5109	-161.81
2120.0000	86.5571	-162.16
2140.0000	86.6126	-162.34
2180.0000	86.6637	-162.80
2200.0000	86.7102	-163.20
2240.0000	86.7657	-164.08
2270.0000	86.7924	-164.76
2300.0000	86.8133	-165.50
2330.0000	86.8514	-166.01
2360.0000	86.8981	-166.79
2400.0000	86.8673	-167.69
2430.0000	86.8732	-168.38
2470.0000	86.8108	-169.04
2500.0000	86.8240	-169.47
2540.0000	86.7878	-170.46
2580.0000	86.7096	-171.23
2620.0000	86.7122	-171.90
2650.0000	86.6700	-172.35
2690.0000	86.6079	-172.99
2720.0000	86.5350	-173.45
2760.0000	86.5025	-174.27
2800.0000	86.3872	-174.67
2850.0000	86.3040	-175.77
2900.0000	86.2116	-176.45
2950.0000	86.1232	-177.12
3000.0000	86.0546	-177.79
3040.0000	85.9368	-178.18
3070.0000	85.8864	-178.50
3110.0000	85.8509	-179.45
3150.0000	85.7644	179.70
3200.0000	85.6007	179.15
3250.0000	85.4402	178.15
3300.0000	85.2903	177.89
3350.0000	85.1535	176.60
3400.0000	84.9605	175.78
3450.0000	84.7170	175.35
3500.0000	84.6564	174.62
3550.0000	84.4981	174.72
3600.0000	84.2604	173.84
3650.0000	84.1392	173.68
3700.0000	83.9745	173.32
3750.0000	83.7398	172.91
3820.0000	83.4404	172.18
3870.0000	83.2373	172.51
3950.0000	82.8950	172.43
4000.0000	82.6311	172.45
4060.0000	82.4046	172.78
4120.0000	81.9600	172.98
4180.0000	81.5961	173.77
4250.0000	81.3102	175.42
4310.0000	80.9535	176.34
4370.0000	80.5553	178.39
4440.0000	80.2218	-179.14
4500.0000	79.9737	-177.09
4550.0000	79.8362	-175.16
4620.0000	79.3674	-171.47
4680.0000	79.3780	-168.01
4750.0000	79.2913	-164.00
4820.0000	79.2339	-159.61
4870.0000	79.1146	-156.21
4940.0000	79.3901	-152.73
5000.0000	79.4808	-148.52
5080.0000	79.9417	-142.74
5150.0000	80.5446	-137.80
5220.0000	81.2172	-133.10
5300.0000	82.1610	-130.32
5380.0000	83.1535	-127.33
5450.0000	84.0094	-126.38
5520.0000	84.7286	-125.78
5600.0000	85.8788	-127.15
5700.0000	86.9181	-130.58
5800.0000	87.9104	-134.06
5900.0000	88.4882	-138.60
6000.0000	89.1482	-144.14
6080.0000	89.2569	-148.64
6150.0000	89.5162	-153.24
6220.0000	89.3371	-156.83
6300.0000	89.1470	-159.33
6400.0000	88.9867	-163.01
6500.0000	88.9433	-165.99
6600.0000	88.5869	-167.24
6700.0000	88.3839	-167.79
6800.0000	88.4440	-170.38
6900.0000	88.7861	-168.27
7000.0000	88.9704	-171.32
7100.0000	89.0157	-173.56
7200.0000	88.8743	-169.00
7300.0000	89.3605	-168.55
7400.0000	90.3084	-168.37
7500.0000	91.2401	-172.00
7620.0000	92.2598	-176.53
7750.0000	92.7523	172.08
7880.0000	93.4270	162.12
8000.0000	93.3251	150.32
8120.0000	92.6283	134.76
8250.0000	91.5707	127.40
8380.0000	90.1842	119.02
8500.0000	88.5623	111.53
8620.0000	87.6923	106.96
8750.0000	85.8967	101.96
8850.0000	84.2518	103.12
9000.0000	82.5543	105.71
9120.0000	81.4361	102.59
9250.0000	80.1888	106.24
9380.0000	79.2977	114.33
9500.0000	77.8604	118.96
9620.0000	77.8209	119.11
9750.0000	76.6868	123.10
9880.0000	76.8633	132.38
10000.0000	76.6541	138.30
10150.0000	75.8937	132.61
10300.0000	74.4992	139.29
10440.0000	75.7266	143.93
10600.0000	74.8626	143.14
10750.0000	73.5519	150.67
10900.0000	73.4984	155.67
11060.0000	74.8068	159.02
11200.0000	74.7741	162.16
11380.0000	73.2987	168.88
11500.0000	74.8130	160.20
11720.0000	75.5018	160.24
11800.0000	73.7973	167.38
12060.0000	74.9492	154.69
12200.0000	75.2849	166.09
12410.0000	74.6264	159.43
12500.0000	75.5460	151.51
12650.0000	73.8314	142.10
12800.0000	72.8333	139.59
13150.0000	70.8742	139.51
13200.0000	71.6555	152.66
13400.0000	69.3029	148.83
13600.0000	70.8677	157.31
13800.0000	70.5574	157.08
14000.0000	67.5868	168.75
14300.0000	68.4203	154.89
14500.0000	68.2488	158.01
14750.0000	67.1972	-174.71
15000.0000	68.4916	-175.42
15250.0000	64.6074	179.72
15500.0000	67.5874	-164.35
15750.0000	66.3515	-161.37
16000.0000	71.7956	-175.70
16250.0000	74.1756	166.58
16500.0000	74.8251	158.63
16750.0000	71.7060	110.19
17000.0000	67.9243	100.75
17250.0000	64.8787	127.39
17500.0000	61.9048	110.30
17750.0000	59.8623	112.34
18000.0000	56.3586	161.16
18250.0000	60.6335	141.17
18500.0000	57.9914	118.31
18750.0000	56.9944	149.30
19000.0000	48.3721	147.13
19250.0000	48.8796	-138.99
19500.0000	39.6651	176.77
19750.0000	51.5967	148.79
