* Measurement data measured by REW V5.20 Beta 47
* Source: Microphone (Realtek Audio), MICROPHONE (Master Volume), R, volume: 0.251
* Format: 256k Log Swept Sine, 1 sweep at -12.0 dBFS with no timing reference
* Dated: Aug 29, 2020 2:35:13 AM
* REW Settings:
*  C-weighting compensation: Off
*  Target level: 75.0 dB
* Note: ; 
* Measurement: Simgot EM3 L
* Smoothing: None
* Frequency Step: 1/48 octave
* Start Frequency: 20.000 Hz
*
* Freq(Hz)	SPL(dB)	Phase(degrees)
20.0000	84.4077	-163.66
20.3000	84.2631	-161.83
20.6000	84.3328	-159.32
20.9000	84.6696	-157.21
21.2000	85.1728	-156.81
21.4000	85.4805	-157.63
21.8000	85.8641	-161.18
22.0000	85.8796	-163.36
22.4000	85.5309	-166.96
22.7000	85.0172	-167.77
23.0000	84.5110	-165.92
23.3000	84.3348	-162.07
23.6000	84.5896	-158.30
24.0000	85.3801	-156.31
24.3000	85.9568	-157.69
24.7000	86.3828	-161.94
25.0000	86.3805	-165.55
25.4000	86.0100	-169.25
25.8000	85.4489	-170.42
26.2000	85.0195	-169.09
26.5000	84.9137	-167.44
26.9000	85.0322	-165.83
27.2000	85.1952	-165.57
27.6000	85.3717	-166.25
28.0000	85.4495	-167.33
28.5000	85.4568	-168.47
29.0000	85.4734	-169.17
29.5000	85.5542	-169.96
30.0000	85.6503	-171.29
30.4000	85.6594	-172.77
30.7000	85.5916	-173.86
31.1000	85.4148	-174.73
31.5000	85.2328	-174.50
32.0000	85.2080	-173.14
32.5000	85.4561	-172.55
33.0000	85.6735	-173.92
33.5000	85.5936	-175.83
34.0000	85.2947	-175.91
34.5000	85.2045	-173.74
35.0000	85.5360	-172.05
35.5000	85.9447	-173.05
36.0000	86.0547	-175.54
36.5000	85.8649	-177.18
37.0000	85.6817	-177.06
37.5000	85.6827	-176.58
38.2000	85.7097	-177.22
38.7000	85.6035	-177.28
39.5000	85.7513	-176.23
40.0000	85.9955	-177.61
40.6000	85.8890	178.72
41.2000	85.2057	177.45
41.8000	84.7150	-178.64
42.5000	85.2068	-174.36
43.1000	85.7252	-175.63
43.7000	85.8070	-178.06
44.4000	85.6710	-179.27
45.0000	85.5905	-179.65
45.5000	85.4854	-179.68
46.2000	85.4161	-178.34
46.8000	85.6481	-177.40
47.5000	85.8919	-178.80
48.2000	85.7687	179.80
48.7000	85.6714	-179.93
49.4000	85.7540	-179.82
50.0000	85.7315	179.03
50.8000	85.4440	178.89
51.5000	85.4312	-179.87
52.2000	85.5514	179.86
53.0000	85.4983	179.21
53.8000	85.5354	179.15
54.5000	85.5497	178.10
55.2000	85.3863	177.71
56.0000	85.3881	178.74
57.0000	85.5613	177.93
58.0000	85.4398	177.50
59.0000	85.4811	177.69
60.0000	85.4097	177.37
60.8000	85.4169	177.82
61.5000	85.4994	177.44
62.2000	85.4676	176.54
63.0000	85.3644	176.26
64.0000	85.3873	176.01
65.0000	85.3300	175.10
66.0000	85.2530	175.34
67.0000	85.3258	175.74
68.0000	85.4820	175.85
69.0000	85.5869	174.45
70.0000	85.2857	173.94
71.0000	85.2106	176.05
72.0000	85.3328	176.31
73.0000	85.2847	176.32
74.0000	85.2885	176.44
75.0000	85.3138	176.14
76.2000	85.3020	174.85
77.5000	85.1855	174.18
78.8000	85.1383	173.14
80.0000	85.0259	173.18
81.2000	85.0777	173.43
82.5000	85.1546	173.26
83.8000	85.1110	173.19
85.0000	85.1917	173.60
86.2000	85.1369	172.64
87.5000	85.0547	172.07
88.5000	84.7346	170.98
90.0000	84.7452	174.07
91.2000	84.9493	172.02
92.5000	84.9729	171.98
93.8000	85.0452	170.66
95.0000	84.9889	170.29
96.2000	84.7949	169.84
97.5000	84.7596	171.16
98.8000	84.7590	168.80
100.0000	84.3008	170.43
101.5000	84.8495	170.83
103.0000	84.6393	170.53
104.4000	84.7329	170.75
106.0000	84.6165	170.82
107.5000	84.5950	170.91
109.0000	84.5270	168.70
110.6000	84.4883	169.26
112.0000	84.5968	170.01
113.8000	84.7759	168.02
115.0000	84.2721	170.35
117.2000	84.4802	170.64
118.0000	84.3319	170.00
120.6000	84.1879	168.58
122.0000	83.9488	168.23
124.1000	84.3772	169.01
125.0000	84.3498	167.82
126.5000	84.0786	168.44
128.0000	84.0429	168.08
131.5000	83.9474	167.83
132.0000	83.8021	167.09
134.0000	83.7562	170.04
136.0000	83.9823	168.47
138.0000	84.0493	166.36
140.0000	83.6085	166.23
143.0000	83.6652	168.72
145.0000	83.7769	166.96
147.5000	83.9872	167.62
150.0000	83.7232	167.59
152.5000	83.4570	167.56
155.0000	83.6157	167.01
157.5000	83.2967	167.29
160.0000	83.3062	169.11
162.5000	83.1095	168.23
165.0000	83.1762	168.04
167.5000	83.2576	165.63
170.0000	83.0901	165.80
172.5000	83.1032	168.32
175.0000	82.9714	167.49
177.5000	82.9420	167.84
180.0000	82.8709	169.17
182.5000	82.8579	167.92
185.0000	82.7811	168.20
187.5000	82.5780	168.46
190.0000	82.5879	168.10
192.5000	82.4920	167.46
195.0000	82.4345	168.39
197.5000	82.3832	168.67
200.0000	82.4299	167.63
203.0000	82.1733	168.88
206.0000	82.1931	167.63
209.0000	82.0491	167.46
212.0000	82.0198	169.45
214.0000	82.2723	169.98
218.0000	81.7831	169.27
220.0000	82.0859	171.12
224.0000	81.8253	166.98
227.0000	82.2662	167.81
230.0000	81.8415	169.21
233.0000	81.5198	170.86
236.0000	81.6377	170.02
240.0000	81.3500	168.19
243.0000	81.3477	172.67
247.0000	81.2195	171.79
250.0000	81.2983	172.27
254.0000	81.3180	170.06
258.0000	81.0229	171.39
262.0000	81.0505	170.73
265.0000	80.7569	168.97
269.0000	80.2819	171.65
272.0000	80.9580	168.41
276.0000	80.4863	165.39
280.0000	81.1554	172.97
285.0000	80.7474	173.90
290.0000	80.4583	176.66
295.0000	80.4101	171.36
300.0000	80.4663	176.81
304.0000	80.3989	174.75
307.0000	80.2276	176.06
311.0000	80.1121	176.41
315.0000	80.1510	175.69
320.0000	80.1349	176.42
325.0000	79.9934	178.00
330.0000	80.2595	178.27
335.0000	79.7474	178.77
340.0000	79.9695	178.20
345.0000	79.9360	179.38
350.0000	79.7312	-177.63
355.0000	79.6194	-179.61
360.0000	79.8021	-178.82
365.0000	79.6286	-178.43
370.0000	79.4983	-179.27
375.0000	79.4483	-179.07
382.0000	79.1073	-178.58
387.0000	79.3029	-177.05
395.0000	78.6619	-176.62
400.0000	79.7573	-173.83
406.0000	78.7389	-175.75
412.0000	78.7356	-172.40
418.0000	78.7928	-172.64
425.0000	78.7970	-172.93
431.0000	78.6198	-171.59
437.0000	78.7582	-167.28
444.0000	78.7846	-170.26
450.0000	78.3666	-168.00
455.0000	78.5686	-169.78
462.0000	78.5747	-170.13
468.0000	78.6167	-166.64
475.0000	78.3235	-166.00
482.0000	78.1179	-167.39
487.0000	78.2507	-165.16
494.0000	78.2270	-164.45
500.0000	77.9228	-165.29
508.0000	77.9752	-162.64
515.0000	78.0629	-161.84
522.0000	77.7058	-163.22
530.0000	78.3295	-163.14
538.0000	78.1237	-156.85
545.0000	77.8624	-162.70
552.0000	77.8550	-157.17
560.0000	77.9055	-156.84
570.0000	77.8167	-156.45
580.0000	77.8476	-154.69
590.0000	77.8668	-153.72
600.0000	77.6378	-152.20
608.0000	77.6940	-150.95
615.0000	77.7593	-151.66
622.0000	77.7368	-151.75
630.0000	77.5287	-149.97
640.0000	77.6081	-149.33
650.0000	77.6624	-149.77
660.0000	77.3710	-147.26
670.0000	77.5010	-146.47
680.0000	77.5004	-145.43
690.0000	77.3207	-143.54
700.0000	77.2830	-142.72
710.0000	77.1826	-142.16
720.0000	77.3916	-140.75
730.0000	77.2523	-140.27
740.0000	77.0883	-138.38
750.0000	77.0865	-136.50
762.0000	77.1846	-135.69
775.0000	77.2173	-132.98
788.0000	76.9763	-132.95
800.0000	77.1874	-130.72
812.0000	76.9946	-129.75
825.0000	77.2364	-128.81
838.0000	77.1964	-126.92
850.0000	77.1171	-123.89
862.0000	77.0975	-123.74
875.0000	77.1964	-122.73
885.0000	77.2530	-121.15
900.0000	77.2740	-119.54
912.0000	77.3265	-116.60
925.0000	77.2617	-116.80
938.0000	77.3556	-115.08
950.0000	77.3948	-113.88
962.0000	77.4740	-112.52
975.0000	77.5353	-110.40
988.0000	77.6779	-109.84
1000.0000	77.6471	-108.35
1015.0000	77.8679	-106.52
1030.0000	77.9247	-104.85
1044.0000	78.0264	-104.19
1060.0000	78.0892	-102.45
1075.0000	78.2692	-101.66
1090.0000	78.2471	-99.68
1106.0000	78.4728	-98.75
1120.0000	78.6296	-97.46
1138.0000	78.7074	-96.07
1150.0000	78.7561	-95.42
1172.0000	79.0125	-93.94
1180.0000	79.0892	-94.14
1206.0000	79.3305	-91.99
1220.0000	79.3583	-90.73
1241.0000	79.5558	-90.18
1250.0000	79.6223	-89.30
1265.0000	79.7874	-88.59
1280.0000	79.8675	-87.92
1315.0000	80.2026	-86.33
1320.0000	80.2093	-86.22
1340.0000	80.3583	-85.11
1360.0000	80.4615	-83.91
1380.0000	80.5593	-83.25
1400.0000	80.6975	-82.31
1430.0000	80.8363	-80.83
1450.0000	80.9651	-80.27
1475.0000	81.1278	-79.11
1500.0000	81.2941	-77.93
1525.0000	81.4037	-76.91
1550.0000	81.5789	-76.05
1575.0000	81.7448	-74.60
1600.0000	81.8678	-74.01
1625.0000	81.9962	-72.54
1650.0000	82.1631	-71.51
1675.0000	82.2903	-70.87
1700.0000	82.4638	-69.67
1725.0000	82.6082	-68.74
1750.0000	82.7629	-67.55
1775.0000	82.9111	-66.68
1800.0000	83.0835	-65.84
1825.0000	83.2646	-64.95
1850.0000	83.4325	-64.12
1875.0000	83.5721	-63.49
1900.0000	83.6931	-62.40
1925.0000	83.8822	-61.92
1950.0000	84.0370	-61.40
1975.0000	84.1314	-60.60
2000.0000	84.2919	-59.91
2030.0000	84.4505	-59.13
2060.0000	84.5856	-58.68
2090.0000	84.7642	-58.10
2120.0000	84.9455	-57.58
2140.0000	84.9891	-57.07
2180.0000	85.1632	-56.01
2200.0000	85.2699	-55.63
2240.0000	85.4930	-54.61
2270.0000	85.6181	-54.07
2300.0000	85.8648	-53.52
2330.0000	85.9972	-53.02
2360.0000	86.1921	-52.62
2400.0000	86.3891	-52.22
2430.0000	86.5906	-52.00
2470.0000	86.7680	-51.92
2500.0000	86.9027	-51.88
2540.0000	87.0474	-52.06
2580.0000	87.2529	-52.26
2620.0000	87.3052	-52.73
2650.0000	87.3886	-52.55
2690.0000	87.4388	-53.01
2720.0000	87.4473	-53.15
2760.0000	87.4828	-53.41
2800.0000	87.5440	-53.48
2850.0000	87.4970	-53.73
2900.0000	87.4518	-53.46
2950.0000	87.4187	-53.51
3000.0000	87.3953	-52.87
3040.0000	87.3324	-52.74
3070.0000	87.3211	-52.45
3110.0000	87.2675	-51.87
3150.0000	87.1781	-51.27
3200.0000	87.1394	-50.64
3250.0000	87.0875	-49.97
3300.0000	87.0244	-48.86
3350.0000	87.0160	-48.06
3400.0000	86.9926	-47.32
3450.0000	86.9870	-46.38
3500.0000	86.9882	-45.21
3550.0000	86.9926	-44.38
3600.0000	87.0283	-43.33
3650.0000	87.0379	-42.03
3700.0000	87.1176	-40.96
3750.0000	87.2222	-39.57
3820.0000	87.3509	-38.48
3870.0000	87.4669	-37.44
3950.0000	87.6704	-36.24
4000.0000	87.7929	-36.06
4060.0000	87.8629	-35.77
4120.0000	87.9835	-35.26
4180.0000	88.1437	-35.24
4250.0000	88.2401	-35.39
4310.0000	88.3165	-35.89
4370.0000	88.3488	-36.37
4440.0000	88.2742	-37.16
4500.0000	88.1468	-37.87
4550.0000	87.9650	-37.66
4620.0000	87.5994	-36.96
4680.0000	87.4077	-34.35
4750.0000	87.4138	-30.96
4820.0000	87.7671	-28.02
4870.0000	88.1019	-27.22
4940.0000	88.5159	-27.46
5000.0000	88.8014	-28.41
5080.0000	89.0340	-30.69
5150.0000	89.1118	-32.85
5220.0000	89.0232	-35.04
5300.0000	88.8448	-37.22
5380.0000	88.5392	-38.59
5450.0000	88.1979	-39.71
5520.0000	87.8041	-40.43
5600.0000	87.3813	-40.41
5700.0000	86.7548	-39.81
5800.0000	86.1793	-38.28
5900.0000	85.6196	-36.57
6000.0000	85.1636	-33.88
6080.0000	84.7852	-31.46
6150.0000	84.5035	-29.29
6220.0000	84.2355	-26.52
6300.0000	84.0253	-24.29
6400.0000	83.7696	-20.48
6500.0000	83.5957	-17.04
6600.0000	83.4956	-13.34
6700.0000	83.4088	-9.10
6800.0000	83.4125	-5.30
6900.0000	83.6023	-1.39
7000.0000	83.8520	2.53
7100.0000	84.2598	5.97
7200.0000	84.5736	9.74
7300.0000	85.1589	12.62
7400.0000	85.8423	14.92
7500.0000	86.6094	16.53
7620.0000	87.6411	17.10
7750.0000	88.8765	15.53
7880.0000	90.1772	10.71
8000.0000	91.0204	1.92
8120.0000	91.3935	-9.78
8250.0000	90.8204	-22.25
8380.0000	89.5702	-31.83
8500.0000	88.2619	-36.59
8620.0000	86.9310	-38.68
8750.0000	85.6732	-39.27
8850.0000	84.8290	-38.09
9000.0000	83.6969	-36.77
9120.0000	82.9880	-35.03
9250.0000	82.3959	-33.15
9380.0000	81.8954	-31.85
9500.0000	81.4122	-31.20
9620.0000	81.1392	-32.03
9750.0000	80.6077	-32.03
9880.0000	80.1044	-33.91
10000.0000	79.4252	-35.31
10150.0000	78.3779	-36.60
10300.0000	76.8756	-36.06
10440.0000	75.6041	-35.98
10600.0000	74.3688	-33.63
10750.0000	73.3095	-29.79
10900.0000	72.1581	-23.37
11060.0000	71.5251	-17.76
11200.0000	70.8145	-13.78
11380.0000	70.4510	-11.88
11500.0000	69.4308	-8.83
11720.0000	68.7136	-4.60
11800.0000	68.1386	-2.04
12060.0000	67.0304	-1.34
12200.0000	66.3012	11.04
12410.0000	64.5889	8.77
12500.0000	63.9675	16.74
12650.0000	62.2270	17.71
12800.0000	62.2912	26.42
13150.0000	61.3652	37.45
13200.0000	61.3294	41.94
13400.0000	59.8796	45.53
13600.0000	59.9316	65.79
13800.0000	58.9775	72.03
14000.0000	59.6321	77.89
14300.0000	58.7793	96.32
14500.0000	59.7695	95.51
14750.0000	59.3530	114.54
15000.0000	59.6597	121.44
15250.0000	61.4581	126.59
15500.0000	63.5044	136.84
15750.0000	65.0748	138.82
16000.0000	66.1033	132.85
16250.0000	65.7326	115.86
16500.0000	63.8097	103.29
16750.0000	61.6607	99.71
17000.0000	59.0233	103.91
17250.0000	58.1745	124.70
17500.0000	56.9688	113.50
17750.0000	56.0997	133.51
18000.0000	58.0628	158.35
18250.0000	57.3428	137.03
18500.0000	55.3164	134.88
18750.0000	52.5817	141.72
19000.0000	50.9839	158.71
19250.0000	43.6066	-166.00
19500.0000	46.2642	159.37
19750.0000	45.8370	-155.29
