* Measurement data measured by REW V5.20 Beta 47
* Source: Headset (USB-C to 3.5mm Headphone Jack Adapter), MICROPHONE (Master Volume), L, volume: 0.000
* Format: 256k Log Swept Sine, 1 sweep at -3.0 dBFS with no timing reference
* Dated: Jul 19, 2020 3:22:11 AM
* REW Settings:
*  C-weighting compensation: Off
*  Target level: 75.0 dB
* Note: ; 
* Measurement: Sony IER-Z1R L
* Smoothing: None
* Frequency Step: 1/48 octave
* Start Frequency: 20.000 Hz
*
* Freq(Hz)	SPL(dB)	Phase(degrees)
20.0000	91.3802	-159.31
20.3000	91.3894	-159.94
20.6000	91.3993	-160.47
20.9000	91.4131	-160.95
21.2000	91.4308	-161.44
21.4000	91.4391	-161.76
21.8000	91.4488	-162.32
22.0000	91.4551	-162.55
22.4000	91.4887	-162.94
22.7000	91.5361	-163.23
23.0000	91.5983	-163.64
23.3000	91.6595	-164.23
23.6000	91.7005	-164.94
24.0000	91.7075	-165.88
24.3000	91.6868	-166.41
24.7000	91.6581	-166.77
25.0000	91.6615	-166.86
25.4000	91.7137	-166.96
25.8000	91.7900	-167.28
26.2000	91.8500	-167.81
26.5000	91.8736	-168.21
26.9000	91.8851	-168.59
27.2000	91.8972	-168.75
27.6000	91.9350	-168.90
28.0000	91.9884	-169.15
28.5000	92.0468	-169.68
29.0000	92.0765	-170.28
29.5000	92.0934	-170.90
30.0000	92.0951	-171.61
30.4000	92.0707	-172.25
30.7000	92.0320	-172.68
31.1000	91.9692	-173.08
31.5000	91.9217	-173.31
32.0000	91.9050	-173.58
32.5000	91.9072	-174.13
33.0000	91.8838	-174.81
33.5000	91.8374	-175.33
34.0000	91.8123	-175.67
34.5000	91.8155	-176.08
35.0000	91.8043	-176.53
35.5000	91.7860	-176.69
36.0000	91.8306	-176.57
36.5000	91.9595	-176.78
37.0000	92.0735	-177.74
37.5000	92.0676	-179.00
38.2000	91.9182	-179.70
38.7000	91.8826	-179.43
39.5000	91.9721	-179.74
40.0000	91.9615	179.61
40.6000	91.8943	179.31
41.2000	91.9178	179.22
41.8000	91.9653	178.33
42.5000	91.8276	177.05
43.1000	91.6654	177.27
43.7000	91.7119	177.87
44.4000	91.8698	176.97
45.0000	91.8106	175.53
45.5000	91.6730	175.20
46.2000	91.6362	175.79
46.8000	91.7531	175.53
47.5000	91.7503	174.26
48.2000	91.6025	173.97
48.7000	91.5821	174.44
49.4000	91.7150	174.42
50.0000	91.7712	173.32
50.8000	91.6040	172.00
51.5000	91.4225	172.34
52.2000	91.4254	173.16
53.0000	91.5437	172.98
53.8000	91.5401	172.06
54.5000	91.4569	171.71
55.2000	91.4115	171.77
56.0000	91.4235	171.77
57.0000	91.4656	171.21
58.0000	91.4035	170.10
59.0000	91.2321	169.86
60.0000	91.2162	170.20
60.8000	91.2367	169.87
61.5000	91.2268	169.48
62.2000	91.2113	169.06
63.0000	91.1628	168.60
64.0000	91.1188	168.49
65.0000	91.1537	168.01
66.0000	91.0991	167.25
67.0000	91.0498	167.01
68.0000	91.0274	166.47
69.0000	90.9383	166.09
70.0000	90.8844	166.12
71.0000	90.8537	166.01
72.0000	90.8433	166.09
73.0000	90.8877	165.61
74.0000	90.8057	164.84
75.0000	90.7370	164.84
76.2000	90.6894	164.10
77.5000	90.5322	164.24
78.8000	90.5289	164.10
80.0000	90.4857	163.94
81.2000	90.4363	163.39
82.5000	90.3567	163.50
83.8000	90.3486	163.14
85.0000	90.3223	162.78
86.2000	90.2323	162.33
87.5000	90.1950	162.19
88.5000	90.0965	161.78
90.0000	90.0702	162.10
91.2000	90.0278	161.28
92.5000	89.9172	161.04
93.8000	89.8514	160.96
95.0000	89.8225	160.70
96.2000	89.7671	160.49
97.5000	89.7132	160.13
98.8000	89.6471	160.10
100.0000	89.6029	159.70
101.5000	89.4953	159.81
103.0000	89.4834	159.55
104.4000	89.3857	159.39
106.0000	89.3453	159.03
107.5000	89.2652	159.20
109.0000	89.2708	158.47
110.6000	89.1544	158.69
112.0000	89.1388	158.42
113.8000	89.0908	159.03
115.0000	88.9441	158.47
117.2000	88.9931	159.02
118.0000	88.8713	158.22
120.6000	88.6658	159.01
122.0000	88.6351	158.67
124.1000	88.5680	158.31
125.0000	88.5214	158.47
126.5000	88.4531	157.81
128.0000	88.4235	158.03
131.5000	88.2650	157.51
132.0000	88.1973	157.36
134.0000	88.1948	158.59
136.0000	88.0399	158.64
138.0000	87.9771	157.97
140.0000	87.8896	158.62
143.0000	87.7802	157.88
145.0000	87.7392	158.67
147.5000	87.6495	158.97
150.0000	87.4286	158.53
152.5000	87.3912	158.05
155.0000	87.2877	158.64
157.5000	87.1983	158.52
160.0000	87.1562	159.02
162.5000	87.0428	158.66
165.0000	86.9840	158.99
167.5000	86.8740	159.07
170.0000	86.8171	159.56
172.5000	86.7475	159.48
175.0000	86.5755	159.92
177.5000	86.5265	160.00
180.0000	86.3642	159.93
182.5000	86.3340	160.57
185.0000	86.3021	160.62
187.5000	86.1117	160.70
190.0000	86.0665	160.66
192.5000	86.0185	160.79
195.0000	85.8791	161.26
197.5000	85.8053	161.87
200.0000	85.7488	162.07
203.0000	85.6711	162.49
206.0000	85.5815	162.72
209.0000	85.4822	162.87
212.0000	85.3834	163.18
214.0000	85.3365	163.74
218.0000	85.2083	164.15
220.0000	85.1475	164.18
224.0000	85.0963	164.74
227.0000	85.0273	165.60
230.0000	84.8398	165.97
233.0000	84.9971	165.11
236.0000	84.7415	167.22
240.0000	84.7157	167.12
243.0000	84.5538	168.29
247.0000	84.6244	167.45
250.0000	84.7640	167.89
254.0000	84.4184	169.20
258.0000	84.2898	169.77
262.0000	84.2024	169.55
265.0000	84.1895	170.46
269.0000	84.0246	171.58
272.0000	84.0327	171.35
276.0000	84.0126	172.07
280.0000	84.0408	172.39
285.0000	83.9590	173.03
290.0000	83.8331	173.93
295.0000	83.7806	174.99
300.0000	83.6565	175.79
304.0000	83.6823	176.50
307.0000	83.6050	177.25
311.0000	83.4088	177.07
315.0000	83.5608	178.08
320.0000	83.4871	177.91
325.0000	83.5132	179.58
330.0000	83.3531	-178.79
335.0000	83.1167	-178.88
340.0000	83.2369	-178.61
345.0000	83.2400	-177.54
350.0000	83.1541	-176.91
355.0000	83.1975	-176.29
360.0000	83.1298	-175.03
365.0000	83.0648	-174.57
370.0000	83.0440	-173.96
375.0000	83.0203	-173.14
382.0000	82.9315	-172.07
387.0000	83.0333	-171.83
395.0000	83.0918	-170.14
400.0000	82.8588	-168.73
406.0000	82.9951	-169.63
412.0000	82.9114	-168.84
418.0000	82.8151	-168.02
425.0000	82.7443	-166.27
431.0000	82.7897	-165.77
437.0000	82.5860	-165.21
444.0000	82.7964	-164.82
450.0000	82.5961	-166.83
455.0000	82.8608	-162.54
462.0000	82.6728	-163.14
468.0000	82.6692	-161.61
475.0000	82.9810	-161.84
482.0000	82.6271	-159.44
487.0000	82.2092	-159.58
494.0000	82.8251	-159.28
500.0000	82.3291	-158.22
508.0000	82.4829	-156.34
515.0000	82.6770	-157.23
522.0000	82.5766	-155.97
530.0000	82.6182	-155.10
538.0000	82.6867	-154.89
545.0000	82.8047	-153.57
552.0000	82.7434	-152.46
560.0000	82.7162	-152.27
570.0000	82.6657	-150.68
580.0000	82.6790	-149.36
590.0000	82.8233	-150.68
600.0000	83.3676	-139.48
608.0000	82.1682	-147.18
615.0000	82.4542	-148.41
622.0000	82.9105	-146.49
630.0000	82.7455	-144.49
640.0000	83.0661	-145.44
650.0000	82.7707	-139.84
660.0000	83.1553	-138.90
670.0000	82.5209	-144.20
680.0000	82.9679	-136.71
690.0000	82.7890	-140.67
700.0000	82.9306	-138.11
710.0000	82.7178	-136.76
720.0000	83.0599	-137.33
730.0000	82.8988	-134.54
740.0000	83.3160	-133.90
750.0000	82.6667	-133.80
762.0000	83.1681	-133.93
775.0000	83.2813	-129.43
788.0000	82.8740	-125.34
800.0000	83.8315	-127.28
812.0000	84.1555	-130.07
825.0000	83.4649	-133.80
838.0000	83.2270	-128.74
850.0000	83.7190	-126.37
862.0000	83.5467	-124.58
875.0000	83.8839	-124.33
885.0000	83.3856	-122.98
900.0000	83.6323	-121.99
912.0000	83.7674	-121.62
925.0000	83.9548	-120.09
938.0000	83.6983	-119.08
950.0000	83.8772	-117.93
962.0000	83.9468	-117.08
975.0000	84.0240	-115.32
988.0000	84.2227	-114.39
1000.0000	84.1756	-113.97
1015.0000	84.2077	-112.82
1030.0000	84.3704	-111.94
1044.0000	84.3829	-110.88
1060.0000	84.4257	-109.95
1075.0000	84.5460	-109.09
1090.0000	84.7845	-108.18
1106.0000	84.8581	-107.51
1120.0000	84.9625	-106.71
1138.0000	85.2088	-105.45
1150.0000	85.2656	-105.02
1172.0000	85.3654	-104.37
1180.0000	85.5768	-104.43
1206.0000	85.7187	-103.27
1220.0000	85.7722	-103.14
1241.0000	86.0483	-102.16
1250.0000	86.1410	-101.68
1265.0000	86.0924	-101.37
1280.0000	86.1482	-100.79
1315.0000	86.3768	-100.56
1320.0000	86.4977	-100.85
1340.0000	86.4629	-100.86
1360.0000	86.7585	-99.45
1380.0000	86.9556	-100.31
1400.0000	86.8336	-98.11
1430.0000	87.1194	-99.60
1450.0000	87.2420	-99.46
1475.0000	87.4387	-97.20
1500.0000	87.3631	-97.00
1525.0000	87.5256	-96.90
1550.0000	87.5363	-97.43
1575.0000	87.7158	-96.12
1600.0000	87.7101	-96.45
1625.0000	87.8327	-94.76
1650.0000	87.8482	-95.92
1675.0000	87.9290	-96.34
1700.0000	88.0626	-95.35
1725.0000	88.0625	-95.47
1750.0000	88.1590	-95.03
1775.0000	88.1794	-95.30
1800.0000	88.0962	-94.77
1825.0000	88.1913	-94.77
1850.0000	88.2025	-94.13
1875.0000	88.1784	-93.89
1900.0000	88.2211	-93.61
1925.0000	88.2178	-93.27
1950.0000	88.2571	-93.06
1975.0000	88.2203	-92.72
2000.0000	88.1415	-92.81
2030.0000	88.2150	-92.14
2060.0000	88.1966	-91.82
2090.0000	88.1462	-91.46
2120.0000	88.1289	-91.22
2140.0000	88.0999	-91.04
2180.0000	87.9970	-90.77
2200.0000	87.9307	-90.66
2240.0000	87.7782	-90.59
2270.0000	87.6107	-90.73
2300.0000	87.4722	-91.12
2330.0000	87.1215	-90.90
2360.0000	86.9501	-90.32
2400.0000	86.5768	-88.40
2430.0000	86.3411	-87.26
2470.0000	86.1941	-83.64
2500.0000	86.0369	-81.95
2540.0000	85.9214	-78.96
2580.0000	85.8193	-76.66
2620.0000	85.8182	-74.12
2650.0000	85.7402	-72.39
2690.0000	85.6724	-70.01
2720.0000	85.6192	-68.05
2760.0000	85.5133	-65.38
2800.0000	85.4367	-62.36
2850.0000	85.3617	-58.49
2900.0000	85.3339	-54.39
2950.0000	85.3702	-49.97
3000.0000	85.5006	-44.98
3040.0000	85.7408	-41.27
3070.0000	85.8893	-38.86
3110.0000	86.1732	-35.13
3150.0000	86.5543	-31.86
3200.0000	87.0668	-28.18
3250.0000	87.5913	-25.30
3300.0000	88.2237	-23.25
3350.0000	88.8053	-21.24
3400.0000	89.4548	-20.20
3450.0000	90.0474	-19.67
3500.0000	90.5828	-19.79
3550.0000	91.1148	-20.68
3600.0000	91.5899	-21.12
3650.0000	92.0268	-22.53
3700.0000	92.3491	-24.13
3750.0000	92.6198	-25.48
3820.0000	92.8256	-27.33
3870.0000	92.9157	-29.22
3950.0000	93.0195	-30.82
4000.0000	92.9892	-32.16
4060.0000	92.9033	-33.03
4120.0000	92.8293	-33.63
4180.0000	92.7951	-34.38
4250.0000	92.7517	-34.85
4310.0000	92.6516	-34.60
4370.0000	92.6409	-35.21
4440.0000	92.5269	-36.10
4500.0000	92.4060	-36.11
4550.0000	92.1696	-36.65
4620.0000	92.0821	-37.09
4680.0000	91.7691	-38.00
4750.0000	91.1869	-37.80
4820.0000	90.9749	-35.49
4870.0000	90.8932	-34.34
4940.0000	90.4293	-33.01
5000.0000	90.2771	-31.08
5080.0000	89.8855	-27.88
5150.0000	89.5510	-24.60
5220.0000	89.4266	-21.90
5300.0000	89.2456	-17.01
5380.0000	89.3110	-12.41
5450.0000	89.4593	-8.10
5520.0000	89.8143	-4.16
5600.0000	90.0784	0.15
5700.0000	90.8563	5.21
5800.0000	91.5719	7.28
5900.0000	92.6319	6.69
6000.0000	93.2608	5.30
6080.0000	93.8258	2.90
6150.0000	94.0683	1.62
6220.0000	94.2424	-0.91
6300.0000	94.6834	-4.82
6400.0000	94.6054	-8.94
6500.0000	93.9358	-12.68
6600.0000	93.8385	-15.08
6700.0000	93.2861	-17.08
6800.0000	92.8068	-16.33
6900.0000	92.2214	-17.78
7000.0000	91.7529	-14.47
7100.0000	91.6479	-12.68
7200.0000	91.4882	-12.44
7300.0000	91.8980	-10.34
7400.0000	91.8981	-10.95
7500.0000	92.2004	-11.17
7620.0000	92.6965	-11.69
7750.0000	93.1515	-14.55
7880.0000	92.9909	-24.08
8000.0000	92.5440	-31.10
8120.0000	91.7885	-33.86
8250.0000	90.1656	-41.79
8380.0000	88.6697	-43.56
8500.0000	87.6428	-40.36
8620.0000	85.5759	-39.45
8750.0000	84.4651	-35.51
8850.0000	84.3053	-33.71
9000.0000	82.9129	-31.34
9120.0000	81.3454	-22.33
9250.0000	80.5532	-18.10
9380.0000	80.0365	-16.08
9500.0000	80.0575	-11.70
9620.0000	78.9269	-1.73
9750.0000	78.4331	2.36
9880.0000	77.9981	2.29
10000.0000	78.3005	6.16
10150.0000	78.3508	17.96
10300.0000	78.3793	19.51
10440.0000	77.6448	21.26
10600.0000	77.7823	28.25
10750.0000	79.1521	30.48
10900.0000	79.7623	30.48
11060.0000	79.3186	27.75
11200.0000	79.8007	23.97
11380.0000	81.2235	19.68
11500.0000	80.3730	22.66
11720.0000	79.6976	5.78
11800.0000	80.5004	-0.14
12060.0000	78.2322	-3.90
12200.0000	76.4497	-18.92
12410.0000	75.7451	-22.58
12500.0000	73.6623	-19.15
12650.0000	73.3618	-8.46
12800.0000	73.1938	-7.18
13150.0000	71.2468	1.02
13200.0000	71.4495	-16.18
13400.0000	71.7926	-3.49
13600.0000	70.0443	-7.26
13800.0000	69.7342	-3.67
14000.0000	71.6634	-0.16
14300.0000	70.7593	16.32
14500.0000	71.7874	17.02
14750.0000	76.8546	-9.85
15000.0000	77.9355	-34.89
15250.0000	78.5058	-53.89
15500.0000	74.5117	-92.91
15750.0000	72.0260	-89.41
16000.0000	64.5328	-83.59
16250.0000	63.3871	-76.55
16500.0000	64.4266	-107.25
16750.0000	62.2665	-70.44
17000.0000	61.1053	-75.72
17250.0000	62.5199	-119.53
17500.0000	58.7926	-93.73
17750.0000	56.9918	-109.51
18000.0000	58.9911	-170.72
18250.0000	53.7870	-143.25
18500.0000	50.0021	-150.31
18750.0000	42.3569	156.68
19000.0000	45.6008	-175.58
19250.0000	37.4254	-152.91
19500.0000	43.9496	-97.78
19750.0000	44.9964	-62.91
