* Measurement data measured by REW V5.20 Beta 47
* Source: Headset (USB-C to 3.5mm Headphone Jack Adapter), MICROPHONE (Master Volume), L, volume: 0.000
* Format: 256k Log Swept Sine, 1 sweep at -3.0 dBFS with no timing reference
* Dated: May 24, 2020 5:01:02 PM
* REW Settings:
*  C-weighting compensation: Off
*  Target level: 75.0 dB
* Note: ; 
* Measurement: Sony IER-Z1R R
* Smoothing: None
* Frequency Step: 1/48 octave
* Start Frequency: 20.000 Hz
*
* Freq(Hz)	SPL(dB)	Phase(degrees)
20.0000	90.1105	-158.82
20.3000	90.1533	-159.30
20.6000	90.2038	-159.75
20.9000	90.2607	-160.22
21.2000	90.3209	-160.78
21.4000	90.3545	-161.20
21.8000	90.3976	-162.08
22.0000	90.4065	-162.51
22.4000	90.4078	-163.26
22.7000	90.4029	-163.66
23.0000	90.4074	-163.95
23.3000	90.4303	-164.21
23.6000	90.4673	-164.51
24.0000	90.5245	-165.04
24.3000	90.5614	-165.56
24.7000	90.5907	-166.31
25.0000	90.5979	-166.84
25.4000	90.6000	-167.47
25.8000	90.6030	-168.00
26.2000	90.6142	-168.49
26.5000	90.6264	-168.87
26.9000	90.6410	-169.38
27.2000	90.6510	-169.75
27.6000	90.6668	-170.21
28.0000	90.6859	-170.66
28.5000	90.7153	-171.28
29.0000	90.7380	-171.95
29.5000	90.7496	-172.64
30.0000	90.7503	-173.25
30.4000	90.7501	-173.71
30.7000	90.7494	-174.03
31.1000	90.7487	-174.44
31.5000	90.7496	-174.83
32.0000	90.7537	-175.29
32.5000	90.7657	-175.77
33.0000	90.7797	-176.28
33.5000	90.7888	-176.82
34.0000	90.7892	-177.37
34.5000	90.7880	-177.89
35.0000	90.7821	-178.37
35.5000	90.7749	-178.79
36.0000	90.7718	-179.15
36.5000	90.7770	-179.51
37.0000	90.7839	-179.93
37.5000	90.7814	179.62
38.2000	90.7561	179.07
38.7000	90.7404	178.78
39.5000	90.7382	178.27
40.0000	90.7328	177.89
40.6000	90.7176	177.45
41.2000	90.7145	177.02
41.8000	90.7219	176.47
42.5000	90.7086	175.71
43.1000	90.6794	175.13
43.7000	90.6540	174.66
44.4000	90.6314	174.20
45.0000	90.6257	173.91
45.5000	90.6382	173.65
46.2000	90.6468	173.14
46.8000	90.6168	172.79
47.5000	90.6010	172.78
48.2000	90.6494	172.60
48.7000	90.6646	172.09
49.4000	90.5907	171.45
50.0000	90.5089	171.43
50.8000	90.5013	171.49
51.5000	90.5123	171.04
52.2000	90.4755	170.50
53.0000	90.4445	170.07
53.8000	90.4538	169.39
54.5000	90.4206	168.46
55.2000	90.3214	167.81
56.0000	90.2435	167.77
57.0000	90.2770	167.44
58.0000	90.2407	166.77
59.0000	90.2288	166.37
60.0000	90.1710	165.72
60.8000	90.1387	165.64
61.5000	90.1585	165.14
62.2000	90.0844	164.42
63.0000	89.9908	164.49
64.0000	90.0470	164.04
65.0000	89.9104	163.26
66.0000	89.9142	163.69
67.0000	89.9304	162.53
68.0000	89.7815	162.58
69.0000	89.8684	162.35
70.0000	89.7314	161.25
71.0000	89.6416	161.89
72.0000	89.7252	161.31
73.0000	89.6134	160.44
74.0000	89.5327	160.53
75.0000	89.5629	160.41
76.2000	89.5549	159.31
77.5000	89.4090	159.22
78.8000	89.4369	158.69
80.0000	89.3212	158.67
81.2000	89.3678	158.04
82.5000	89.1774	157.84
83.8000	89.2622	157.39
85.0000	89.1097	156.38
86.2000	88.9943	156.35
87.5000	88.9776	156.75
88.5000	89.0236	156.20
90.0000	88.9334	155.96
91.2000	88.9135	155.28
92.5000	88.7289	155.13
93.8000	88.7302	155.48
95.0000	88.7149	154.43
96.2000	88.5810	154.76
97.5000	88.7062	153.75
98.8000	88.4298	154.33
100.0000	88.7586	153.76
101.5000	88.2209	153.03
103.0000	88.4975	153.40
104.4000	88.1977	153.03
106.0000	88.2010	152.72
107.5000	88.1042	152.45
109.0000	88.0808	152.02
110.6000	87.9328	151.45
112.0000	87.9824	151.31
113.8000	88.0103	151.96
115.0000	87.9251	150.64
117.2000	87.6813	150.68
118.0000	87.4791	150.87
120.6000	87.5988	152.53
122.0000	87.7452	151.37
124.1000	87.6869	151.00
125.0000	87.5961	151.84
126.5000	87.4837	152.43
128.0000	87.2676	152.25
131.5000	86.9035	150.28
132.0000	86.9146	149.96
134.0000	86.9658	149.01
136.0000	87.0276	149.49
138.0000	86.8173	149.34
140.0000	86.7378	150.12
143.0000	86.6309	148.90
145.0000	86.6158	148.58
147.5000	86.5086	148.90
150.0000	86.4125	148.35
152.5000	86.2183	148.26
155.0000	86.1947	148.86
157.5000	86.0653	149.45
160.0000	86.0789	149.96
162.5000	85.8927	148.91
165.0000	85.8567	148.79
167.5000	85.8567	148.89
170.0000	85.6936	149.20
172.5000	85.5097	147.58
175.0000	85.3885	145.63
177.5000	85.3025	146.33
180.0000	85.4144	147.55
182.5000	85.1566	148.97
185.0000	85.1194	148.89
187.5000	84.9843	147.00
190.0000	85.1759	148.03
192.5000	85.2351	147.96
195.0000	84.9873	150.25
197.5000	84.9457	151.04
200.0000	84.6453	150.80
203.0000	84.5847	152.00
206.0000	84.4195	149.40
209.0000	84.5058	148.98
212.0000	84.5819	153.79
214.0000	84.5536	153.27
218.0000	83.8790	149.13
220.0000	84.0675	149.99
224.0000	84.1798	151.53
227.0000	84.2365	150.24
230.0000	83.9226	150.62
233.0000	83.6371	152.93
236.0000	83.5821	152.36
240.0000	83.7303	153.56
243.0000	83.7063	154.71
247.0000	83.4828	153.74
250.0000	83.6348	153.18
254.0000	83.6076	153.12
258.0000	83.6186	155.24
262.0000	83.0921	155.11
265.0000	83.1329	155.44
269.0000	82.9458	156.33
272.0000	82.8180	154.08
276.0000	83.0618	154.79
280.0000	82.7987	156.16
285.0000	82.7829	154.94
290.0000	82.9578	156.43
295.0000	82.7051	158.41
300.0000	82.5660	157.78
304.0000	82.5958	158.57
307.0000	82.5299	158.69
311.0000	82.5520	159.15
315.0000	82.4877	159.69
320.0000	82.3519	159.83
325.0000	82.3532	160.33
330.0000	82.2934	160.92
335.0000	82.2481	161.43
340.0000	82.2149	162.20
345.0000	82.1772	162.15
350.0000	82.1424	162.89
355.0000	82.0733	163.27
360.0000	82.0201	163.69
365.0000	81.9630	164.32
370.0000	81.9952	164.82
375.0000	81.9422	165.17
382.0000	81.8966	165.69
387.0000	81.8294	166.20
395.0000	81.8168	166.93
400.0000	81.8071	167.27
406.0000	81.7897	167.89
412.0000	81.7710	168.18
418.0000	81.6875	168.54
425.0000	81.7764	169.48
431.0000	81.6756	169.94
437.0000	81.7613	170.16
444.0000	81.6742	170.74
450.0000	81.6887	171.45
455.0000	81.6523	171.50
462.0000	81.6790	172.11
468.0000	81.6473	172.59
475.0000	81.6263	172.98
482.0000	81.6069	173.22
487.0000	81.6358	173.61
494.0000	81.6782	173.76
500.0000	81.5987	174.42
508.0000	81.6175	174.98
515.0000	81.6184	175.54
522.0000	81.6478	175.94
530.0000	81.6265	176.19
538.0000	81.6144	176.69
545.0000	81.6374	177.19
552.0000	81.6280	177.64
560.0000	81.5884	178.12
570.0000	81.5931	178.55
580.0000	81.6043	179.36
590.0000	81.6322	179.60
600.0000	81.6273	-179.69
608.0000	81.6394	-179.53
615.0000	81.6110	-178.32
622.0000	81.6008	-178.68
630.0000	81.6186	-178.31
640.0000	81.6340	-177.37
650.0000	81.6318	-177.23
660.0000	81.7201	-176.04
670.0000	81.6625	-175.77
680.0000	81.6510	-175.05
690.0000	81.6919	-174.47
700.0000	81.6725	-174.23
710.0000	81.7313	-173.68
720.0000	81.7179	-172.56
730.0000	81.8624	-172.05
740.0000	81.8012	-171.67
750.0000	81.8891	-170.74
762.0000	81.8638	-169.93
775.0000	82.0273	-167.91
788.0000	82.4648	-167.67
800.0000	82.6085	-169.47
812.0000	82.4003	-170.66
825.0000	82.2433	-169.70
838.0000	82.2488	-169.01
850.0000	82.2291	-168.23
862.0000	82.2571	-167.42
875.0000	82.2789	-167.04
885.0000	82.2878	-166.12
900.0000	82.3703	-165.49
912.0000	82.3943	-164.97
925.0000	82.4359	-164.42
938.0000	82.5550	-164.14
950.0000	82.6062	-163.10
962.0000	82.6249	-162.57
975.0000	82.7367	-162.31
988.0000	82.7717	-161.50
1000.0000	82.9697	-161.01
1015.0000	82.9985	-160.75
1030.0000	83.0283	-160.15
1044.0000	83.1075	-159.79
1060.0000	83.2177	-159.54
1075.0000	83.3342	-158.94
1090.0000	83.4467	-158.41
1106.0000	83.5069	-159.26
1120.0000	83.6130	-158.34
1138.0000	83.6979	-158.65
1150.0000	83.8827	-157.91
1172.0000	84.0521	-157.65
1180.0000	84.0697	-157.87
1206.0000	84.4640	-157.22
1220.0000	84.3856	-157.00
1241.0000	84.5603	-157.41
1250.0000	84.5641	-157.27
1265.0000	84.7190	-157.45
1280.0000	84.8281	-157.46
1315.0000	85.0538	-157.65
1320.0000	85.0630	-157.64
1340.0000	85.2467	-157.94
1360.0000	85.4563	-157.31
1380.0000	85.5298	-158.66
1400.0000	85.7275	-159.14
1430.0000	85.7439	-159.20
1450.0000	85.8510	-159.37
1475.0000	85.9569	-159.95
1500.0000	86.0411	-160.28
1525.0000	86.1319	-160.89
1550.0000	86.1736	-161.30
1575.0000	86.4416	-161.77
1600.0000	86.5190	-162.32
1625.0000	86.4480	-162.82
1650.0000	86.5618	-163.23
1675.0000	86.6243	-163.61
1700.0000	86.6757	-164.36
1725.0000	86.6989	-164.76
1750.0000	86.7825	-165.25
1775.0000	86.8016	-165.73
1800.0000	86.8317	-166.13
1825.0000	86.8701	-166.62
1850.0000	86.8947	-167.08
1875.0000	86.9046	-167.48
1900.0000	86.9207	-167.83
1925.0000	86.9294	-168.22
1950.0000	86.9359	-168.71
1975.0000	86.9111	-169.12
2000.0000	86.8472	-169.72
2030.0000	86.9079	-169.86
2060.0000	86.9036	-170.27
2090.0000	86.8785	-170.70
2120.0000	86.8570	-171.15
2140.0000	86.8450	-171.48
2180.0000	86.7766	-172.12
2200.0000	86.7358	-172.41
2240.0000	86.6440	-173.34
2270.0000	86.5275	-174.19
2300.0000	86.3975	-175.30
2330.0000	86.2431	-176.21
2360.0000	86.0369	-177.02
2400.0000	85.7474	-177.49
2430.0000	85.5098	-177.27
2470.0000	85.2075	-176.24
2500.0000	85.0330	-175.17
2540.0000	84.7965	-173.53
2580.0000	84.6413	-171.89
2620.0000	84.5083	-170.08
2650.0000	84.4380	-168.64
2690.0000	84.3446	-166.75
2720.0000	84.2775	-165.45
2760.0000	84.2026	-163.42
2800.0000	84.1268	-161.21
2850.0000	84.0830	-158.25
2900.0000	84.0923	-154.61
2950.0000	84.2433	-151.04
3000.0000	84.4808	-147.18
3040.0000	84.7390	-144.93
3070.0000	84.9796	-143.00
3110.0000	85.3862	-140.80
3150.0000	85.8225	-139.23
3200.0000	86.3768	-137.55
3250.0000	86.9838	-136.40
3300.0000	87.5284	-136.07
3350.0000	88.1501	-136.49
3400.0000	88.6573	-137.64
3450.0000	89.1550	-139.02
3500.0000	89.6239	-140.51
3550.0000	89.9631	-142.29
3600.0000	90.3185	-144.75
3650.0000	90.5217	-147.00
3700.0000	90.7006	-149.13
3750.0000	90.8399	-151.44
3820.0000	90.9898	-154.17
3870.0000	90.9796	-155.54
3950.0000	90.9713	-158.65
4000.0000	90.8925	-160.15
4060.0000	90.8950	-160.98
4120.0000	90.8534	-162.33
4180.0000	90.7469	-163.45
4250.0000	90.6747	-164.57
4310.0000	90.7282	-165.99
4370.0000	90.6311	-167.28
4440.0000	90.5270	-168.23
4500.0000	90.5044	-169.78
4550.0000	90.4725	-170.01
4620.0000	90.2513	-172.01
4680.0000	90.1042	-172.50
4750.0000	89.8927	-173.60
4820.0000	89.4843	-174.26
4870.0000	89.2718	-174.42
4940.0000	89.1279	-173.30
5000.0000	88.8741	-173.54
5080.0000	88.6695	-171.82
5150.0000	88.5366	-169.62
5220.0000	88.3174	-167.12
5300.0000	88.4369	-164.44
5380.0000	88.5339	-161.76
5450.0000	88.7048	-159.66
5520.0000	88.8912	-158.25
5600.0000	89.3601	-156.16
5700.0000	89.9768	-155.49
5800.0000	90.5854	-155.31
5900.0000	91.0433	-156.94
6000.0000	91.6416	-158.43
6080.0000	92.0403	-161.39
6150.0000	92.4676	-164.02
6220.0000	92.7661	-168.21
6300.0000	92.6775	-172.50
6400.0000	92.7661	-177.49
6500.0000	92.8393	178.53
6600.0000	92.3719	173.30
6700.0000	92.0045	169.77
6800.0000	91.8425	167.92
6900.0000	91.3931	168.16
7000.0000	91.3318	165.39
7100.0000	91.1421	165.07
7200.0000	90.8540	165.45
7300.0000	90.9664	162.29
7400.0000	90.8424	162.90
7500.0000	91.1241	162.36
7620.0000	91.2014	159.23
7750.0000	91.8627	151.21
7880.0000	91.6071	146.57
8000.0000	91.2307	138.21
8120.0000	90.7087	129.82
8250.0000	89.2057	124.81
8380.0000	87.8306	120.86
8500.0000	86.6741	117.32
8620.0000	85.8683	119.80
8750.0000	84.9767	119.75
8850.0000	83.4686	118.81
9000.0000	82.1731	124.28
9120.0000	82.1010	126.21
9250.0000	81.3558	128.89
9380.0000	80.1031	135.96
9500.0000	79.1781	135.62
9620.0000	79.5234	138.64
9750.0000	79.5686	142.11
9880.0000	78.8179	147.56
10000.0000	78.0866	149.83
10150.0000	78.7789	146.23
10300.0000	78.1391	146.47
10440.0000	78.5765	153.97
10600.0000	80.0087	150.41
10750.0000	79.8487	141.76
10900.0000	80.0543	138.89
11060.0000	80.8715	137.14
11200.0000	81.4609	125.86
11380.0000	80.4280	100.49
11500.0000	80.8828	91.30
11720.0000	79.1476	83.74
11800.0000	77.1930	70.66
12060.0000	75.9366	64.96
12200.0000	73.7610	71.00
12410.0000	72.3733	68.07
12500.0000	73.2350	72.13
12650.0000	73.4229	63.13
12800.0000	72.6216	62.39
13150.0000	71.9049	63.93
13200.0000	69.9610	76.41
13400.0000	70.4622	63.82
13600.0000	69.9787	83.55
13800.0000	70.6794	86.13
14000.0000	69.5924	72.54
14300.0000	73.6081	75.57
14500.0000	74.2295	74.50
14750.0000	72.5923	63.82
15000.0000	74.3142	51.48
15250.0000	75.4007	-8.66
15500.0000	70.5407	-18.13
15750.0000	67.7397	-55.14
16000.0000	68.7464	-44.29
16250.0000	68.2490	-58.03
16500.0000	63.9592	-56.63
16750.0000	67.4400	-80.22
17000.0000	68.1374	-88.65
17250.0000	63.2663	-86.49
17500.0000	68.5531	-102.02
17750.0000	69.2452	-115.80
18000.0000	64.2786	-127.98
18250.0000	70.0417	-159.65
18500.0000	69.0916	165.65
18750.0000	65.6174	175.98
19000.0000	64.1597	108.44
19250.0000	55.9643	92.52
19500.0000	57.9606	60.34
19750.0000	62.1806	72.81
