* Measurement data measured by REW V5.20 Beta 60
* Source: Headset (USB-C to 3.5mm Headphone Jack Adapter), MICROPHONE (Master Volume), R, volume: 0.258
* Format: 256k Log Swept Sine, 1 sweep at -8.0 dBFS with no timing reference
* Dated: Jun 19, 2021 6:43:59 PM
* REW Settings:
*  C-weighting compensation: Off
*  Target level: 75.0 dB
* Note: ; 
* Measurement: Noise cancelling L
* Smoothing: None
* Frequency Step: 1/48 octave
* Start Frequency: 20.000 Hz
*
* Freq(Hz)	SPL(dB)	Phase(degrees)
20.000000	89.101326	-165.9550
20.299999	89.070023	-166.3356
20.600000	89.053436	-166.6059
20.900000	89.054443	-166.8298
21.200001	89.075035	-167.0965
21.400000	89.093178	-167.3219
21.799999	89.128349	-167.8855
22.000000	89.140305	-168.2173
22.400000	89.146233	-168.9416
22.700001	89.128769	-169.4283
23.000000	89.097794	-169.7901
23.299999	89.066772	-170.0046
23.600000	89.044510	-170.0772
24.000000	89.040817	-170.0387
24.299999	89.061089	-170.0143
24.700001	89.108521	-170.0842
25.000000	89.147865	-170.2360
25.400000	89.196381	-170.5519
25.799999	89.233818	-170.9140
26.200001	89.265732	-171.3135
26.500000	89.287201	-171.6586
26.900000	89.304604	-172.1812
27.200001	89.304131	-172.6068
27.600000	89.282104	-173.1418
28.000000	89.241089	-173.5250
28.500000	89.200920	-173.7423
29.000000	89.210167	-173.8484
29.500000	89.265625	-174.1922
30.000000	89.313560	-174.8944
30.400000	89.320030	-175.5874
30.700001	89.303658	-176.0616
31.100000	89.268509	-176.5390
31.500000	89.237900	-176.8368
32.000000	89.223740	-177.0467
32.500000	89.238548	-177.2342
33.000000	89.268532	-177.4505
33.500000	89.306824	-177.7127
34.000000	89.347198	-178.0386
34.500000	89.382095	-178.4583
35.000000	89.392639	-178.8950
35.500000	89.378403	-179.2149
36.000000	89.356949	-179.3176
36.500000	89.352531	-179.2630
37.000000	89.377441	-179.2034
37.500000	89.423485	-179.3112
38.200001	89.469833	-179.8296
38.700001	89.462204	179.6750
39.500000	89.399597	179.1563
40.000000	89.367935	179.0611
40.599998	89.361794	178.9482
41.200001	89.371819	178.6459
41.799999	89.367409	178.2144
42.500000	89.342911	177.8027
43.099998	89.335999	177.5385
43.700001	89.343018	177.1979
44.400002	89.338829	176.7192
45.000000	89.328300	176.4006
45.500000	89.331619	176.1634
46.200001	89.336823	175.7160
46.799999	89.311516	175.3298
47.500000	89.275864	175.1864
48.200001	89.286781	175.1498
48.700001	89.307457	174.9337
49.400002	89.302559	174.4865
50.000000	89.270401	174.2268
50.799999	89.236465	174.0140
51.500000	89.217064	173.9334
52.200001	89.230339	173.8626
53.000000	89.269897	173.3208
53.799999	89.222908	172.4688
54.500000	89.135521	172.1912
55.200001	89.110062	172.1701
56.000000	89.113380	171.7721
57.000000	89.057884	171.2705
58.000000	89.036613	171.0160
59.000000	89.016113	170.6371
60.000000	89.006493	170.2895
60.799999	88.965988	169.8962
61.500000	88.916992	169.8322
62.200001	88.915024	169.8346
63.000000	88.916443	169.4406
64.000000	88.846863	169.0282
65.000000	88.818253	168.7754
66.000000	88.753960	168.3101
67.000000	88.705627	168.2872
68.000000	88.710190	167.9971
69.000000	88.689331	167.6370
70.000000	88.662872	167.2923
71.000000	88.617973	167.1299
72.000000	88.617500	166.9849
73.000000	88.578484	166.5651
74.000000	88.527527	166.5197
75.000000	88.523911	166.2775
76.199997	88.465569	165.8581
77.500000	88.414154	165.6001
78.800003	88.360802	165.3979
80.000000	88.329521	165.1641
81.199997	88.281906	164.9528
82.500000	88.232986	164.7318
83.800003	88.198158	164.5775
85.000000	88.161438	164.2462
86.199997	88.116295	164.0603
87.500000	88.066650	163.8440
88.500000	88.044327	163.8061
90.000000	87.988983	163.4184
91.199997	87.929306	163.4339
92.500000	87.885498	163.1948
93.800003	87.830566	163.0413
95.000000	87.786377	162.7290
96.199997	87.740646	162.5319
97.500000	87.682671	162.2742
98.800003	87.649040	162.3790
100.000000	87.627716	162.2111
101.500000	87.570618	162.2183
103.000000	87.536888	162.1207
104.400002	87.441078	161.7814
106.000000	87.397552	162.0285
107.500000	87.336792	161.5804
109.000000	87.289085	161.7040
110.599998	87.245110	161.5702
112.000000	87.206139	161.5253
113.800003	87.130821	161.4293
115.000000	87.102005	161.4213
117.199997	87.030029	161.2571
118.000000	87.013214	161.2817
120.599998	86.925034	161.2560
122.000000	86.911781	161.2253
124.099998	86.820335	161.1773
125.000000	86.795845	161.1021
126.500000	86.743851	161.1364
128.000000	86.709587	161.1441
131.500000	86.636902	161.3661
132.000000	86.627045	161.1282
134.000000	86.491188	161.0917
136.000000	86.462868	161.0853
138.000000	86.404755	161.2047
140.000000	86.367996	161.1304
143.000000	86.266251	161.2148
145.000000	86.204674	161.2324
147.500000	86.136337	161.2422
150.000000	86.102081	161.3787
152.500000	85.998230	161.3415
155.000000	85.945625	161.3078
157.500000	85.965500	161.3365
160.000000	85.878143	161.3777
162.500000	85.810005	161.6951
165.000000	85.775909	161.7783
167.500000	85.731445	161.9819
170.000000	85.679840	161.9795
172.500000	85.590576	162.0339
175.000000	85.515404	161.9707
177.500000	85.503342	162.1171
180.000000	85.464066	162.3228
182.500000	85.413361	162.4827
185.000000	85.363594	162.7899
187.500000	85.305573	162.9623
190.000000	85.254745	163.1617
192.500000	85.205498	163.3099
195.000000	85.147385	163.4233
197.500000	85.108078	163.6698
200.000000	85.066193	163.7728
203.000000	85.002876	164.0739
206.000000	84.958214	164.3822
209.000000	84.911400	164.5780
212.000000	84.875969	164.6545
214.000000	84.842896	164.7505
218.000000	84.804100	165.0734
220.000000	84.786278	165.2043
224.000000	84.730400	165.4817
227.000000	84.721191	165.6210
230.000000	84.698296	165.7034
233.000000	84.669594	165.9403
236.000000	84.641899	166.0684
240.000000	84.608902	166.3959
243.000000	84.563522	166.5025
247.000000	84.540298	166.7096
250.000000	84.512245	166.7746
254.000000	84.475891	167.2306
258.000000	84.433113	167.4592
262.000000	84.408836	167.7316
265.000000	84.378571	167.9559
269.000000	84.332977	168.1550
272.000000	84.313324	168.2749
276.000000	84.298126	168.5703
280.000000	84.284683	168.8016
285.000000	84.257248	169.0736
290.000000	84.228363	169.3157
295.000000	84.199448	169.5431
300.000000	84.185303	169.8657
304.000000	84.148666	170.1847
307.000000	84.145164	170.1964
311.000000	84.127556	170.4644
315.000000	84.093140	170.5344
320.000000	84.064827	170.8462
325.000000	84.048111	171.0701
330.000000	84.027725	171.3438
335.000000	84.001984	171.4807
340.000000	83.982826	171.7207
345.000000	83.963600	171.8822
350.000000	83.965103	172.0596
355.000000	83.922371	172.2773
360.000000	83.872528	172.4332
365.000000	83.858376	172.6162
370.000000	83.826996	172.6146
375.000000	83.813629	172.7352
382.000000	83.779488	172.9138
387.000000	83.755905	173.0121
395.000000	83.724808	173.0849
400.000000	83.680519	173.4714
406.000000	83.680099	173.3768
412.000000	83.629135	173.5004
418.000000	83.591766	173.7755
425.000000	83.563354	173.9161
431.000000	83.516891	174.0023
437.000000	83.500900	174.2050
444.000000	83.476074	174.4597
450.000000	83.455292	174.8203
455.000000	83.422668	174.8720
462.000000	83.385750	174.8940
468.000000	83.340141	174.8441
475.000000	83.191582	175.2939
482.000000	83.173111	176.0568
487.000000	83.155403	176.0119
494.000000	83.162476	176.4930
500.000000	83.161972	176.8057
508.000000	83.107925	177.1929
515.000000	83.066727	177.5580
522.000000	83.044266	177.8515
530.000000	83.008575	178.0473
538.000000	82.933777	177.9372
545.000000	82.716240	179.2172
552.000000	82.807571	-179.5721
560.000000	82.844215	-179.0637
570.000000	82.844391	-178.4855
580.000000	82.846077	-177.9407
590.000000	82.833626	-177.3248
600.000000	82.829842	-176.7740
608.000000	82.826797	-176.2852
615.000000	82.833633	-175.8485
622.000000	82.839958	-175.5374
630.000000	82.856705	-175.0618
640.000000	82.859261	-174.6021
650.000000	82.873787	-174.0334
660.000000	82.874771	-173.5929
670.000000	82.893265	-173.1517
680.000000	82.892319	-172.8817
690.000000	82.895020	-172.4750
700.000000	82.883331	-172.1848
710.000000	82.912323	-171.7308
720.000000	82.898102	-171.4134
730.000000	82.916382	-170.9605
740.000000	82.930550	-170.5999
750.000000	82.919907	-170.1184
762.000000	82.918213	-169.6628
775.000000	82.913704	-169.1667
788.000000	82.930519	-168.5093
800.000000	82.922653	-168.0986
812.000000	82.901527	-167.3889
825.000000	82.913521	-166.7833
838.000000	82.920380	-166.1816
850.000000	82.908943	-165.6817
862.000000	82.917877	-165.2029
875.000000	82.917000	-164.5895
885.000000	82.920212	-164.3087
900.000000	82.933304	-163.7004
912.000000	82.943779	-163.2550
925.000000	82.959740	-162.6476
938.000000	82.970474	-162.0812
950.000000	83.006592	-161.6555
962.000000	83.030754	-161.2193
975.000000	83.059700	-160.6492
988.000000	83.114548	-160.2216
1000.000000	83.215157	-159.5020
1015.000000	83.176216	-159.0937
1030.000000	83.209595	-158.5274
1044.000000	83.258690	-157.9817
1060.000000	83.317245	-157.1895
1075.000000	83.365173	-156.5128
1090.000000	83.464508	-155.7871
1106.000000	83.537781	-155.0184
1120.000000	83.618088	-154.5189
1138.000000	83.703629	-153.7625
1150.000000	83.774620	-153.4037
1172.000000	83.871475	-152.8944
1180.000000	83.908279	-152.6090
1206.000000	84.030357	-152.1941
1220.000000	84.109039	-151.7907
1241.000000	84.216713	-151.4901
1250.000000	84.248413	-151.2280
1265.000000	84.326187	-150.9439
1280.000000	84.413925	-150.7658
1315.000000	84.554977	-150.1104
1320.000000	84.582222	-149.9641
1340.000000	84.645851	-149.8335
1360.000000	84.729210	-149.3622
1380.000000	84.794113	-148.9232
1400.000000	84.905960	-148.4879
1430.000000	84.981110	-147.8842
1450.000000	85.056442	-147.5653
1475.000000	85.144951	-147.1048
1500.000000	85.243813	-146.5954
1525.000000	85.311348	-146.1285
1550.000000	85.436165	-145.4382
1575.000000	85.519096	-144.9595
1600.000000	85.637589	-144.3219
1625.000000	85.756760	-143.8197
1650.000000	85.868690	-143.1436
1675.000000	85.956917	-142.7529
1700.000000	86.094749	-141.9767
1725.000000	86.249039	-141.3912
1750.000000	86.365143	-140.9038
1775.000000	86.510811	-140.6226
1800.000000	86.647903	-140.4730
1825.000000	86.794495	-140.2633
1850.000000	86.954277	-140.1310
1875.000000	87.119904	-140.0010
1900.000000	87.281197	-139.9925
1925.000000	87.454407	-139.9665
1950.000000	87.620300	-139.9954
1975.000000	87.770218	-140.1632
2000.000000	87.875847	-140.5986
2030.000000	88.156837	-140.5038
2060.000000	88.357773	-140.8881
2090.000000	88.565331	-141.2104
2120.000000	88.780830	-141.4182
2140.000000	88.947891	-141.5507
2180.000000	89.180115	-142.1238
2200.000000	89.303299	-142.3839
2240.000000	89.557892	-143.2086
2270.000000	89.713623	-143.8080
2300.000000	89.861076	-144.7516
2330.000000	90.015900	-145.9415
2360.000000	90.089027	-147.4167
2400.000000	90.204865	-148.9994
2430.000000	90.295609	-150.1217
2470.000000	90.340271	-151.1123
2500.000000	90.385941	-152.1561
2540.000000	90.367004	-152.9301
2580.000000	90.394768	-153.9888
2620.000000	90.359596	-154.4194
2650.000000	90.375862	-155.1129
2690.000000	90.377556	-155.7527
2720.000000	90.360161	-156.3873
2760.000000	90.340065	-157.3383
2800.000000	90.350105	-158.3290
2850.000000	90.346832	-158.9147
2900.000000	90.396324	-159.4782
2950.000000	90.363091	-160.3752
3000.000000	90.381271	-160.6658
3040.000000	90.430573	-161.5016
3070.000000	90.368065	-162.1138
3110.000000	90.366615	-162.8473
3150.000000	90.362305	-163.2554
3200.000000	90.272972	-164.6320
3250.000000	90.183868	-165.6367
3300.000000	90.169319	-166.4568
3350.000000	90.000351	-167.0715
3400.000000	89.880402	-167.9954
3450.000000	89.762878	-168.4646
3500.000000	89.657402	-169.1188
3550.000000	89.518951	-170.1199
3600.000000	89.394684	-170.5609
3650.000000	89.320808	-171.4184
3700.000000	89.206482	-172.2387
3750.000000	89.084930	-172.7941
3820.000000	88.851280	-173.6706
3870.000000	88.682739	-175.0138
3950.000000	87.774017	-175.2888
4000.000000	88.845581	-161.7985
4060.000000	88.895767	-170.9200
4120.000000	88.585922	-172.3021
4180.000000	87.880783	-170.4364
4250.000000	89.129982	-167.1875
4310.000000	88.960533	-169.8406
4370.000000	89.012169	-170.9002
4440.000000	88.911430	-172.5230
4500.000000	88.836113	-173.3286
4550.000000	88.700867	-174.7653
4620.000000	88.720459	-175.7231
4680.000000	88.646194	-177.3851
4750.000000	88.474716	-178.4156
4820.000000	88.525269	-179.3198
4870.000000	88.410049	-179.1729
4940.000000	88.233475	179.7996
5000.000000	88.222122	-179.2861
5080.000000	88.096802	-179.9048
5150.000000	87.883095	179.6450
5220.000000	87.958977	179.0182
5300.000000	87.673767	178.3308
5380.000000	87.660934	178.0273
5450.000000	87.447525	177.6754
5520.000000	87.467041	178.2245
5600.000000	87.135460	178.0310
5700.000000	86.892120	178.0543
5800.000000	86.619881	176.5468
5900.000000	86.692024	175.4420
6000.000000	86.376488	174.1083
6080.000000	86.292328	173.2854
6150.000000	85.956932	173.4720
6220.000000	85.778694	173.0450
6300.000000	85.881836	173.6085
6400.000000	85.699295	173.3965
6500.000000	85.300201	171.0145
6600.000000	85.466141	173.2221
6700.000000	85.377663	173.0197
6800.000000	85.290169	175.1838
6900.000000	85.336052	173.6686
7000.000000	85.089615	174.9261
7100.000000	85.213455	176.7865
7200.000000	85.502098	175.5630
7300.000000	85.840454	177.3068
7400.000000	86.150444	175.2368
7500.000000	86.406868	175.1872
7620.000000	86.599693	174.1232
7750.000000	86.964867	173.5630
7880.000000	86.975945	166.2182
8000.000000	86.800018	162.7896
8120.000000	86.102295	162.8465
8250.000000	85.656212	157.2536
8380.000000	84.903053	155.9485
8500.000000	84.318146	159.9672
8620.000000	83.298553	158.2534
8750.000000	82.917778	161.7816
8850.000000	83.300117	164.8773
9000.000000	83.020569	164.6991
9120.000000	81.892006	166.3503
9250.000000	81.947098	168.8743
9380.000000	81.813812	167.0617
9500.000000	82.581337	170.1658
9620.000000	81.594742	173.1031
9750.000000	81.501312	172.4951
9880.000000	81.769981	169.2469
10000.000000	82.076759	168.4529
10150.000000	81.946945	176.4135
10300.000000	82.218826	171.0290
10440.000000	81.505470	167.5563
10600.000000	81.360054	170.4323
10750.000000	82.115318	169.4094
10900.000000	82.249451	168.6769
11060.000000	81.304146	160.1702
11200.000000	81.146500	154.1894
11380.000000	81.285881	157.4627
11500.000000	79.579514	158.5369
11720.000000	79.312866	150.8696
11800.000000	80.423286	153.1887
12060.000000	79.338852	156.1269
12200.000000	80.870934	141.8844
12410.000000	81.996391	134.5293
12500.000000	80.740402	125.0701
12650.000000	79.289642	124.0053
12800.000000	78.631104	121.6183
13150.000000	75.339760	118.5909
13200.000000	77.524139	114.1713
13400.000000	76.680344	131.3621
13600.000000	77.456703	121.6341
13800.000000	78.376328	120.3695
14000.000000	79.722809	122.3657
14300.000000	77.875122	108.9368
14500.000000	77.998482	94.1714
14750.000000	81.756027	98.9201
15000.000000	81.506126	56.1400
15250.000000	82.699318	59.3637
15500.000000	81.304459	11.8547
15750.000000	75.207314	-14.3090
16000.000000	79.012947	-48.0654
16250.000000	75.423065	35.2158
16500.000000	79.415016	-6.8940
16750.000000	79.857529	-78.2500
17000.000000	76.298515	103.8828
17250.000000	72.885925	-99.2285
17500.000000	78.160385	-62.6309
17750.000000	69.476555	-76.2480
18000.000000	69.931557	-177.4453
18250.000000	71.533493	133.0625
18500.000000	72.620445	-75.4336
18750.000000	73.393539	66.1562
19000.000000	68.404282	80.9023
19250.000000	70.697525	97.5664
19500.000000	68.543518	45.1289
19750.000000	62.295158	-28.5586
