* Measurement data measured by REW V5.20 Beta 47
* Source: Headset (USB-C to 3.5mm Headphone Jack Adapter), MICROPHONE (Master Volume), R, volume: 0.000
* Format: 256k Log Swept Sine, 1 sweep at 0.0 dBFS with no timing reference
* Dated: Apr 25, 2020 9:34:12 PM
* REW Settings:
*  C-weighting compensation: Off
*  Target level: 75.0 dB
* Note: ; 
* Measurement: Sony XBA-300 L
* Smoothing: None
* Frequency Step: 1/48 octave
* Start Frequency: 20.300 Hz
*
* Freq(Hz)	SPL(dB)	Phase(degrees)
20.3000	88.2595	-179.96
20.6000	88.3354	179.87
20.9000	88.3747	179.76
21.2000	88.3929	179.78
21.4000	88.4032	179.88
21.8000	88.4372	-179.84
22.0000	88.4656	-179.76
22.4000	88.5369	-179.97
22.7000	88.5702	179.53
23.0000	88.5603	178.83
23.3000	88.5052	178.16
23.6000	88.4194	177.72
24.0000	88.3048	177.66
24.3000	88.2614	177.93
24.7000	88.2810	178.42
25.0000	88.3340	178.64
25.4000	88.4071	178.60
25.8000	88.4351	178.38
26.2000	88.4222	178.23
26.5000	88.4102	178.20
26.9000	88.4166	178.18
27.2000	88.4421	178.05
27.6000	88.4850	177.63
28.0000	88.5025	177.05
28.5000	88.4733	176.49
29.0000	88.4248	176.46
29.5000	88.4115	176.77
30.0000	88.4328	177.00
30.4000	88.4523	176.97
30.7000	88.4587	176.85
31.1000	88.4623	176.67
31.5000	88.4741	176.50
32.0000	88.5079	176.28
32.5000	88.5446	175.97
33.0000	88.5496	175.69
33.5000	88.5222	175.59
34.0000	88.4943	175.67
34.5000	88.4911	175.66
35.0000	88.4887	175.39
35.5000	88.4626	175.00
36.0000	88.4260	174.79
36.5000	88.4182	174.81
37.0000	88.4501	174.84
37.5000	88.4872	174.70
38.2000	88.4834	174.46
38.7000	88.4602	174.43
39.5000	88.4642	174.32
40.0000	88.4728	174.03
40.6000	88.4620	173.68
41.2000	88.4533	173.64
41.8000	88.4724	173.81
42.5000	88.4985	173.93
43.1000	88.4856	173.84
43.7000	88.4360	173.64
44.4000	88.3658	173.42
45.0000	88.3439	173.33
45.5000	88.3676	173.24
46.2000	88.4225	172.99
46.8000	88.4456	172.84
47.5000	88.4485	172.88
48.2000	88.4415	172.93
48.7000	88.4237	172.80
49.4000	88.3782	172.46
50.0000	88.3387	172.11
50.8000	88.3247	171.69
51.5000	88.3480	171.48
52.2000	88.3733	171.36
53.0000	88.3603	171.41
53.8000	88.3340	171.69
54.5000	88.3288	171.79
55.2000	88.3162	171.68
56.0000	88.2902	171.51
57.0000	88.2507	171.05
58.0000	88.2046	170.61
59.0000	88.2423	170.37
60.0000	88.2508	170.28
60.8000	88.2175	170.53
61.5000	88.2032	170.51
62.2000	88.1806	170.15
63.0000	88.1555	169.93
64.0000	88.1495	170.30
65.0000	88.0981	171.06
66.0000	88.0805	171.21
67.0000	88.0832	170.11
68.0000	88.0768	169.51
69.0000	88.1260	169.57
70.0000	88.1329	169.34
71.0000	88.0925	168.88
72.0000	88.0471	168.79
73.0000	88.0618	168.86
74.0000	88.0384	168.45
75.0000	88.0012	168.42
76.2000	88.0285	168.25
77.5000	88.0003	167.96
78.8000	87.9923	167.74
80.0000	87.9345	167.83
81.2000	87.8682	167.82
82.5000	87.8628	167.50
83.8000	87.8706	167.76
85.0000	87.8832	167.41
86.2000	87.8429	166.61
87.5000	87.8338	166.39
88.5000	87.8172	166.76
90.0000	87.7538	166.53
91.2000	87.6930	166.41
92.5000	87.6870	166.31
93.8000	87.6825	165.98
95.0000	87.6182	165.82
96.2000	87.6365	165.68
97.5000	87.5844	165.91
98.8000	87.5798	165.86
100.0000	87.4962	165.70
101.5000	87.5167	165.55
103.0000	87.4166	165.20
104.4000	87.3794	165.13
106.0000	87.4039	164.81
107.5000	87.3624	164.89
109.0000	87.2880	164.48
110.6000	87.2302	164.48
112.0000	87.2044	164.76
113.8000	87.2000	164.62
115.0000	87.1314	164.43
117.2000	87.0835	164.44
118.0000	87.0033	164.32
120.6000	87.0230	164.41
122.0000	86.9620	164.63
124.1000	86.8743	164.83
125.0000	86.8489	165.08
126.5000	86.7323	165.37
128.0000	86.7148	165.72
131.5000	86.7616	166.56
132.0000	86.7574	166.76
134.0000	86.8049	168.08
136.0000	86.8702	168.16
138.0000	87.0535	168.19
140.0000	87.1832	167.77
143.0000	87.2871	166.67
145.0000	87.3801	165.59
147.5000	87.2909	164.76
150.0000	87.2522	164.05
152.5000	87.1880	163.16
155.0000	87.1240	162.75
157.5000	87.0666	162.28
160.0000	86.9955	162.03
162.5000	86.9275	161.79
165.0000	86.8603	161.62
167.5000	86.8043	161.45
170.0000	86.7476	161.30
172.5000	86.6805	161.28
175.0000	86.5967	161.09
177.5000	86.5451	160.93
180.0000	86.4854	160.90
182.5000	86.4286	160.81
185.0000	86.3641	160.77
187.5000	86.3068	160.67
190.0000	86.2623	160.66
192.5000	86.1897	160.56
195.0000	86.1481	160.47
197.5000	86.0922	160.49
200.0000	86.0260	160.46
203.0000	85.9627	160.26
206.0000	85.8763	160.31
209.0000	85.8325	160.29
212.0000	85.7574	160.40
214.0000	85.7326	160.29
218.0000	85.6490	160.26
220.0000	85.6225	160.35
224.0000	85.5531	160.30
227.0000	85.4571	160.33
230.0000	85.4062	160.62
233.0000	85.4006	160.68
236.0000	85.3156	160.66
240.0000	85.2771	160.93
243.0000	85.2159	161.00
247.0000	85.1529	161.30
250.0000	85.1142	161.54
254.0000	85.1200	161.70
258.0000	85.1146	161.92
262.0000	85.0916	161.71
265.0000	85.0353	161.49
269.0000	84.9803	161.57
272.0000	84.9188	161.55
276.0000	84.8607	161.57
280.0000	84.8227	161.66
285.0000	84.7348	161.73
290.0000	84.6338	161.76
295.0000	84.5724	161.89
300.0000	84.5115	162.02
304.0000	84.4622	162.27
307.0000	84.4206	162.31
311.0000	84.3568	162.44
315.0000	84.2964	162.57
320.0000	84.2488	162.63
325.0000	84.1840	162.82
330.0000	84.1146	163.25
335.0000	84.0613	163.40
340.0000	83.9892	163.47
345.0000	83.9085	163.74
350.0000	83.8362	164.03
355.0000	83.7733	164.18
360.0000	83.7083	164.60
365.0000	83.6347	165.14
370.0000	83.5499	165.14
375.0000	83.5434	165.26
382.0000	83.4736	165.44
387.0000	83.4262	165.75
395.0000	83.3552	166.10
400.0000	83.3063	166.55
406.0000	83.2387	166.92
412.0000	83.1791	167.23
418.0000	83.1189	167.61
425.0000	83.0588	167.99
431.0000	83.0085	168.33
437.0000	82.9759	168.61
444.0000	82.9363	168.98
450.0000	82.9027	169.36
455.0000	82.8828	169.58
462.0000	82.8244	169.94
468.0000	82.7848	170.25
475.0000	82.7150	170.68
482.0000	82.6680	171.04
487.0000	82.6354	171.33
494.0000	82.5973	171.67
500.0000	82.5703	171.97
508.0000	82.5254	172.52
515.0000	82.4922	172.91
522.0000	82.4467	173.31
530.0000	82.3971	173.89
538.0000	82.3301	174.46
545.0000	82.2874	174.98
552.0000	82.2562	175.45
560.0000	82.1927	176.07
570.0000	82.1492	176.69
580.0000	82.1243	177.36
590.0000	82.0927	177.90
600.0000	82.0747	178.78
608.0000	82.0289	179.28
615.0000	82.0012	179.75
622.0000	81.9923	-179.69
630.0000	81.9620	-179.17
640.0000	81.9418	-178.49
650.0000	81.9214	-177.67
660.0000	81.9037	-177.09
670.0000	81.8760	-176.31
680.0000	81.8633	-175.60
690.0000	81.8525	-174.88
700.0000	81.8418	-174.13
710.0000	81.8244	-173.44
720.0000	81.8190	-172.64
730.0000	81.8145	-171.92
740.0000	81.8291	-171.16
750.0000	81.8306	-170.43
762.0000	81.8372	-169.58
775.0000	81.8280	-168.58
788.0000	81.7731	-167.42
800.0000	81.8314	-166.49
812.0000	81.8371	-165.72
825.0000	81.8546	-164.68
838.0000	81.8747	-163.80
850.0000	81.9220	-162.88
862.0000	81.9395	-161.95
875.0000	81.9778	-161.08
885.0000	82.0273	-160.23
900.0000	82.0681	-159.23
912.0000	82.1199	-158.34
925.0000	82.1790	-157.41
938.0000	82.2517	-156.48
950.0000	82.3193	-155.71
962.0000	82.3828	-154.98
975.0000	82.4592	-154.18
988.0000	82.5586	-153.18
1000.0000	82.6852	-152.37
1015.0000	82.7058	-151.71
1030.0000	82.7778	-150.87
1044.0000	82.8770	-150.14
1060.0000	82.9803	-149.45
1075.0000	83.0669	-148.74
1090.0000	83.1866	-148.03
1106.0000	83.3030	-147.45
1120.0000	83.3965	-146.92
1138.0000	83.5263	-146.25
1150.0000	83.6175	-145.89
1172.0000	83.7723	-145.17
1180.0000	83.8230	-144.96
1206.0000	84.0255	-144.28
1220.0000	84.1217	-143.88
1241.0000	84.2839	-143.47
1250.0000	84.3479	-143.19
1265.0000	84.4475	-142.91
1280.0000	84.5440	-142.59
1315.0000	84.7590	-141.81
1320.0000	84.7935	-141.67
1340.0000	84.9250	-141.11
1360.0000	85.0530	-140.88
1380.0000	85.1961	-140.43
1400.0000	85.3225	-140.11
1430.0000	85.4874	-139.68
1450.0000	85.5974	-139.21
1475.0000	85.7368	-138.82
1500.0000	85.8763	-138.32
1525.0000	86.0236	-137.86
1550.0000	86.1598	-137.28
1575.0000	86.3232	-136.79
1600.0000	86.4597	-136.29
1625.0000	86.5965	-135.71
1650.0000	86.7494	-135.20
1675.0000	86.9056	-134.60
1700.0000	87.0517	-134.18
1725.0000	87.2167	-133.61
1750.0000	87.3879	-133.12
1775.0000	87.5467	-132.62
1800.0000	87.7214	-132.07
1825.0000	87.8898	-131.64
1850.0000	88.0642	-131.20
1875.0000	88.2383	-130.75
1900.0000	88.4051	-130.25
1925.0000	88.6011	-129.94
1950.0000	88.7734	-129.48
1975.0000	88.9544	-129.22
2000.0000	89.0752	-129.18
2030.0000	89.3941	-128.52
2060.0000	89.6269	-128.15
2090.0000	89.8828	-127.89
2120.0000	90.1247	-127.64
2140.0000	90.3002	-127.56
2180.0000	90.6328	-127.33
2200.0000	90.8117	-127.29
2240.0000	91.1677	-127.50
2270.0000	91.4239	-127.98
2300.0000	91.6736	-128.67
2330.0000	91.9427	-129.53
2360.0000	92.2118	-130.40
2400.0000	92.5735	-131.51
2430.0000	92.8666	-132.21
2470.0000	93.2338	-133.31
2500.0000	93.5288	-134.40
2540.0000	93.8668	-136.25
2580.0000	94.1587	-138.41
2620.0000	94.3891	-140.80
2650.0000	94.5253	-142.70
2690.0000	94.6535	-145.19
2720.0000	94.6999	-147.07
2760.0000	94.6962	-149.67
2800.0000	94.6008	-151.97
2850.0000	94.3885	-154.21
2900.0000	94.1505	-155.45
2950.0000	93.9775	-155.89
3000.0000	93.8985	-155.81
3040.0000	93.8943	-156.29
3070.0000	93.9075	-156.67
3110.0000	93.9222	-157.47
3150.0000	93.9000	-158.45
3200.0000	93.7675	-159.64
3250.0000	93.5403	-160.33
3300.0000	93.2847	-160.14
3350.0000	93.0912	-159.02
3400.0000	93.0208	-157.52
3450.0000	93.0931	-156.00
3500.0000	93.2632	-154.75
3550.0000	93.4993	-153.88
3600.0000	93.7849	-153.38
3650.0000	94.0910	-153.23
3700.0000	94.4153	-153.49
3750.0000	94.7325	-154.05
3820.0000	95.1609	-155.24
3870.0000	95.4387	-156.34
3950.0000	95.8658	-158.63
4000.0000	96.0925	-160.49
4060.0000	96.4033	-162.61
4120.0000	96.6450	-165.33
4180.0000	96.8416	-168.31
4250.0000	97.0218	-172.12
4310.0000	97.0996	-175.61
4370.0000	97.1006	-179.38
4440.0000	96.9948	176.23
4500.0000	96.8141	172.41
4550.0000	96.5847	169.36
4620.0000	96.1620	165.45
4680.0000	95.7240	162.61
4750.0000	95.1621	160.06
4820.0000	94.5798	158.24
4870.0000	94.1644	157.44
4940.0000	93.6042	156.78
5000.0000	93.1455	156.62
5080.0000	92.5943	157.23
5150.0000	92.1552	157.96
5220.0000	91.7688	158.87
5300.0000	91.4193	160.08
5380.0000	91.1183	161.15
5450.0000	90.8649	161.98
5520.0000	90.5879	162.75
5600.0000	90.2601	163.65
5700.0000	89.8382	165.02
5800.0000	89.4208	166.92
5900.0000	89.0482	169.14
6000.0000	88.7500	171.59
6080.0000	88.5581	173.98
6150.0000	88.4153	175.90
6220.0000	88.3153	177.98
6300.0000	88.2494	-179.57
6400.0000	88.2314	-176.58
6500.0000	88.2707	-173.50
6600.0000	88.3944	-170.59
6700.0000	88.5946	-167.77
6800.0000	88.8374	-165.17
6900.0000	89.1876	-162.62
7000.0000	89.6315	-160.39
7100.0000	90.1596	-158.54
7200.0000	90.7672	-157.12
7300.0000	91.4380	-156.30
7400.0000	92.1723	-156.33
7500.0000	92.9463	-157.32
7620.0000	93.8902	-160.18
7750.0000	94.7633	-165.33
7880.0000	95.3266	-172.68
8000.0000	95.4789	179.45
8120.0000	95.2097	172.21
8250.0000	94.6147	165.81
8380.0000	93.8428	161.55
8500.0000	93.1250	159.28
8620.0000	92.4675	158.26
8750.0000	91.8327	158.14
8850.0000	91.4143	158.50
9000.0000	90.9446	159.23
9120.0000	90.6866	159.74
9250.0000	90.4641	160.02
9380.0000	90.3217	160.03
9500.0000	90.2111	159.66
9620.0000	90.1526	158.75
9750.0000	90.0614	157.55
9880.0000	89.9703	155.87
10000.0000	89.8539	154.10
10150.0000	89.6935	151.85
10300.0000	89.5581	149.45
10440.0000	89.4228	146.99
10600.0000	89.3735	143.66
10750.0000	89.3333	139.50
10900.0000	89.2207	134.08
11060.0000	88.9418	127.14
11200.0000	88.4550	120.56
11380.0000	87.5405	112.14
11500.0000	86.7533	107.16
11720.0000	84.9332	99.65
11800.0000	84.1645	97.84
12060.0000	81.6302	96.58
12200.0000	80.4045	98.27
12410.0000	78.9130	103.21
12500.0000	78.4138	105.96
12650.0000	77.7386	110.77
12800.0000	77.3170	115.78
13150.0000	77.0351	125.32
13200.0000	77.0679	126.73
13400.0000	77.2041	130.32
13600.0000	77.4287	132.64
13800.0000	77.7355	133.90
14000.0000	78.0657	133.89
14300.0000	78.5533	132.07
14500.0000	78.9601	129.66
14750.0000	79.5489	124.58
15000.0000	80.2424	117.62
15250.0000	81.0220	108.49
15500.0000	81.9191	96.89
15750.0000	82.9402	82.74
16000.0000	83.9579	65.50
16250.0000	84.8042	45.51
16500.0000	85.1369	23.90
16750.0000	84.9682	2.92
17000.0000	84.4548	-16.27
17250.0000	83.8417	-34.23
17500.0000	83.0132	-52.47
17750.0000	81.8106	-73.79
18000.0000	79.8735	-97.95
18250.0000	77.2647	-120.64
18500.0000	74.0635	-139.21
18750.0000	70.6545	-152.63
19000.0000	67.2677	-165.71
19250.0000	63.5390	-179.25
19500.0000	59.7001	158.01
19750.0000	56.2940	122.14
