* Measurement data measured by REW V5.20 Beta 47
* Source: Headset (USB-C to 3.5mm Headphone Jack Adapter), MICROPHONE (Master Volume), L, volume: 0.000
* Format: 256k Log Swept Sine, 1 sweep at -3.0 dBFS with no timing reference
* Dated: Jun 17, 2020 5:58:40 AM
* REW Settings:
*  C-weighting compensation: Off
*  Target level: 75.0 dB
* Note: ; 
* Measurement: Sony MH755 L
* Smoothing: None
* Frequency Step: 1/48 octave
* Start Frequency: 20.000 Hz
*
* Freq(Hz)	SPL(dB)	Phase(degrees)
20.0000	101.5130	153.77
20.3000	101.4751	153.46
20.6000	101.4394	153.18
20.9000	101.4056	152.93
21.2000	101.3772	152.67
21.4000	101.3585	152.50
21.8000	101.3204	152.16
22.0000	101.3016	151.99
22.4000	101.2682	151.63
22.7000	101.2431	151.37
23.0000	101.2194	151.11
23.3000	101.1992	150.83
23.6000	101.1785	150.54
24.0000	101.1455	150.11
24.3000	101.1155	149.77
24.7000	101.0676	149.33
25.0000	101.0281	149.04
25.4000	100.9778	148.68
25.8000	100.9303	148.36
26.2000	100.8859	148.02
26.5000	100.8526	147.76
26.9000	100.8045	147.42
27.2000	100.7679	147.19
27.6000	100.7234	146.90
28.0000	100.6828	146.61
28.5000	100.6351	146.18
29.0000	100.5796	145.73
29.5000	100.5174	145.30
30.0000	100.4540	144.94
30.4000	100.4083	144.66
30.7000	100.3749	144.45
31.1000	100.3294	144.16
31.5000	100.2831	143.88
32.0000	100.2264	143.57
32.5000	100.1783	143.27
33.0000	100.1323	142.92
33.5000	100.0782	142.54
34.0000	100.0144	142.22
34.5000	99.9580	141.97
35.0000	99.9121	141.74
35.5000	99.8710	141.44
36.0000	99.8215	141.11
36.5000	99.7612	140.80
37.0000	99.6989	140.55
37.5000	99.6440	140.32
38.2000	99.5677	139.96
38.7000	99.5041	139.68
39.5000	99.3984	139.36
40.0000	99.3417	139.21
40.6000	99.2838	138.96
41.2000	99.2257	138.61
41.8000	99.1553	138.21
42.5000	99.0559	137.81
43.1000	98.9731	137.57
43.7000	98.9019	137.37
44.4000	98.8271	137.12
45.0000	98.7704	136.91
45.5000	98.7296	136.69
46.2000	98.6629	136.31
46.8000	98.5864	136.03
47.5000	98.5037	135.86
48.2000	98.4408	135.63
48.7000	98.3859	135.36
49.4000	98.2797	135.10
50.0000	98.1987	135.12
50.8000	98.1486	135.01
51.5000	98.0967	134.62
52.2000	98.0092	134.28
53.0000	97.9184	134.10
53.8000	97.8501	133.87
54.5000	97.7818	133.62
55.2000	97.7125	133.43
56.0000	97.6416	133.24
57.0000	97.5468	132.95
58.0000	97.4479	132.72
59.0000	97.3478	132.48
60.0000	97.2495	132.28
60.8000	97.1723	132.10
61.5000	97.1048	131.94
62.2000	97.0375	131.78
63.0000	96.9641	131.61
64.0000	96.8728	131.37
65.0000	96.7787	131.16
66.0000	96.6848	130.98
67.0000	96.5956	130.81
68.0000	96.5053	130.62
69.0000	96.4215	130.46
70.0000	96.3350	130.27
71.0000	96.2484	130.13
72.0000	96.1668	129.96
73.0000	96.0759	129.82
74.0000	95.9953	129.75
75.0000	95.9171	129.61
76.2000	95.8213	129.48
77.5000	95.7170	129.29
78.8000	95.6167	129.16
80.0000	95.5217	129.00
81.2000	95.4306	128.92
82.5000	95.3307	128.81
83.8000	95.2348	128.75
85.0000	95.1442	128.64
86.2000	95.0474	128.57
87.5000	94.9529	128.48
88.5000	94.8747	128.37
90.0000	94.7610	128.28
91.2000	94.6711	128.22
92.5000	94.5808	128.14
93.8000	94.4857	128.07
95.0000	94.3990	128.00
96.2000	94.3163	127.96
97.5000	94.2244	127.87
98.8000	94.1417	127.85
100.0000	94.0610	127.74
101.5000	93.9586	127.70
103.0000	93.8576	127.71
104.4000	93.7693	127.63
106.0000	93.6661	127.63
107.5000	93.5710	127.59
109.0000	93.4843	127.57
110.6000	93.3915	127.58
112.0000	93.3117	127.54
113.8000	93.2019	127.56
115.0000	93.1292	127.57
117.2000	93.0062	127.53
118.0000	92.9541	127.55
120.6000	92.8111	127.57
122.0000	92.7398	127.63
124.1000	92.6165	127.67
125.0000	92.5707	127.69
126.5000	92.4852	127.68
128.0000	92.4041	127.75
131.5000	92.2204	127.81
132.0000	92.1945	127.81
134.0000	92.0925	127.89
136.0000	91.9906	127.95
138.0000	91.8888	128.03
140.0000	91.7895	128.05
143.0000	91.6442	128.16
145.0000	91.5477	128.25
147.5000	91.4328	128.37
150.0000	91.3113	128.47
152.5000	91.2051	128.60
155.0000	91.1101	128.72
157.5000	91.0117	128.85
160.0000	90.9160	128.99
162.5000	90.8159	129.10
165.0000	90.7252	129.25
167.5000	90.6330	129.36
170.0000	90.5402	129.57
172.5000	90.4303	129.67
175.0000	90.3290	129.81
177.5000	90.2266	129.99
180.0000	90.1309	130.11
182.5000	90.0278	130.33
185.0000	89.9263	130.48
187.5000	89.8353	130.69
190.0000	89.7383	130.84
192.5000	89.6453	131.05
195.0000	89.5559	131.19
197.5000	89.4651	131.38
200.0000	89.3775	131.53
203.0000	89.2776	131.77
206.0000	89.1790	131.98
209.0000	89.0799	132.22
212.0000	88.9825	132.43
214.0000	88.9200	132.59
218.0000	88.8148	132.85
220.0000	88.7613	133.01
224.0000	88.6601	133.35
227.0000	88.5857	133.57
230.0000	88.5043	133.80
233.0000	88.4298	134.04
236.0000	88.3564	134.29
240.0000	88.2543	134.63
243.0000	88.1652	134.84
247.0000	88.0616	135.22
250.0000	87.9764	135.47
254.0000	87.8825	135.80
258.0000	87.7813	136.21
262.0000	87.6781	136.50
265.0000	87.6081	136.75
269.0000	87.5086	137.11
272.0000	87.4453	137.36
276.0000	87.3561	137.68
280.0000	87.2753	138.05
285.0000	87.1682	138.44
290.0000	87.0712	138.86
295.0000	86.9686	139.31
300.0000	86.8726	139.75
304.0000	86.7911	140.12
307.0000	86.7338	140.40
311.0000	86.6613	140.73
315.0000	86.5825	141.07
320.0000	86.5003	141.51
325.0000	86.4126	141.94
330.0000	86.3286	142.41
335.0000	86.2417	142.83
340.0000	86.1620	143.26
345.0000	86.0807	143.70
350.0000	86.0275	143.96
355.0000	85.9265	144.59
360.0000	85.8415	145.03
365.0000	85.7639	145.54
370.0000	85.6976	145.94
375.0000	85.6327	146.32
382.0000	85.5384	146.93
387.0000	85.4740	147.37
395.0000	85.3697	148.04
400.0000	85.3093	148.51
406.0000	85.2400	149.02
412.0000	85.1704	149.55
418.0000	85.1084	150.03
425.0000	85.0279	150.68
431.0000	84.9640	151.15
437.0000	84.9045	151.66
444.0000	84.8422	152.29
450.0000	84.8033	152.75
455.0000	84.7475	153.22
462.0000	84.6807	153.70
468.0000	84.6306	154.15
475.0000	84.5607	154.67
482.0000	84.4919	155.21
487.0000	84.4550	155.56
494.0000	84.3975	156.11
500.0000	84.3553	156.57
508.0000	84.2933	157.28
515.0000	84.2430	157.85
522.0000	84.1941	158.44
530.0000	84.1361	159.06
538.0000	84.0729	159.72
545.0000	84.0267	160.33
552.0000	83.9868	160.89
560.0000	83.9336	161.51
570.0000	83.8684	162.35
580.0000	83.8081	163.19
590.0000	83.7456	164.01
600.0000	83.7058	164.83
608.0000	83.6659	165.49
615.0000	83.6294	166.04
622.0000	83.6066	166.60
630.0000	83.5797	167.31
640.0000	83.5361	168.09
650.0000	83.5209	168.75
660.0000	83.4632	169.70
670.0000	83.4447	170.47
680.0000	83.4134	171.31
690.0000	83.3840	172.10
700.0000	83.3603	172.92
710.0000	83.3357	173.76
720.0000	83.3076	174.54
730.0000	83.2944	175.40
740.0000	83.2878	176.17
750.0000	83.2648	176.83
762.0000	83.2559	177.93
775.0000	83.2450	179.00
788.0000	83.2289	179.97
800.0000	83.2258	-179.03
812.0000	83.2232	-178.07
825.0000	83.2262	-177.02
838.0000	83.2409	-175.99
850.0000	83.2710	-175.02
862.0000	83.2599	-174.07
875.0000	83.2754	-173.08
885.0000	83.2881	-172.34
900.0000	83.3135	-171.10
912.0000	83.3327	-170.12
925.0000	83.3851	-169.11
938.0000	83.4270	-168.10
950.0000	83.4798	-167.25
962.0000	83.5408	-166.42
975.0000	83.5932	-165.51
988.0000	83.6792	-164.60
1000.0000	83.7921	-163.72
1015.0000	83.7947	-162.92
1030.0000	83.8511	-162.01
1044.0000	83.9358	-161.13
1060.0000	84.0478	-160.19
1075.0000	84.1627	-159.34
1090.0000	84.2917	-158.74
1106.0000	84.4128	-158.24
1120.0000	84.5156	-157.80
1138.0000	84.6401	-157.24
1150.0000	84.7217	-156.95
1172.0000	84.8551	-156.38
1180.0000	84.9042	-156.16
1206.0000	85.0660	-155.57
1220.0000	85.1548	-155.31
1241.0000	85.2748	-154.91
1250.0000	85.3322	-154.78
1265.0000	85.4171	-154.51
1280.0000	85.4954	-154.26
1315.0000	85.6726	-153.75
1320.0000	85.6963	-153.64
1340.0000	85.8006	-153.37
1360.0000	85.8809	-153.10
1380.0000	85.9714	-152.86
1400.0000	86.0555	-152.53
1430.0000	86.1681	-152.10
1450.0000	86.2480	-151.76
1475.0000	86.3397	-151.40
1500.0000	86.4331	-151.03
1525.0000	86.5155	-150.56
1550.0000	86.6047	-150.20
1575.0000	86.7004	-149.73
1600.0000	86.7844	-149.29
1625.0000	86.8759	-148.85
1650.0000	86.9692	-148.41
1675.0000	87.0636	-147.93
1700.0000	87.1600	-147.48
1725.0000	87.2458	-146.99
1750.0000	87.3427	-146.54
1775.0000	87.4457	-146.05
1800.0000	87.5380	-145.56
1825.0000	87.6394	-145.11
1850.0000	87.7449	-144.66
1875.0000	87.8462	-144.19
1900.0000	87.9568	-143.74
1925.0000	88.0615	-143.27
1950.0000	88.1655	-142.89
1975.0000	88.2580	-142.50
2000.0000	88.3092	-142.36
2030.0000	88.5182	-141.54
2060.0000	88.6671	-141.04
2090.0000	88.8094	-140.62
2120.0000	88.9570	-140.17
2140.0000	89.0585	-139.92
2180.0000	89.2571	-139.40
2200.0000	89.3537	-139.17
2240.0000	89.5632	-138.92
2270.0000	89.7098	-138.98
2300.0000	89.8521	-139.31
2330.0000	90.0157	-139.58
2360.0000	90.1581	-139.96
2400.0000	90.3603	-140.22
2430.0000	90.5245	-140.26
2470.0000	90.7288	-140.20
2500.0000	90.8784	-140.15
2540.0000	91.0864	-140.25
2580.0000	91.2883	-140.40
2620.0000	91.4910	-140.56
2650.0000	91.6471	-140.77
2690.0000	91.8525	-141.12
2720.0000	92.0053	-141.44
2760.0000	92.1996	-141.93
2800.0000	92.3842	-142.52
2850.0000	92.6095	-143.37
2900.0000	92.8249	-144.38
2950.0000	93.0261	-145.53
3000.0000	93.2119	-146.45
3040.0000	93.3450	-147.86
3070.0000	93.4325	-148.78
3110.0000	93.5365	-150.00
3150.0000	93.6210	-151.25
3200.0000	93.7090	-152.82
3250.0000	93.7651	-154.41
3300.0000	93.7987	-155.91
3350.0000	93.8130	-157.36
3400.0000	93.8197	-158.72
3450.0000	93.8394	-160.01
3500.0000	93.8660	-161.30
3550.0000	93.8948	-162.66
3600.0000	93.9020	-164.04
3650.0000	93.8957	-165.42
3700.0000	93.8714	-166.81
3750.0000	93.8303	-168.16
3820.0000	93.7510	-169.94
3870.0000	93.6716	-171.15
3950.0000	93.5029	-173.02
4000.0000	93.3679	-174.21
4060.0000	93.2507	-175.18
4120.0000	93.0987	-176.22
4180.0000	92.9407	-177.17
4250.0000	92.7641	-177.96
4310.0000	92.6111	-178.55
4370.0000	92.4719	-179.04
4440.0000	92.3369	-179.60
4500.0000	92.2245	179.87
4550.0000	92.1311	179.45
4620.0000	91.9961	178.83
4680.0000	91.8739	178.34
4750.0000	91.7245	177.76
4820.0000	91.5664	177.29
4870.0000	91.4576	177.00
4940.0000	91.3022	176.59
5000.0000	91.1691	176.22
5080.0000	91.0018	176.15
5150.0000	90.8603	176.00
5220.0000	90.7215	175.89
5300.0000	90.5676	175.76
5380.0000	90.4062	175.70
5450.0000	90.2672	175.68
5520.0000	90.0762	175.74
5600.0000	89.8601	175.91
5700.0000	89.5897	176.48
5800.0000	89.3666	177.30
5900.0000	89.1900	178.25
6000.0000	89.0578	179.17
6080.0000	88.9944	179.83
6150.0000	88.9558	-179.56
6220.0000	88.9350	-179.11
6300.0000	88.9250	-178.58
6400.0000	88.9451	-178.05
6500.0000	88.9635	-177.72
6600.0000	89.0025	-177.54
6700.0000	89.0373	-177.43
6800.0000	89.0655	-177.37
6900.0000	89.1110	-177.25
7000.0000	89.2176	-176.90
7100.0000	89.3837	-176.52
7200.0000	89.6236	-176.32
7300.0000	89.9282	-176.42
7400.0000	90.3050	-177.18
7500.0000	90.7069	-178.54
7620.0000	91.1861	178.73
7750.0000	91.6464	174.48
7880.0000	91.9590	168.77
8000.0000	92.0761	162.48
8120.0000	91.9718	155.45
8250.0000	91.5590	147.79
8380.0000	90.8782	140.76
8500.0000	90.0562	135.25
8620.0000	89.1295	130.86
8750.0000	88.0373	127.38
8850.0000	87.1869	125.44
9000.0000	85.9336	123.74
9120.0000	84.9672	122.96
9250.0000	83.9800	122.86
9380.0000	83.0361	123.25
9500.0000	82.2086	124.03
9620.0000	81.4701	125.01
9750.0000	80.7004	126.24
9880.0000	79.9778	127.63
10000.0000	79.3659	129.27
10150.0000	78.6840	131.32
10300.0000	78.0344	133.24
10440.0000	77.5091	135.52
10600.0000	76.9266	137.76
10750.0000	76.4124	140.25
10900.0000	75.9908	142.55
11060.0000	75.5948	145.12
11200.0000	75.2367	147.78
11380.0000	74.8578	151.38
11500.0000	74.7089	154.47
11720.0000	74.9097	157.95
11800.0000	74.9048	158.06
12060.0000	74.6219	160.80
12200.0000	74.5599	162.46
12410.0000	74.5702	165.68
12500.0000	74.6494	167.17
12650.0000	74.7496	169.65
12800.0000	75.0279	172.15
13150.0000	75.8780	177.23
13200.0000	76.0459	177.82
13400.0000	76.7734	179.94
13600.0000	77.6480	-178.08
13800.0000	78.7277	-177.39
14000.0000	80.0553	-177.59
14300.0000	82.5098	178.58
14500.0000	84.5543	172.27
14750.0000	87.4952	155.16
15000.0000	89.2713	122.26
15250.0000	87.7700	88.39
15500.0000	85.0482	68.76
15750.0000	82.7950	57.58
16000.0000	81.1324	49.54
16250.0000	80.0137	42.47
16500.0000	79.3583	35.05
16750.0000	79.1422	26.30
17000.0000	79.4233	15.52
17250.0000	80.1235	1.16
17500.0000	81.0895	-18.06
17750.0000	81.8934	-46.73
18000.0000	81.6723	-84.00
18250.0000	80.1763	-121.41
18500.0000	78.1295	-152.77
18750.0000	76.2845	-178.17
19000.0000	74.6475	159.22
19250.0000	73.4708	135.89
19500.0000	72.5645	110.38
19750.0000	71.8894	80.00
