* Measurement data measured by REW V5.20 Beta 60
* Source: Headset (USB-C to 3.5mm Headphone Jack Adapter), MICROPHONE (Master Volume), R, volume: 0.258
* Format: 256k Log Swept Sine, 1 sweep at -12.0 dBFS with no timing reference
* Dated: Dec 16, 2020 12:02:17 PM
* REW Settings:
*  C-weighting compensation: Off
*  Target level: 75.0 dB
* Note: ; 
* Measurement: Soranik Bastille R
* Smoothing: None
* Frequency Step: 1/48 octave
* Start Frequency: 20.000 Hz
*
* Freq(Hz)	SPL(dB)	Phase(degrees)
20.000000	88.565735	164.8151
20.299999	88.565781	164.2894
20.600000	88.557976	163.7917
20.900000	88.544319	163.3458
21.200001	88.532715	162.9353
21.400000	88.525230	162.6771
21.799999	88.510178	162.1941
22.000000	88.503258	161.9604
22.400000	88.493454	161.4837
22.700001	88.485992	161.1483
23.000000	88.480446	160.8230
23.299999	88.479385	160.4764
23.600000	88.478195	160.1005
24.000000	88.468842	159.5471
24.299999	88.452759	159.1117
24.700001	88.418861	158.5748
25.000000	88.390694	158.2394
25.400000	88.365410	157.8533
25.799999	88.358994	157.4478
26.200001	88.362770	156.8807
26.500000	88.357613	156.3347
26.900000	88.321732	155.5628
27.200001	88.274612	155.0688
27.600000	88.205780	154.6590
28.000000	88.165283	154.5231
28.500000	88.193962	154.3769
29.000000	88.276375	153.8044
29.500000	88.335510	152.7460
30.000000	88.320946	151.6374
30.400000	88.274742	150.9956
30.700001	88.238121	150.7117
31.100000	88.206718	150.5108
31.500000	88.200272	150.3885
32.000000	88.216934	150.2415
32.500000	88.256554	150.0171
33.000000	88.308640	149.5870
33.500000	88.339478	148.8131
34.000000	88.299179	147.8533
34.500000	88.187119	147.1263
35.000000	88.058105	146.9249
35.500000	87.988380	147.0161
36.000000	87.980942	146.8753
36.500000	87.973167	146.2687
37.000000	87.916122	145.4826
37.500000	87.828285	144.8633
38.200001	87.735451	144.3117
38.700001	87.706352	143.8629
39.500000	87.669121	142.9322
40.000000	87.638222	142.3886
40.599998	87.604927	141.8542
41.200001	87.591751	141.4322
41.799999	87.601799	140.9876
42.500000	87.607132	140.2863
43.099998	87.572861	139.6745
43.700001	87.523529	139.2794
44.400002	87.492035	138.8929
45.000000	87.465401	138.3342
45.500000	87.413773	137.8130
46.200001	87.321823	137.3263
46.799999	87.275528	137.0250
47.500000	87.251328	136.4690
48.200001	87.225449	135.7784
48.700001	87.210037	135.2352
49.400002	87.174454	134.4210
50.000000	87.121292	133.9613
50.799999	87.132561	133.7330
51.500000	87.218102	132.9808
52.200001	87.191406	131.6642
53.000000	87.030708	131.0753
53.799999	86.997620	131.2139
54.500000	87.007652	130.6376
55.200001	86.925598	129.9994
56.000000	86.855095	129.8364
57.000000	86.846062	129.0126
58.000000	86.737213	128.1284
59.000000	86.696526	127.6591
60.000000	86.665588	126.7609
60.799999	86.598778	126.2563
61.500000	86.569595	126.0175
62.200001	86.560379	125.6287
63.000000	86.513245	125.1331
64.000000	86.492043	124.9734
65.000000	86.571365	123.8631
66.000000	86.431892	122.0654
67.000000	86.228516	121.6842
68.000000	86.174080	121.5418
69.000000	86.169090	121.0247
70.000000	86.132782	120.0993
71.000000	86.033737	119.5559
72.000000	86.002579	119.1550
73.000000	85.946243	118.4865
74.000000	85.904755	117.9955
75.000000	85.867035	117.2014
76.199997	85.795830	116.4997
77.500000	85.765739	115.7732
78.800003	85.705208	115.1348
80.000000	85.743607	115.0627
81.199997	85.780281	113.4017
82.500000	85.543747	112.7359
83.800003	85.478737	112.3141
85.000000	85.412666	112.1298
86.199997	85.405197	110.8786
87.500000	85.232635	110.4587
88.500000	85.251923	110.0367
90.000000	85.130402	109.1520
91.199997	85.117760	108.8358
92.500000	85.081497	107.8864
93.800003	85.014832	107.2391
95.000000	84.973419	106.5994
96.199997	84.954010	106.1143
97.500000	84.906662	105.0984
98.800003	84.819130	104.8598
100.000000	84.791656	104.1027
101.500000	84.684738	103.9419
103.000000	84.685013	102.7544
104.400002	84.565773	102.1130
106.000000	84.501404	101.5334
107.500000	84.481674	100.7102
109.000000	84.408066	100.2637
110.599998	84.401932	99.5360
112.000000	84.328468	99.1431
113.800003	84.313156	98.1013
115.000000	84.234276	97.8441
117.199997	84.101639	96.3617
118.000000	84.075722	96.4036
120.599998	84.007568	95.6558
122.000000	84.045128	94.7463
124.099998	83.945450	94.0793
125.000000	83.890320	93.6568
126.500000	83.820221	93.2100
128.000000	83.772964	92.6875
131.500000	83.709259	91.2972
132.000000	83.688515	90.9856
134.000000	83.596313	90.2777
136.000000	83.618706	90.1327
138.000000	83.430115	89.3679
140.000000	83.403175	88.4815
143.000000	83.311882	87.5566
145.000000	83.294411	86.6515
147.500000	83.234901	86.0287
150.000000	83.120750	85.3555
152.500000	83.043907	84.9786
155.000000	83.013573	84.1825
157.500000	82.907173	82.5700
160.000000	82.855934	82.9489
162.500000	82.838631	81.8648
165.000000	82.777420	80.8998
167.500000	82.810074	80.3743
170.000000	82.734276	80.0944
172.500000	82.644852	79.7141
175.000000	82.568405	78.8833
177.500000	82.528091	78.4311
180.000000	82.489525	77.3437
182.500000	82.558044	77.4859
185.000000	82.565353	77.3282
187.500000	82.424614	76.1309
190.000000	82.262527	75.5206
192.500000	82.383759	74.9336
195.000000	82.227730	74.6200
197.500000	82.121437	73.9056
200.000000	82.104866	73.3667
203.000000	82.068321	72.8779
206.000000	82.025085	72.1943
209.000000	82.000069	71.7634
212.000000	81.951820	70.7728
214.000000	81.916603	70.5803
218.000000	81.875565	69.9232
220.000000	81.848999	69.4762
224.000000	81.789780	68.4840
227.000000	81.760406	68.2177
230.000000	81.758148	67.4379
233.000000	81.746803	66.7218
236.000000	81.694000	66.7239
240.000000	81.650368	65.9039
243.000000	81.628662	65.4163
247.000000	81.587845	64.8632
250.000000	81.552292	64.3820
254.000000	81.510719	63.8404
258.000000	81.468536	63.1517
262.000000	81.431656	62.5255
265.000000	81.384659	62.3428
269.000000	81.338501	62.1011
272.000000	81.300705	61.5473
276.000000	81.343384	60.8813
280.000000	81.222733	60.6325
285.000000	81.238350	59.8112
290.000000	81.231972	59.2864
295.000000	81.178215	58.6735
300.000000	81.138756	58.1806
304.000000	81.075325	57.8045
307.000000	81.065216	57.5129
311.000000	81.068085	57.0185
315.000000	81.035851	56.7127
320.000000	80.995262	56.1573
325.000000	80.956879	55.7618
330.000000	80.933311	55.4073
335.000000	80.894707	55.0036
340.000000	80.893066	54.4486
345.000000	80.839127	54.1842
350.000000	80.801331	53.7831
355.000000	80.805237	53.3191
360.000000	80.784073	53.1257
365.000000	80.771248	52.8211
370.000000	80.768639	52.2402
375.000000	80.710983	52.0599
382.000000	80.645782	51.0461
387.000000	80.691193	51.3771
395.000000	80.654373	50.9979
400.000000	80.666016	50.6995
406.000000	80.546677	50.4898
412.000000	80.610847	49.6901
418.000000	80.537643	50.1508
425.000000	80.525093	49.2442
431.000000	80.564301	49.2997
437.000000	80.569740	48.9015
444.000000	80.507355	48.8536
450.000000	80.533401	48.4683
455.000000	80.502586	48.1163
462.000000	80.529282	47.5536
468.000000	80.470810	47.5888
475.000000	80.481003	47.4837
482.000000	80.424049	47.2977
487.000000	80.478386	46.6698
494.000000	80.509476	46.6670
500.000000	80.469543	46.2503
508.000000	80.468178	46.1680
515.000000	80.349937	46.0353
522.000000	80.461258	45.8628
530.000000	80.410995	45.8722
538.000000	80.435715	45.4281
545.000000	80.447876	45.1996
552.000000	80.399338	45.2870
560.000000	80.460136	45.2982
570.000000	80.447472	44.9377
580.000000	80.409637	44.7355
590.000000	80.425682	44.7188
600.000000	80.409042	44.6556
608.000000	80.395615	44.5541
615.000000	80.418503	44.4195
622.000000	80.416153	44.3083
630.000000	80.428085	44.2422
640.000000	80.435486	44.2558
650.000000	80.445663	44.0719
660.000000	80.428696	44.0040
670.000000	80.452621	44.0153
680.000000	80.458092	43.9929
690.000000	80.437103	43.8117
700.000000	80.463226	43.9981
710.000000	80.456902	44.0646
720.000000	80.464684	44.1143
730.000000	80.475487	44.2704
740.000000	80.503944	44.4745
750.000000	80.544189	44.3725
762.000000	80.532928	44.3029
775.000000	80.557648	44.5605
788.000000	80.579422	44.7617
800.000000	80.646729	44.8463
812.000000	80.674599	44.6627
825.000000	80.702576	44.4772
838.000000	80.683014	44.5132
850.000000	80.672668	44.6142
862.000000	80.655624	44.7306
875.000000	80.653961	44.9768
885.000000	80.667435	45.2090
900.000000	80.668526	45.6382
912.000000	80.690414	46.0054
925.000000	80.724083	46.3076
938.000000	80.747360	46.8013
950.000000	80.772888	47.2231
962.000000	80.829910	47.6301
975.000000	80.874786	48.1137
988.000000	80.944527	48.5664
1000.000000	81.070351	49.0753
1015.000000	81.067162	49.4324
1030.000000	81.131920	49.9592
1044.000000	81.219391	50.3592
1060.000000	81.334290	50.8629
1075.000000	81.430817	51.3151
1090.000000	81.563309	51.6321
1106.000000	81.707771	51.9886
1120.000000	81.834335	52.2917
1138.000000	81.997528	52.6276
1150.000000	82.110565	52.8142
1172.000000	82.321854	53.0049
1180.000000	82.407448	53.1024
1206.000000	82.667595	53.2200
1220.000000	82.805405	53.2825
1241.000000	83.029137	53.1665
1250.000000	83.115318	53.1607
1265.000000	83.277290	53.0634
1280.000000	83.430206	53.0019
1315.000000	83.777336	52.7048
1320.000000	83.829300	52.6667
1340.000000	84.029625	52.3752
1360.000000	84.225494	52.1511
1380.000000	84.423302	51.8864
1400.000000	84.624748	51.5794
1430.000000	84.923157	51.0845
1450.000000	85.114998	50.7899
1475.000000	85.369469	50.2623
1500.000000	85.622139	49.7323
1525.000000	85.873047	49.1704
1550.000000	86.137299	48.5545
1575.000000	86.403503	47.8512
1600.000000	86.678566	47.1442
1625.000000	86.945938	46.3647
1650.000000	87.222595	45.4003
1675.000000	87.501221	44.3655
1700.000000	87.767899	43.2914
1725.000000	88.043900	42.0660
1750.000000	88.307739	40.7256
1775.000000	88.572227	39.2972
1800.000000	88.813263	37.7471
1825.000000	89.054321	36.1027
1850.000000	89.276657	34.3694
1875.000000	89.484337	32.4755
1900.000000	89.675011	30.5355
1925.000000	89.840714	28.5596
1950.000000	89.986290	26.5563
1975.000000	90.095970	24.3398
2000.000000	90.136948	21.9933
2030.000000	90.296799	19.8334
2060.000000	90.368248	17.4648
2090.000000	90.404984	15.0844
2120.000000	90.424118	12.7723
2140.000000	90.419144	11.3251
2180.000000	90.391068	8.5544
2200.000000	90.372902	7.2748
2240.000000	90.329773	4.6119
2270.000000	90.277794	2.5107
2300.000000	90.227188	0.3410
2330.000000	90.178085	-1.7688
2360.000000	90.120865	-3.7843
2400.000000	90.057388	-6.1920
2430.000000	90.031235	-7.6911
2470.000000	89.976234	-9.5283
2500.000000	89.937950	-10.9048
2540.000000	89.893250	-12.7640
2580.000000	89.846634	-14.6444
2620.000000	89.799690	-16.5802
2650.000000	89.764175	-18.0683
2690.000000	89.710648	-20.1544
2720.000000	89.656342	-21.7257
2760.000000	89.563393	-23.8920
2800.000000	89.447769	-26.0896
2850.000000	89.268898	-28.8167
2900.000000	89.055305	-31.5972
2950.000000	88.807220	-34.2684
3000.000000	88.507362	-36.5325
3040.000000	88.243546	-38.8005
3070.000000	88.020370	-40.2397
3110.000000	87.705292	-41.9368
3150.000000	87.371521	-43.3956
3200.000000	86.925880	-44.9376
3250.000000	86.458992	-46.1159
3300.000000	85.999657	-46.8524
3350.000000	85.540329	-47.1620
3400.000000	85.098465	-47.0379
3450.000000	84.694984	-46.5227
3500.000000	84.334900	-45.7859
3550.000000	84.027351	-44.7642
3600.000000	83.737480	-43.4893
3650.000000	83.486565	-41.7821
3700.000000	83.303551	-39.9088
3750.000000	83.186554	-37.7415
3820.000000	83.177025	-34.9677
3870.000000	83.220085	-33.2258
3950.000000	83.364632	-30.7755
4000.000000	83.457474	-29.7039
4060.000000	83.647552	-28.0914
4120.000000	83.840057	-26.9061
4180.000000	84.057755	-25.8713
4250.000000	84.371277	-24.6024
4310.000000	84.650047	-23.9140
4370.000000	84.975327	-23.2805
4440.000000	85.392349	-22.8323
4500.000000	85.782097	-22.7863
4550.000000	86.139359	-23.0966
4620.000000	86.656219	-23.8986
4680.000000	87.092209	-25.1668
4750.000000	87.602875	-27.4316
4820.000000	88.047577	-30.4395
4870.000000	88.296455	-33.1949
4940.000000	88.516327	-37.4011
5000.000000	88.553772	-41.2828
5080.000000	88.401253	-45.6543
5150.000000	88.110580	-48.8405
5220.000000	87.756264	-50.7820
5300.000000	87.328491	-52.1313
5380.000000	86.977730	-52.3563
5450.000000	86.756348	-52.1853
5520.000000	86.556107	-51.8890
5600.000000	86.368706	-51.4020
5700.000000	86.212990	-50.9121
5800.000000	86.080399	-50.7997
5900.000000	85.882057	-50.5804
6000.000000	85.655777	-50.0101
6080.000000	85.493126	-49.0759
6150.000000	85.420494	-47.9538
6220.000000	85.380936	-46.6260
6300.000000	85.450279	-45.1592
6400.000000	85.694557	-44.3088
6500.000000	85.904144	-46.3110
6600.000000	85.368217	-49.5524
6700.000000	84.411453	-47.1163
6800.000000	84.007980	-41.0391
6900.000000	84.082077	-35.1440
7000.000000	84.423019	-30.1136
7100.000000	84.890701	-26.1144
7200.000000	85.464615	-22.7288
7300.000000	86.119553	-20.2090
7400.000000	86.837906	-18.3063
7500.000000	87.600349	-17.5120
7620.000000	88.564560	-17.9691
7750.000000	89.531494	-20.6825
7880.000000	90.265976	-25.5513
8000.000000	90.619942	-31.5185
8120.000000	90.641731	-37.4799
8250.000000	90.334579	-43.3981
8380.000000	89.759789	-48.2938
8500.000000	89.042984	-51.0593
8620.000000	88.362617	-52.3977
8750.000000	87.626122	-53.0448
8850.000000	87.074310	-53.2756
9000.000000	86.202431	-53.3782
9120.000000	85.488426	-52.4817
9250.000000	84.815178	-50.5277
9380.000000	84.284454	-48.8057
9500.000000	83.806816	-47.6569
9620.000000	83.305641	-46.6855
9750.000000	82.678993	-45.7462
9880.000000	82.026474	-44.6379
10000.000000	81.424835	-43.5036
10150.000000	80.549980	-41.7433
10300.000000	79.603508	-39.6833
10440.000000	78.861008	-38.4123
10600.000000	77.802505	-32.6254
10750.000000	76.884773	-28.3011
10900.000000	76.056580	-23.9734
11060.000000	75.064629	-18.6599
11200.000000	74.259972	-13.4464
11380.000000	73.126831	-5.6150
11500.000000	72.679359	0.5327
11720.000000	71.755074	12.0641
11800.000000	71.565865	15.5450
12060.000000	71.017410	29.1212
12200.000000	70.858894	36.7042
12410.000000	70.772995	45.3892
12500.000000	70.767937	48.8930
12650.000000	70.733200	55.6118
12800.000000	70.712547	61.1569
13150.000000	70.567070	73.9789
13200.000000	70.599716	75.7379
13400.000000	70.186844	83.0104
13600.000000	70.468559	91.6297
13800.000000	70.403519	102.0348
14000.000000	70.528923	112.4609
14300.000000	71.884796	128.0630
14500.000000	73.402008	138.2699
14750.000000	75.826881	142.9709
15000.000000	78.247360	135.3215
15250.000000	79.146278	118.4884
15500.000000	77.810951	103.3488
15750.000000	75.420143	98.6830
16000.000000	73.409462	103.0344
16250.000000	72.232796	111.3952
16500.000000	71.509651	118.0833
16750.000000	71.301369	124.4353
17000.000000	71.264450	129.9884
17250.000000	71.413910	133.6065
17500.000000	71.719864	136.0172
17750.000000	72.145920	134.2927
18000.000000	72.676895	128.0256
18250.000000	73.126877	117.2810
18500.000000	73.477196	105.0579
18750.000000	73.435478	93.0660
19000.000000	73.175201	81.2092
19250.000000	72.998085	68.5998
19500.000000	72.726181	53.6265
19750.000000	72.344849	32.1356
