* Measurement data measured by REW V5.20 Beta 60
* Source: Headset (USB-C to 3.5mm Headphone Jack Adapter), MICROPHONE (Master Volume), R, volume: 0.250
* Format: 256k Log Swept Sine, 1 sweep at -12.0 dBFS with no timing reference
* Dated: Dec 14, 2020 2:41:47 AM
* REW Settings:
*  C-weighting compensation: Off
*  Target level: 75.0 dB
* Note: ; 
* Measurement: Soranik ION-4 L
* Smoothing: None
* Frequency Step: 1/48 octave
* Start Frequency: 20.000 Hz
*
* Freq(Hz)	SPL(dB)	Phase(degrees)
20.000000	88.915550	-175.0272
20.299999	88.913902	-175.4897
20.600000	88.911423	-175.9231
20.900000	88.908066	-176.3273
21.200001	88.908501	-176.7274
21.400000	88.908752	-176.9930
21.799999	88.907684	-177.5179
22.000000	88.906601	-177.7833
22.400000	88.905258	-178.3422
22.700001	88.899727	-178.7489
23.000000	88.890884	-179.1368
23.299999	88.882141	-179.5122
23.600000	88.872299	-179.8662
24.000000	88.857574	179.6877
24.299999	88.847000	179.3581
24.700001	88.832306	178.9262
25.000000	88.820015	178.6080
25.400000	88.804031	178.1807
25.799999	88.784988	177.7750
26.200001	88.764961	177.3791
26.500000	88.750130	177.0851
26.900000	88.728455	176.7142
27.200001	88.712311	176.4449
27.600000	88.692474	176.0953
28.000000	88.671692	175.7508
28.500000	88.646011	175.3055
29.000000	88.618111	174.8733
29.500000	88.590851	174.4537
30.000000	88.561661	174.0612
30.400000	88.539444	173.7515
30.700001	88.522156	173.5293
31.100000	88.498734	173.2379
31.500000	88.475281	172.9459
32.000000	88.443550	172.6027
32.500000	88.412445	172.2769
33.000000	88.381783	171.9774
33.500000	88.351639	171.6774
34.000000	88.319107	171.3756
34.500000	88.287430	171.0679
35.000000	88.252426	170.7836
35.500000	88.217728	170.5223
36.000000	88.184303	170.2745
36.500000	88.150490	170.0088
37.000000	88.114098	169.7496
37.500000	88.078201	169.5124
38.200001	88.030670	169.2175
38.700001	87.999298	169.0006
39.500000	87.950867	168.6553
40.000000	87.919289	168.4625
40.599998	87.880959	168.2380
41.200001	87.844818	168.0227
41.799999	87.809860	167.8018
42.500000	87.763786	167.5435
43.099998	87.720398	167.3386
43.700001	87.676865	167.1606
44.400002	87.628021	166.9710
45.000000	87.589485	166.8091
45.500000	87.559853	166.6609
46.200001	87.516640	166.4407
46.799999	87.476555	166.2495
47.500000	87.430122	166.0494
48.200001	87.386452	165.8754
48.700001	87.358139	165.7335
49.400002	87.315651	165.5164
50.000000	87.268517	165.3575
50.799999	87.207924	165.2305
51.500000	87.168900	165.2032
52.200001	87.137619	165.1171
53.000000	87.093224	164.9666
53.799999	87.043579	164.8674
54.500000	87.001648	164.7874
55.200001	86.959625	164.6956
56.000000	86.909561	164.6025
57.000000	86.846725	164.4930
58.000000	86.786613	164.3889
59.000000	86.725151	164.2898
60.000000	86.673958	164.2396
60.799999	86.632660	164.1457
61.500000	86.593155	164.0730
62.200001	86.555382	164.0230
63.000000	86.512833	163.9558
64.000000	86.453491	163.8837
65.000000	86.397438	163.8630
66.000000	86.343971	163.8292
67.000000	86.290482	163.7744
68.000000	86.233185	163.7441
69.000000	86.186523	163.7416
70.000000	86.138931	163.7057
71.000000	86.091354	163.6866
72.000000	86.044022	163.6792
73.000000	85.997673	163.6938
74.000000	85.953560	163.7136
75.000000	85.909607	163.7375
76.199997	85.860245	163.7634
77.500000	85.802071	163.7507
78.800003	85.740013	163.8365
80.000000	85.701355	163.8797
81.199997	85.651527	163.8947
82.500000	85.602165	163.9535
83.800003	85.550880	164.0316
85.000000	85.511879	164.1150
86.199997	85.464813	164.1233
87.500000	85.409286	164.2203
88.500000	85.370392	164.2214
90.000000	85.296608	164.4340
91.199997	85.274414	164.4800
92.500000	85.216019	164.4903
93.800003	85.172150	164.5693
95.000000	85.128464	164.5915
96.199997	85.084099	164.6757
97.500000	85.047821	164.7189
98.800003	85.017487	164.8911
100.000000	84.998810	164.6696
101.500000	84.896538	164.9655
103.000000	84.875015	165.1246
104.400002	84.829140	165.2952
106.000000	84.772369	165.4092
107.500000	84.733200	165.5378
109.000000	84.688980	165.6537
110.599998	84.651718	165.7892
112.000000	84.612335	165.8915
113.800003	84.568039	166.0865
115.000000	84.535667	166.1847
117.199997	84.482269	166.3739
118.000000	84.462685	166.4274
120.599998	84.399544	166.6745
122.000000	84.367157	166.8011
124.099998	84.314301	167.0074
125.000000	84.293236	167.1057
126.500000	84.255249	167.2153
128.000000	84.222168	167.3820
131.500000	84.139420	167.6794
132.000000	84.126915	167.7477
134.000000	84.087456	167.9291
136.000000	84.046722	168.1509
138.000000	84.006142	168.3250
140.000000	83.958069	168.4919
143.000000	83.897285	168.7794
145.000000	83.858536	168.9766
147.500000	83.807175	169.2508
150.000000	83.742332	169.5467
152.500000	83.718933	169.7048
155.000000	83.684105	169.9145
157.500000	83.654121	170.1639
160.000000	83.621208	170.4237
162.500000	83.586700	170.6649
165.000000	83.549622	170.9005
167.500000	83.523590	171.0907
170.000000	83.489632	171.3287
172.500000	83.442558	171.5672
175.000000	83.401184	171.8254
177.500000	83.358986	172.0599
180.000000	83.321335	172.2968
182.500000	83.272034	172.5226
185.000000	83.227287	172.7603
187.500000	83.185478	172.9999
190.000000	83.148689	173.1882
192.500000	83.108322	173.4937
195.000000	83.064316	173.7216
197.500000	83.034828	173.8795
200.000000	83.025253	173.9810
203.000000	82.952629	174.3709
206.000000	82.904587	174.6689
209.000000	82.856964	174.9859
212.000000	82.821556	175.2285
214.000000	82.789436	175.4233
218.000000	82.752380	175.7563
220.000000	82.737869	175.9615
224.000000	82.696136	176.3006
227.000000	82.667648	176.5782
230.000000	82.641052	176.8546
233.000000	82.614677	177.1093
236.000000	82.588593	177.3695
240.000000	82.548782	177.7279
243.000000	82.503944	177.9561
247.000000	82.469215	178.3534
250.000000	82.425529	178.6845
254.000000	82.396698	178.9688
258.000000	82.351852	179.3257
262.000000	82.309280	179.6524
265.000000	82.270325	179.9173
269.000000	82.232559	-179.7399
272.000000	82.197868	-179.4739
276.000000	82.164680	-179.1014
280.000000	82.127869	-178.7501
285.000000	82.078812	-178.3346
290.000000	82.034897	-177.9153
295.000000	81.984161	-177.4529
300.000000	81.946640	-177.0097
304.000000	81.904503	-176.6607
307.000000	81.872063	-176.3945
311.000000	81.839874	-176.0310
315.000000	81.800903	-175.6781
320.000000	81.757065	-175.2361
325.000000	81.716187	-174.7717
330.000000	81.669777	-174.3398
335.000000	81.621460	-173.8831
340.000000	81.573013	-173.4494
345.000000	81.532944	-172.9766
350.000000	81.489166	-172.6017
355.000000	81.447678	-172.1019
360.000000	81.397621	-171.6041
365.000000	81.353004	-171.0775
370.000000	81.315125	-170.6945
375.000000	81.280083	-170.2598
382.000000	81.214630	-169.6120
387.000000	81.182991	-169.1361
395.000000	81.123917	-168.4420
400.000000	81.082634	-167.9551
406.000000	81.044357	-167.3548
412.000000	80.999100	-166.8752
418.000000	80.957672	-166.2642
425.000000	80.907516	-165.6252
431.000000	80.871338	-165.0806
437.000000	80.828690	-164.4772
444.000000	80.788071	-163.7804
450.000000	80.767838	-163.1543
455.000000	80.731796	-162.7816
462.000000	80.685486	-162.1393
468.000000	80.651413	-161.6308
475.000000	80.594238	-161.0405
482.000000	80.548080	-160.4195
487.000000	80.518135	-160.0053
494.000000	80.482201	-159.4063
500.000000	80.447601	-158.7456
508.000000	80.400261	-157.9713
515.000000	80.364014	-157.2679
522.000000	80.315903	-156.6017
530.000000	80.277710	-155.7330
538.000000	80.230995	-154.9756
545.000000	80.191360	-154.2434
552.000000	80.214920	-153.5294
560.000000	80.108604	-152.6602
570.000000	80.068375	-151.6496
580.000000	80.012329	-150.6208
590.000000	79.964050	-149.5160
600.000000	79.928116	-148.4423
608.000000	79.883354	-147.6573
615.000000	79.855621	-146.9030
622.000000	79.833580	-146.1288
630.000000	79.819595	-145.2495
640.000000	79.770569	-144.1774
650.000000	79.749207	-143.0895
660.000000	79.707748	-142.0268
670.000000	79.684235	-140.9549
680.000000	79.651627	-139.8332
690.000000	79.629845	-138.7209
700.000000	79.600510	-137.5752
710.000000	79.576019	-136.4280
720.000000	79.546005	-135.2719
730.000000	79.544846	-134.0888
740.000000	79.513374	-133.0139
750.000000	79.506668	-131.9116
762.000000	79.485626	-130.4379
775.000000	79.457336	-128.8436
788.000000	79.455688	-127.3875
800.000000	79.433060	-125.8840
812.000000	79.439346	-124.4429
825.000000	79.382324	-122.8664
838.000000	79.437469	-121.3824
850.000000	79.455864	-119.9192
862.000000	79.468117	-118.3750
875.000000	79.431366	-116.8113
885.000000	79.510590	-115.6417
900.000000	79.551239	-113.8047
912.000000	79.590187	-112.3105
925.000000	79.787323	-111.4703
938.000000	79.700974	-109.1688
950.000000	79.756317	-107.7505
962.000000	79.806381	-106.4592
975.000000	79.838470	-105.7617
988.000000	79.981216	-103.5071
1000.000000	80.112549	-101.9835
1015.000000	80.128220	-100.6149
1030.000000	80.212143	-99.0834
1044.000000	80.288231	-97.6206
1060.000000	80.404495	-96.0329
1075.000000	80.606842	-94.1893
1090.000000	80.626694	-93.1913
1106.000000	80.741821	-91.7722
1120.000000	80.862503	-90.5279
1138.000000	80.997269	-89.0674
1150.000000	81.097748	-88.0354
1172.000000	81.279152	-86.2718
1180.000000	81.341789	-85.6330
1206.000000	81.550972	-83.7074
1220.000000	81.666359	-82.6213
1241.000000	81.838577	-81.1400
1250.000000	81.906601	-80.5040
1265.000000	82.033043	-79.4250
1280.000000	82.163094	-78.3960
1315.000000	82.434227	-76.0292
1320.000000	82.475845	-75.6790
1340.000000	82.631210	-74.3130
1360.000000	82.795807	-72.9439
1380.000000	82.963318	-71.5891
1400.000000	83.124588	-70.2118
1430.000000	83.368919	-68.2226
1450.000000	83.541824	-66.8307
1475.000000	83.764244	-65.1272
1500.000000	83.995705	-63.5687
1525.000000	84.228867	-61.8814
1550.000000	84.479553	-60.2326
1575.000000	84.727402	-58.7064
1600.000000	84.997940	-57.1469
1625.000000	85.280876	-55.5969
1650.000000	85.574211	-54.3040
1675.000000	85.868340	-52.7496
1700.000000	86.191666	-51.5345
1725.000000	86.511871	-50.2150
1750.000000	86.835381	-49.0886
1775.000000	87.196754	-48.0405
1800.000000	87.553856	-47.1134
1825.000000	87.919785	-46.3160
1850.000000	88.294014	-45.9153
1875.000000	88.675865	-45.2221
1900.000000	89.044708	-45.1254
1925.000000	89.448471	-44.8923
1950.000000	89.874878	-44.5205
1975.000000	90.190498	-45.4508
2000.000000	90.458374	-46.0389
2030.000000	90.972404	-46.9987
2060.000000	91.364883	-48.2781
2090.000000	91.688736	-49.8793
2120.000000	91.965210	-51.6513
2140.000000	92.118370	-52.9428
2180.000000	92.324753	-55.5223
2200.000000	92.396835	-56.6701
2240.000000	92.455467	-59.3152
2270.000000	92.434029	-61.1842
2300.000000	92.378487	-62.9718
2330.000000	92.312325	-64.5055
2360.000000	92.228325	-65.7726
2400.000000	92.120499	-66.8211
2430.000000	92.065430	-67.1293
2470.000000	92.003860	-67.1581
2500.000000	91.979881	-67.1446
2540.000000	91.975960	-67.0828
2580.000000	92.000687	-67.1076
2620.000000	92.048180	-67.2720
2650.000000	92.085556	-67.5527
2690.000000	92.130539	-68.0877
2720.000000	92.159195	-68.6106
2760.000000	92.157845	-69.4050
2800.000000	92.109528	-70.3242
2850.000000	92.003067	-71.3870
2900.000000	91.874664	-72.2407
2950.000000	91.754707	-72.8629
3000.000000	91.657715	-73.2280
3040.000000	91.589363	-74.2485
3070.000000	91.521584	-75.0177
3110.000000	91.419876	-76.1837
3150.000000	91.277260	-77.5073
3200.000000	91.023636	-79.3358
3250.000000	90.673500	-81.1852
3300.000000	90.211266	-82.8760
3350.000000	89.649597	-84.1164
3400.000000	89.018478	-84.8169
3450.000000	88.337990	-84.8223
3500.000000	87.648514	-83.9800
3550.000000	86.972992	-82.5306
3600.000000	86.306175	-80.2406
3650.000000	85.697029	-77.5394
3700.000000	85.106400	-74.2288
3750.000000	84.613937	-70.6163
3820.000000	84.060112	-64.8657
3870.000000	83.721252	-60.4542
3950.000000	83.326996	-53.6071
4000.000000	82.927933	-48.4578
4060.000000	83.039680	-42.8480
4120.000000	83.030052	-37.3282
4180.000000	83.128265	-31.9973
4250.000000	83.323257	-26.2263
4310.000000	83.573059	-21.4314
4370.000000	83.887917	-16.9198
4440.000000	84.302979	-12.1115
4500.000000	84.739685	-8.2299
4550.000000	85.149902	-5.2641
4620.000000	85.791138	-1.7072
4680.000000	86.406952	0.8181
4750.000000	87.194748	2.9749
4820.000000	88.039757	4.0612
4870.000000	88.667969	4.0625
4940.000000	89.543427	2.7058
5000.000000	90.224701	0.0720
5080.000000	90.938293	-4.8377
5150.000000	91.254303	-10.4766
5220.000000	91.238602	-16.2259
5300.000000	90.838608	-21.9348
5380.000000	90.190437	-25.7854
5450.000000	89.544960	-27.4762
5520.000000	88.856812	-27.9071
5600.000000	88.137169	-26.9975
5700.000000	87.374817	-24.7767
5800.000000	86.799255	-21.6709
5900.000000	86.391075	-17.7952
6000.000000	86.192734	-14.1284
6080.000000	86.122070	-10.9569
6150.000000	86.205460	-8.6674
6220.000000	86.280594	-6.1062
6300.000000	86.516891	-3.9894
6400.000000	86.940300	-2.2945
6500.000000	87.452744	-2.2507
6600.000000	87.972267	-4.3280
6700.000000	88.313866	-8.5768
6800.000000	88.296387	-14.5502
6900.000000	87.843460	-20.6536
7000.000000	86.992668	-25.5198
7100.000000	85.904381	-27.8816
7200.000000	84.790154	-27.7533
7300.000000	83.800613	-25.9768
7400.000000	83.006447	-23.1786
7500.000000	82.055122	-19.7765
7620.000000	81.322861	-13.0142
7750.000000	80.953636	-6.4340
7880.000000	80.793121	-0.4794
8000.000000	80.781441	4.1454
8120.000000	80.850868	7.6648
8250.000000	81.050087	10.0595
8380.000000	81.167854	10.8254
8500.000000	81.076599	10.7814
8620.000000	80.798592	10.7523
8750.000000	80.341484	11.7019
8850.000000	79.966003	13.2593
9000.000000	79.554733	17.1437
9120.000000	79.413292	20.4801
9250.000000	79.623787	23.6363
9380.000000	79.997078	25.9262
9500.000000	80.565826	25.5204
9620.000000	81.154053	22.4896
9750.000000	81.589340	15.7584
9880.000000	81.462944	5.7193
10000.000000	80.548180	-3.4597
10150.000000	78.740936	-11.4720
10300.000000	76.798981	-13.6831
10440.000000	75.027641	-13.6616
10600.000000	73.218643	-10.3557
10750.000000	71.755219	-5.2113
10900.000000	70.613777	-0.0518
11060.000000	69.594917	6.4591
11200.000000	68.800331	12.3654
11380.000000	68.479118	20.9565
11500.000000	67.769783	22.0862
11720.000000	67.270874	33.3483
11800.000000	66.978874	37.2813
12060.000000	67.327606	48.4958
12200.000000	67.638260	54.0622
12410.000000	68.877182	59.4311
12500.000000	69.295074	61.6276
12650.000000	70.473801	63.7882
12800.000000	71.782120	63.0173
13150.000000	74.732513	49.9848
13200.000000	74.907532	46.0102
13400.000000	75.133820	31.3758
13600.000000	74.299011	20.2272
13800.000000	72.965759	13.7460
14000.000000	72.037872	9.3484
14300.000000	69.429443	12.5721
14500.000000	69.072334	22.7384
14750.000000	69.569893	29.9385
15000.000000	70.551514	34.8058
15250.000000	71.766022	38.3505
15500.000000	73.603180	42.0295
15750.000000	76.877792	38.7648
16000.000000	80.249130	13.8838
16250.000000	79.250847	-18.1760
16500.000000	77.676239	-32.5367
16750.000000	76.482719	-46.5092
17000.000000	74.631607	-58.9596
17250.000000	72.478531	-66.5069
17500.000000	70.464607	-68.6347
17750.000000	69.253700	-69.8508
18000.000000	68.548729	-74.2417
18250.000000	68.234970	-81.1859
18500.000000	68.191162	-91.4050
18750.000000	68.156250	-101.4996
19000.000000	67.906021	-114.5351
19250.000000	67.212250	-130.9706
19500.000000	66.150299	-147.2285
19750.000000	64.760742	-164.0770
