* Measurement data measured by REW V5.20 Beta 60
* Source: Headset (USB-C to 3.5mm Headphone Jack Adapter), MICROPHONE (Master Volume), R, volume: 0.000
* Format: 256k Log Swept Sine, 1 sweep at -12.0 dBFS with no timing reference
* Dated: Dec 12, 2020 1:40:10 AM
* REW Settings:
*  C-weighting compensation: Off
*  Target level: 75.0 dB
* Note: ; 
* Measurement: Audiophile L
* Smoothing: None
* Frequency Step: 1/48 octave
* Start Frequency: 20.000 Hz
*
* Freq(Hz)	SPL(dB)	Phase(degrees)
20.000000	91.118896	-177.0419
20.299999	91.126205	-177.4733
20.600000	91.130035	-177.8940
20.900000	91.129974	-178.2961
21.200001	91.130920	-178.6945
21.400000	91.130661	-178.9542
21.799999	91.128410	-179.4533
22.000000	91.127686	-179.6998
22.400000	91.130623	179.7824
22.700001	91.131645	179.3989
23.000000	91.131401	179.0201
23.299999	91.132141	178.6393
23.600000	91.131859	178.2697
24.000000	91.129509	177.7973
24.299999	91.128372	177.4502
24.700001	91.127502	177.0005
25.000000	91.126938	176.6701
25.400000	91.128128	176.2227
25.799999	91.126862	175.7890
26.200001	91.123917	175.3603
26.500000	91.121140	175.0419
26.900000	91.114670	174.6419
27.200001	91.109482	174.3533
27.600000	91.103836	173.9787
28.000000	91.096420	173.6073
28.500000	91.085587	173.1262
29.000000	91.070724	172.6620
29.500000	91.056503	172.2157
30.000000	91.042046	171.7892
30.400000	91.032394	171.4362
30.700001	91.024178	171.1710
31.100000	91.011711	170.8148
31.500000	90.998474	170.4579
32.000000	90.980919	170.0365
32.500000	90.966888	169.6187
33.000000	90.953209	169.1985
33.500000	90.935791	168.7676
34.000000	90.912933	168.3648
34.500000	90.894455	167.9932
35.000000	90.879639	167.6415
35.500000	90.867050	167.2678
36.000000	90.849701	166.8772
36.500000	90.825111	166.4885
37.000000	90.797913	166.1476
37.500000	90.776344	165.8354
38.200001	90.751205	165.3735
38.700001	90.729874	165.0057
39.500000	90.689857	164.4546
40.000000	90.665756	164.1538
40.599998	90.640373	163.7856
41.200001	90.617920	163.3972
41.799999	90.594635	162.9880
42.500000	90.559944	162.5199
43.099998	90.527832	162.1524
43.700001	90.498192	161.8061
44.400002	90.463982	161.4016
45.000000	90.434509	161.0665
45.500000	90.412628	160.7874
46.200001	90.380447	160.3756
46.799999	90.345688	160.0187
47.500000	90.305191	159.6598
48.200001	90.273239	159.2997
48.700001	90.249077	158.9792
49.400002	90.198982	158.5473
50.000000	90.149948	158.3013
50.799999	90.113152	158.0030
51.500000	90.090706	157.6455
52.200001	90.053757	157.2410
53.000000	90.005455	156.8583
53.799999	89.966263	156.4952
54.500000	89.927742	156.1349
55.200001	89.883095	155.8012
56.000000	89.833801	155.4783
57.000000	89.776917	155.0689
58.000000	89.719673	154.6580
59.000000	89.661377	154.2454
60.000000	89.605728	153.8495
60.799999	89.556824	153.5122
61.500000	89.513336	153.2285
62.200001	89.470596	152.9550
63.000000	89.422615	152.6480
64.000000	89.362762	152.2525
65.000000	89.300537	151.8705
66.000000	89.236702	151.5217
67.000000	89.176865	151.1834
68.000000	89.115257	150.8466
69.000000	89.056870	150.5262
70.000000	88.995079	150.2061
71.000000	88.936035	149.9001
72.000000	88.879028	149.5753
73.000000	88.819077	149.2438
74.000000	88.759186	148.9453
75.000000	88.701576	148.6658
76.199997	88.635712	148.3560
77.500000	88.561737	148.0052
78.800003	88.482468	147.6774
80.000000	88.407623	147.3779
81.199997	88.336372	147.0572
82.500000	88.259529	146.7353
83.800003	88.186974	146.3838
85.000000	88.129875	146.1901
86.199997	88.052307	145.9077
87.500000	87.996574	145.8008
88.500000	87.878624	145.5034
90.000000	87.865982	146.1897
91.199997	87.815033	144.9190
92.500000	87.654243	144.8727
93.800003	87.579048	144.3923
95.000000	87.500992	144.2242
96.199997	87.435295	143.8959
97.500000	87.366867	143.7214
98.800003	87.298477	143.5309
100.000000	87.232353	143.2914
101.500000	87.127411	143.1315
103.000000	87.037468	142.9184
104.400002	86.955444	142.7307
106.000000	86.862274	142.5137
107.500000	86.780731	142.3224
109.000000	86.696846	142.1893
110.599998	86.609299	142.0103
112.000000	86.532272	141.8596
113.800003	86.429176	141.6946
115.000000	86.363373	141.5812
117.199997	86.244438	141.3968
118.000000	86.199677	141.3327
120.599998	86.058273	141.1620
122.000000	85.979347	141.0474
124.099998	85.866516	140.9220
125.000000	85.813782	140.8784
126.500000	85.734207	140.7946
128.000000	85.650772	140.7511
131.500000	85.465179	140.6065
132.000000	85.438751	140.5878
134.000000	85.334633	140.5386
136.000000	85.227966	140.5041
138.000000	85.124283	140.4687
140.000000	85.020477	140.4358
143.000000	84.864685	140.4177
145.000000	84.765625	140.4004
147.500000	84.639778	140.4236
150.000000	84.515106	140.4863
152.500000	84.398514	140.4776
155.000000	84.290642	140.5430
157.500000	84.181732	140.6089
160.000000	84.074615	140.6998
162.500000	83.967064	140.7865
165.000000	83.868530	140.8987
167.500000	83.764236	140.9998
170.000000	83.660324	141.1165
172.500000	83.544579	141.2583
175.000000	83.430412	141.4012
177.500000	83.319733	141.5713
180.000000	83.214401	141.6944
182.500000	83.100533	141.8811
185.000000	82.988373	142.0780
187.500000	82.881554	142.2775
190.000000	82.776199	142.4765
192.500000	82.672264	142.6926
195.000000	82.573959	142.9260
197.500000	82.465614	143.0831
200.000000	82.366699	143.3090
203.000000	82.253098	143.6494
206.000000	82.138016	143.9495
209.000000	82.031021	144.2776
212.000000	81.911644	144.5255
214.000000	81.843414	144.8043
218.000000	81.719109	145.2174
220.000000	81.656784	145.4364
224.000000	81.536835	145.9382
227.000000	81.447792	146.2841
230.000000	81.357239	146.6323
233.000000	81.270126	147.0203
236.000000	81.189301	147.4192
240.000000	81.077621	147.9160
243.000000	80.983459	148.2587
247.000000	80.879669	148.8246
250.000000	80.833786	149.2039
254.000000	80.690926	149.8039
258.000000	80.575897	150.3518
262.000000	80.482620	150.9138
265.000000	80.405617	151.3459
269.000000	80.301018	151.9384
272.000000	80.232971	152.3525
276.000000	80.147255	152.9547
280.000000	80.063675	153.5745
285.000000	79.962379	154.3005
290.000000	79.861763	155.0546
295.000000	79.764664	155.8218
300.000000	79.678741	156.5999
304.000000	79.605377	157.2567
307.000000	79.552238	157.6976
311.000000	79.488098	158.3395
315.000000	79.427353	158.9090
320.000000	79.345612	159.6997
325.000000	79.282906	160.4390
330.000000	79.209747	161.2860
335.000000	79.132812	162.0150
340.000000	79.081421	162.8294
345.000000	79.020973	163.6064
350.000000	78.978386	164.2569
355.000000	78.910263	165.2047
360.000000	78.853371	165.9850
365.000000	78.800072	166.8718
370.000000	78.764061	167.5361
375.000000	78.729225	168.2682
382.000000	78.670395	169.3792
387.000000	78.639015	170.1529
395.000000	78.601837	171.3773
400.000000	78.571114	172.1267
406.000000	78.544220	173.0163
412.000000	78.526733	173.9193
418.000000	78.510262	174.8481
425.000000	78.491760	175.8058
431.000000	78.486916	176.7372
437.000000	78.482231	177.6169
444.000000	78.477997	178.5931
450.000000	78.515182	179.5221
455.000000	78.499809	-179.8145
462.000000	78.501839	-178.9355
468.000000	78.501717	-178.1900
475.000000	78.505943	-177.3366
482.000000	78.530388	-176.5049
487.000000	78.540436	-175.8133
494.000000	78.570488	-174.9576
500.000000	78.589828	-174.1126
508.000000	78.621407	-173.1458
515.000000	78.654457	-172.2951
522.000000	78.687073	-171.3903
530.000000	78.728287	-170.4569
538.000000	78.766861	-169.5237
545.000000	78.811821	-168.7039
552.000000	78.851334	-167.7971
560.000000	78.912720	-166.9119
570.000000	78.981995	-165.7782
580.000000	79.064125	-164.6813
590.000000	79.151741	-163.6102
600.000000	79.231628	-162.5470
608.000000	79.308769	-161.7056
615.000000	79.372620	-160.9880
622.000000	79.444107	-160.2960
630.000000	79.535378	-159.4773
640.000000	79.646217	-158.5562
650.000000	79.744560	-157.7486
660.000000	79.872398	-156.7172
670.000000	79.998062	-155.8844
680.000000	80.122467	-154.9907
690.000000	80.252670	-154.1908
700.000000	80.392265	-153.3688
710.000000	80.515129	-152.5840
720.000000	80.646667	-151.7959
730.000000	80.797623	-151.0312
740.000000	80.939194	-150.3287
750.000000	81.094917	-149.6474
762.000000	81.290924	-148.7178
775.000000	81.516457	-148.1051
788.000000	81.712471	-147.5348
800.000000	81.894966	-146.9269
812.000000	82.093773	-146.4365
825.000000	82.330521	-145.9361
838.000000	82.538719	-145.5893
850.000000	82.744263	-145.1927
862.000000	82.950195	-145.1349
875.000000	83.174484	-145.0365
885.000000	83.307854	-144.9846
900.000000	83.511803	-144.9729
912.000000	83.669266	-144.7542
925.000000	83.844093	-144.2421
938.000000	84.049866	-144.1332
950.000000	84.237473	-143.8634
962.000000	84.455521	-143.6936
975.000000	84.708389	-143.6759
988.000000	84.948280	-143.5638
1000.000000	85.235733	-143.5710
1015.000000	85.419601	-144.0001
1030.000000	85.673424	-144.3601
1044.000000	85.914429	-144.7721
1060.000000	86.188492	-145.3693
1075.000000	86.455750	-145.9742
1090.000000	86.695358	-146.6741
1106.000000	86.961792	-147.4929
1120.000000	87.191040	-148.3186
1138.000000	87.470093	-149.4656
1150.000000	87.657951	-150.3086
1172.000000	87.978271	-151.9217
1180.000000	88.088905	-152.5748
1206.000000	88.434113	-154.7670
1220.000000	88.611557	-156.0637
1241.000000	88.854851	-158.0737
1250.000000	88.950211	-158.9827
1265.000000	89.106880	-160.5618
1280.000000	89.236382	-162.1212
1315.000000	89.476501	-165.9509
1320.000000	89.503799	-166.4900
1340.000000	89.587517	-168.7209
1360.000000	89.642418	-170.8989
1380.000000	89.661797	-173.0442
1400.000000	89.658218	-175.0826
1430.000000	89.589127	-177.9438
1450.000000	89.525085	-179.7091
1475.000000	89.409409	178.2945
1500.000000	89.272522	176.5676
1525.000000	89.120819	175.0636
1550.000000	88.956039	173.7602
1575.000000	88.792160	172.7062
1600.000000	88.629860	171.8918
1625.000000	88.468903	171.2551
1650.000000	88.311630	170.7554
1675.000000	88.155136	170.4985
1700.000000	88.014610	170.3330
1725.000000	87.881920	170.3248
1750.000000	87.760757	170.4340
1775.000000	87.649872	170.6542
1800.000000	87.552795	170.9379
1825.000000	87.469940	171.2909
1850.000000	87.401543	171.7219
1875.000000	87.333267	172.2355
1900.000000	87.280281	172.7068
1925.000000	87.250252	173.3671
1950.000000	87.244392	173.9844
1975.000000	87.186256	174.5543
2000.000000	87.139275	174.9589
2030.000000	87.204269	176.0966
2060.000000	87.241203	177.0216
2090.000000	87.279724	177.8451
2120.000000	87.344597	178.7004
2140.000000	87.389542	179.2592
2180.000000	87.503647	-179.6672
2200.000000	87.573334	-179.1621
2240.000000	87.724609	-178.2851
2270.000000	87.845764	-177.9676
2300.000000	87.975250	-177.8460
2330.000000	88.125664	-177.8428
2360.000000	88.270721	-177.8912
2400.000000	88.492966	-177.7950
2430.000000	88.679688	-177.6297
2470.000000	88.921043	-177.3936
2500.000000	89.107040	-177.3651
2540.000000	89.351669	-177.4248
2580.000000	89.598091	-177.7106
2620.000000	89.843590	-178.2072
2650.000000	90.020691	-178.7165
2690.000000	90.247711	-179.5401
2720.000000	90.407730	179.7252
2760.000000	90.588272	178.5996
2800.000000	90.739403	177.3391
2850.000000	90.884438	175.6323
2900.000000	90.981544	173.8536
2950.000000	91.031036	172.0853
3000.000000	91.038475	170.8108
3040.000000	91.016510	169.2473
3070.000000	90.994637	168.3149
3110.000000	90.952972	167.2098
3150.000000	90.901024	166.1512
3200.000000	90.825546	164.8815
3250.000000	90.732140	163.5898
3300.000000	90.603424	162.3424
3350.000000	90.445534	161.2028
3400.000000	90.258827	160.3005
3450.000000	90.063637	159.6505
3500.000000	89.876877	159.2715
3550.000000	89.694946	159.2115
3600.000000	89.528221	159.3229
3650.000000	89.388496	159.6827
3700.000000	89.271797	160.1979
3750.000000	89.185440	160.7910
3820.000000	89.108955	161.8013
3870.000000	89.082626	162.5157
3950.000000	89.089943	163.7567
4000.000000	89.113106	164.2823
4060.000000	89.230606	165.2957
4120.000000	89.376457	165.9726
4180.000000	89.551910	166.4401
4250.000000	89.822006	166.8099
4310.000000	90.078484	166.7747
4370.000000	90.375610	166.4461
4440.000000	90.774139	165.6086
4500.000000	91.148064	164.3705
4550.000000	91.481415	162.8926
4620.000000	91.963936	159.9916
4680.000000	92.366249	156.6279
4750.000000	92.773903	151.4816
4820.000000	93.060356	145.0969
4870.000000	93.145172	139.8011
4940.000000	93.052765	131.9909
5000.000000	92.794647	124.9512
5080.000000	92.208267	115.9901
5150.000000	91.481804	108.3384
5220.000000	90.627586	101.0322
5300.000000	89.516525	92.7234
5380.000000	88.260353	83.7818
5450.000000	86.990608	74.6458
5520.000000	85.433006	63.3193
5600.000000	83.196007	45.9916
5700.000000	79.778755	11.8953
5800.000000	78.114120	-41.4745
5900.000000	80.266426	-86.8381
6000.000000	82.766090	-113.3102
6080.000000	84.187531	-127.9080
6150.000000	85.003548	-138.1091
6220.000000	85.511322	-146.5805
6300.000000	85.741821	-154.3240
6400.000000	85.725563	-161.1331
6500.000000	85.514626	-165.1737
6600.000000	85.279037	-166.9042
6700.000000	85.099854	-167.0245
6800.000000	85.019623	-165.9266
6900.000000	85.088684	-163.9199
7000.000000	85.343498	-161.2704
7100.000000	85.788322	-158.4810
7200.000000	86.447052	-156.0915
7300.000000	87.246803	-154.8846
7400.000000	88.090340	-154.7754
7500.000000	88.932533	-155.3795
7620.000000	90.009956	-156.8833
7750.000000	91.266716	-160.3176
7880.000000	92.488327	-166.8739
8000.000000	93.331573	-176.0328
8120.000000	93.637230	173.1842
8250.000000	93.305237	162.3401
8380.000000	92.562614	154.3723
8500.000000	91.813240	149.5970
8620.000000	91.153816	146.5673
8750.000000	90.559235	144.2156
8850.000000	90.209953	142.5035
9000.000000	89.775871	139.4243
9120.000000	89.419525	136.6764
9250.000000	89.175232	133.3572
9380.000000	88.916275	127.6251
9500.000000	88.295616	120.7609
9620.000000	87.267273	114.2320
9750.000000	85.803032	108.9595
9880.000000	84.158211	106.0106
10000.000000	82.574966	105.4427
10150.000000	80.712608	107.0463
10300.000000	78.986023	110.4852
10440.000000	77.447021	114.7264
10600.000000	75.872734	120.7576
10750.000000	74.467995	127.3231
10900.000000	73.147812	134.8558
11060.000000	71.722878	144.9214
11200.000000	70.602531	155.5514
11380.000000	69.412445	172.5508
11500.000000	69.972359	-169.9862
11720.000000	72.678932	-158.7994
11800.000000	73.139893	-159.5920
12060.000000	73.023605	-157.7952
12200.000000	72.969055	-155.2626
12410.000000	72.756516	-150.3999
12500.000000	72.708977	-147.3242
12650.000000	72.626434	-142.8024
12800.000000	72.602829	-137.6016
13150.000000	72.639038	-123.1055
13200.000000	72.707588	-120.9174
13400.000000	73.089767	-109.2170
13600.000000	74.408669	-97.5165
13800.000000	76.381248	-91.7051
14000.000000	78.083618	-90.1580
14300.000000	80.735336	-88.5404
14500.000000	83.136192	-92.4080
14750.000000	85.772499	-111.4692
15000.000000	85.880074	-136.5563
15250.000000	84.685440	-155.8828
15500.000000	82.628960	-173.3459
15750.000000	79.233276	175.9561
16000.000000	75.641464	178.6781
16250.000000	73.306633	-168.8974
16500.000000	72.875175	-152.8191
16750.000000	74.641068	-145.0959
17000.000000	76.474174	-157.1666
17250.000000	75.778191	-175.6819
17500.000000	73.947296	173.9802
17750.000000	72.537529	167.1959
18000.000000	71.606812	155.9331
18250.000000	70.731689	138.9960
18500.000000	68.841805	116.4169
18750.000000	65.657043	99.6945
19000.000000	62.144859	92.3210
19250.000000	59.013180	87.7714
19500.000000	55.155441	86.7396
19750.000000	51.944141	89.2233
