* Measurement data measured by REW V5.20 Beta 60
* Source: Headset (USB-C to 3.5mm Headphone Jack Adapter), MICROPHONE (Master Volume), R, volume: 0.258
* Format: 256k Log Swept Sine, 1 sweep at -6.0 dBFS with no timing reference
* Dated: Oct 15, 2021 10:55:04 PM
* REW Settings:
*  C-weighting compensation: Off
*  Target level: 75.0 dB
* Note: ; 
* Measurement: Symphonium Helios R
* Smoothing: None
* Frequency Step: 1/48 octave
* Start Frequency: 20.000 Hz
*
* Freq(Hz)	SPL(dB)	Phase(degrees)
20.000000	91.213646	179.7419
20.299999	91.198280	178.9930
20.600000	91.186638	178.3248
20.900000	91.180969	177.7007
21.200001	91.183975	177.0595
21.400000	91.185974	176.6147
21.799999	91.184784	175.7020
22.000000	91.180893	175.2393
22.400000	91.169525	174.3059
22.700001	91.155838	173.6416
23.000000	91.140892	173.0066
23.299999	91.128296	172.3782
23.600000	91.115517	171.7553
24.000000	91.095352	170.9234
24.299999	91.077774	170.2933
24.700001	91.049522	169.4648
25.000000	91.024979	168.8627
25.400000	90.992065	168.0810
25.799999	90.957932	167.3452
26.200001	90.926620	166.6310
26.500000	90.906059	166.0934
26.900000	90.878738	165.3760
27.200001	90.857407	164.8275
27.600000	90.826103	164.0926
28.000000	90.787720	163.3818
28.500000	90.737633	162.5458
29.000000	90.692917	161.7706
29.500000	90.656082	160.9762
30.000000	90.611465	160.1533
30.400000	90.566948	159.5125
30.700001	90.529533	159.0826
31.100000	90.482605	158.5717
31.500000	90.444923	158.0817
32.000000	90.404655	157.4294
32.500000	90.358925	156.7056
33.000000	90.298401	156.0168
33.500000	90.233841	155.4198
34.000000	90.178024	154.8735
34.500000	90.133247	154.2669
35.000000	90.080933	153.6032
35.500000	90.016045	152.9620
36.000000	89.947418	152.4117
36.500000	89.886292	151.9054
37.000000	89.833359	151.3873
37.500000	89.783020	150.8275
38.200001	89.702682	150.0349
38.700001	89.639809	149.5038
39.500000	89.545479	148.7537
40.000000	89.492378	148.3197
40.599998	89.431580	147.7781
41.200001	89.371277	147.2183
41.799999	89.307892	146.6453
42.500000	89.223061	146.0038
43.099998	89.147202	145.5203
43.700001	89.078705	145.0762
44.400002	89.004242	144.5186
45.000000	88.934769	144.0203
45.500000	88.875336	143.6403
46.200001	88.798820	143.1518
46.799999	88.736771	142.6948
47.500000	88.657410	142.1617
48.200001	88.580505	141.7054
48.700001	88.533150	141.3457
49.400002	88.455772	140.7676
50.000000	88.367714	140.3646
50.799999	88.270866	140.0239
51.500000	88.216263	139.6769
52.200001	88.149307	139.1855
53.000000	88.055000	138.7256
53.799999	87.979073	138.3285
54.500000	87.910568	137.8796
55.200001	87.829308	137.4609
56.000000	87.740242	137.0773
57.000000	87.634903	136.5841
58.000000	87.528099	136.1424
59.000000	87.430336	135.7323
60.000000	87.340378	135.2796
60.799999	87.254135	134.8951
61.500000	87.179634	134.6430
62.200001	87.117508	134.3916
63.000000	87.045479	134.0311
64.000000	86.945427	133.6035
65.000000	86.846313	133.2052
66.000000	86.746353	132.8996
67.000000	86.671295	132.5319
68.000000	86.565544	132.0383
69.000000	86.455872	131.8417
70.000000	86.386971	131.6254
71.000000	86.313301	131.1605
72.000000	86.200356	130.7163
73.000000	86.086845	130.5754
74.000000	86.021820	130.4462
75.000000	85.953735	130.0753
76.199997	85.850159	129.7099
77.500000	85.741592	129.4151
78.800003	85.659706	129.1702
80.000000	85.571518	128.7832
81.199997	85.483124	128.5717
82.500000	85.380020	128.2162
83.800003	85.276382	128.0684
85.000000	85.184509	127.8859
86.199997	85.115341	127.6233
87.500000	84.997032	127.2717
88.500000	84.951088	126.9468
90.000000	84.726974	126.5465
91.199997	84.718948	126.9957
92.500000	84.657852	126.3491
93.800003	84.572845	126.3208
95.000000	84.509033	126.1101
96.199997	84.431572	125.8655
97.500000	84.334564	125.7227
98.800003	84.254456	125.4471
100.000000	84.159676	125.3015
101.500000	84.068840	125.1637
103.000000	83.992561	125.0464
104.400002	83.910553	124.8558
106.000000	83.812180	124.6444
107.500000	83.732468	124.5800
109.000000	83.635696	124.3953
110.599998	83.585892	124.3207
112.000000	83.506493	124.1351
113.800003	83.423668	124.0326
115.000000	83.363914	123.9445
117.199997	83.249809	123.7785
118.000000	83.208160	123.7533
120.599998	83.097260	123.5858
122.000000	83.024940	123.4114
124.099998	82.932076	123.3689
125.000000	82.885971	123.2795
126.500000	82.832657	123.2276
128.000000	82.756836	123.0403
131.500000	82.607086	122.9472
132.000000	82.586189	122.9643
134.000000	82.522049	122.8836
136.000000	82.451309	122.8517
138.000000	82.373100	122.7791
140.000000	82.297668	122.7644
143.000000	82.191193	122.5710
145.000000	82.117744	122.5620
147.500000	82.044907	122.4640
150.000000	81.980965	122.5494
152.500000	81.892532	122.4104
155.000000	81.830841	122.3110
157.500000	81.772820	122.2682
160.000000	81.715813	122.2211
162.500000	81.654541	122.2329
165.000000	81.606567	122.1947
167.500000	81.563217	122.1059
170.000000	81.510620	122.0946
172.500000	81.440979	122.1187
175.000000	81.381348	122.0172
177.500000	81.329094	122.0235
180.000000	81.287231	121.9822
182.500000	81.225739	122.0206
185.000000	81.175735	122.0144
187.500000	81.132538	121.9477
190.000000	81.088120	121.9708
192.500000	81.044060	121.9647
195.000000	80.996780	121.9995
197.500000	80.951431	121.9648
200.000000	80.902184	121.9330
203.000000	80.888634	121.9143
206.000000	80.850449	121.9417
209.000000	80.818092	121.8875
212.000000	80.783150	121.8826
214.000000	80.754272	121.8635
218.000000	80.730507	121.8616
220.000000	80.720543	121.8303
224.000000	80.708664	121.8625
227.000000	80.705360	121.8168
230.000000	80.697838	121.7957
233.000000	80.678169	121.7441
236.000000	80.672646	121.7650
240.000000	80.669098	121.7075
243.000000	80.648674	121.6489
247.000000	80.630386	121.6804
250.000000	80.621826	121.6097
254.000000	80.643036	121.5284
258.000000	80.632874	121.5093
262.000000	80.623894	121.4318
265.000000	80.629959	121.3736
269.000000	80.629074	121.3317
272.000000	80.635506	121.2960
276.000000	80.649803	121.2036
280.000000	80.656509	121.1521
285.000000	80.670837	121.0212
290.000000	80.687431	120.9338
295.000000	80.713875	120.7983
300.000000	80.729408	120.7625
304.000000	80.757736	120.5964
307.000000	80.770836	120.4939
311.000000	80.787750	120.4171
315.000000	80.809357	120.3433
320.000000	80.842964	120.1573
325.000000	80.874184	120.0258
330.000000	80.903175	119.8628
335.000000	80.936806	119.6788
340.000000	80.973518	119.4974
345.000000	81.013512	119.3621
350.000000	81.056496	119.2006
355.000000	81.085892	119.0287
360.000000	81.108727	118.8307
365.000000	81.154434	118.7265
370.000000	81.194069	118.4335
375.000000	81.242584	118.2016
382.000000	81.301582	117.8785
387.000000	81.341324	117.6819
395.000000	81.414536	117.2936
400.000000	81.460800	117.1586
406.000000	81.517593	116.7914
412.000000	81.578453	116.4742
418.000000	81.629791	116.1618
425.000000	81.702911	115.8214
431.000000	81.749695	115.4676
437.000000	81.803978	115.2123
444.000000	81.870331	114.8638
450.000000	81.952362	114.4766
455.000000	81.989761	114.2067
462.000000	82.054184	113.7485
468.000000	82.102242	113.2928
475.000000	82.158768	112.8329
482.000000	82.205040	112.3603
487.000000	82.251587	111.9886
494.000000	82.311302	111.5112
500.000000	82.364929	111.1098
508.000000	82.425117	110.6684
515.000000	82.473602	110.2213
522.000000	82.523056	109.8085
530.000000	82.577126	109.3140
538.000000	82.622093	108.7552
545.000000	82.666382	108.4005
552.000000	82.705856	107.9905
560.000000	82.748909	107.5330
570.000000	82.796974	106.9252
580.000000	82.839508	106.3309
590.000000	82.883484	105.7928
600.000000	82.916702	105.1812
608.000000	82.955498	104.8494
615.000000	82.977188	104.5009
622.000000	82.999298	104.1311
630.000000	83.033997	103.7794
640.000000	83.057785	103.2577
650.000000	83.085724	102.7692
660.000000	83.112114	102.3978
670.000000	83.131790	102.0145
680.000000	83.149117	101.6379
690.000000	83.167976	101.3200
700.000000	83.185349	100.9312
710.000000	83.188431	100.7149
720.000000	83.189178	100.4892
730.000000	83.202431	100.2408
740.000000	83.212616	99.9931
750.000000	83.222557	99.8147
762.000000	83.228264	99.6528
775.000000	83.227829	99.5145
788.000000	83.237747	99.3883
800.000000	83.249855	99.3662
812.000000	83.234268	99.3130
825.000000	83.239174	99.4160
838.000000	83.261810	99.3794
850.000000	83.270630	99.4872
862.000000	83.281555	99.6147
875.000000	83.298859	99.7695
885.000000	83.315536	99.8970
900.000000	83.335953	100.1196
912.000000	83.364616	100.3304
925.000000	83.385216	100.4886
938.000000	83.438210	100.8297
950.000000	83.465378	101.0682
962.000000	83.523895	101.3194
975.000000	83.559021	101.6546
988.000000	83.638512	101.9454
1000.000000	83.748184	102.3325
1015.000000	83.738266	102.5127
1030.000000	83.789062	102.7873
1044.000000	83.865471	103.0062
1060.000000	83.946945	103.3054
1075.000000	84.022476	103.6060
1090.000000	84.125549	103.7618
1106.000000	84.224243	103.9893
1120.000000	84.315872	104.0995
1138.000000	84.427429	104.2813
1150.000000	84.496460	104.3327
1172.000000	84.644585	104.4740
1180.000000	84.695465	104.5128
1206.000000	84.857582	104.5675
1220.000000	84.951698	104.5723
1241.000000	85.076111	104.5091
1250.000000	85.120819	104.5126
1265.000000	85.215027	104.4834
1280.000000	85.297035	104.4783
1315.000000	85.481323	104.3989
1320.000000	85.505432	104.3864
1340.000000	85.604233	104.3752
1360.000000	85.697136	104.2996
1380.000000	85.793137	104.2893
1400.000000	85.888527	104.3198
1430.000000	86.003555	104.3882
1450.000000	86.090546	104.3517
1475.000000	86.194176	104.4999
1500.000000	86.291733	104.5956
1525.000000	86.394196	104.7421
1550.000000	86.502151	104.8652
1575.000000	86.604187	105.0377
1600.000000	86.702728	105.1904
1625.000000	86.817451	105.3622
1650.000000	86.921448	105.5272
1675.000000	87.033516	105.7518
1700.000000	87.133698	105.9875
1725.000000	87.250900	106.1627
1750.000000	87.377838	106.4051
1775.000000	87.483749	106.5475
1800.000000	87.592079	106.7340
1825.000000	87.719299	106.8906
1850.000000	87.828835	107.0504
1875.000000	87.959427	107.1891
1900.000000	88.074303	107.2919
1925.000000	88.198502	107.4424
1950.000000	88.307640	107.4635
1975.000000	88.416473	107.4455
2000.000000	88.472519	107.1715
2030.000000	88.683395	107.4943
2060.000000	88.832466	107.4919
2090.000000	88.963531	107.4065
2120.000000	89.100021	107.2551
2140.000000	89.183441	107.1250
2180.000000	89.347870	106.8426
2200.000000	89.427536	106.6497
2240.000000	89.576187	106.0734
2270.000000	89.671890	105.3825
2300.000000	89.750793	104.4507
2330.000000	89.835403	103.4671
2360.000000	89.893074	102.4884
2400.000000	89.964905	101.3961
2430.000000	90.013428	100.7968
2470.000000	90.046532	100.1666
2500.000000	90.059448	99.6604
2540.000000	90.056458	99.0766
2580.000000	90.033356	98.5092
2620.000000	89.998184	98.0336
2650.000000	89.957253	97.7036
2690.000000	89.904335	97.2887
2720.000000	89.857712	97.0615
2760.000000	89.765617	96.8595
2800.000000	89.667625	96.6843
2850.000000	89.539474	96.7012
2900.000000	89.405777	96.7892
2950.000000	89.275909	97.1136
3000.000000	89.143219	97.9006
3040.000000	89.041161	98.0428
3070.000000	88.971695	98.3443
3110.000000	88.875519	98.9489
3150.000000	88.796631	99.5634
3200.000000	88.700958	100.4501
3250.000000	88.624802	101.3169
3300.000000	88.560287	102.2815
3350.000000	88.502762	103.2286
3400.000000	88.452751	104.1871
3450.000000	88.415405	105.2194
3500.000000	88.405930	106.2969
3550.000000	88.404846	107.3868
3600.000000	88.421432	108.5164
3650.000000	88.452911	109.7361
3700.000000	88.501328	110.8886
3750.000000	88.571358	112.0036
3820.000000	88.686821	113.4811
3870.000000	88.786095	114.4059
3950.000000	88.953178	115.6857
4000.000000	89.039307	116.1566
4060.000000	89.211517	116.9500
4120.000000	89.355789	117.3358
4180.000000	89.486481	117.4705
4250.000000	89.639862	117.4067
4310.000000	89.718781	117.1330
4370.000000	89.775597	116.6842
4440.000000	89.783318	116.0344
4500.000000	89.731773	115.5111
4550.000000	89.645744	115.2121
4620.000000	89.485245	115.0818
4680.000000	89.310287	115.4362
4750.000000	89.105499	116.4184
4820.000000	88.951744	118.0026
4870.000000	88.907646	119.3716
4940.000000	88.942734	121.3595
5000.000000	89.059906	122.7585
5080.000000	89.318939	124.2191
5150.000000	89.555138	124.5328
5220.000000	89.754982	124.0885
5300.000000	89.873810	122.9203
5380.000000	89.865952	121.5705
5450.000000	89.735245	120.4218
5520.000000	89.503723	119.6363
5600.000000	89.170197	119.1964
5700.000000	88.709869	119.4221
5800.000000	88.238983	120.3860
5900.000000	87.798317	122.0461
6000.000000	87.389481	124.2366
6080.000000	87.121857	126.3246
6150.000000	86.915375	128.3384
6220.000000	86.751953	130.5483
6300.000000	86.623970	133.1602
6400.000000	86.535187	136.4127
6500.000000	86.491837	139.4520
6600.000000	86.487343	142.4425
6700.000000	86.501007	145.2269
6800.000000	86.486580	148.0906
6900.000000	86.479263	151.5799
7000.000000	86.811897	156.5098
7100.000000	87.165703	158.0016
7200.000000	87.417465	161.2720
7300.000000	87.880554	164.5941
7400.000000	88.534134	167.2766
7500.000000	89.320923	168.7038
7620.000000	90.364998	168.2334
7750.000000	91.410233	164.4784
7880.000000	92.097816	157.4806
8000.000000	92.211304	149.4496
8120.000000	91.794464	141.8842
8250.000000	90.935852	135.6894
8380.000000	89.900566	131.9616
8500.000000	88.911041	130.2924
8620.000000	87.955673	129.5977
8750.000000	86.884285	129.4830
8850.000000	86.020058	129.8797
9000.000000	84.619492	131.7224
9120.000000	83.465706	134.6479
9250.000000	82.301178	139.4959
9380.000000	81.342270	145.8498
9500.000000	80.675552	152.3587
9620.000000	80.169502	158.7869
9750.000000	79.791290	165.5461
9880.000000	79.532234	171.8141
10000.000000	79.391335	177.0300
10150.000000	79.311043	-176.8156
10300.000000	79.237320	-171.1822
10440.000000	79.288010	-166.5992
10600.000000	79.320549	-161.7427
10750.000000	79.376678	-157.7731
10900.000000	79.416573	-154.3733
11060.000000	79.450821	-151.2180
11200.000000	79.425613	-148.6526
11380.000000	79.355934	-145.7357
11500.000000	79.248070	-143.6953
11720.000000	78.936974	-139.4850
11800.000000	78.856873	-138.1673
12060.000000	78.558708	-132.7169
12200.000000	78.421478	-129.4738
12410.000000	78.344162	-124.1645
12500.000000	78.302292	-122.1174
12650.000000	78.292549	-118.1954
12800.000000	78.331131	-114.0559
13150.000000	78.598862	-104.8127
13200.000000	78.677498	-103.4383
13400.000000	78.988594	-98.2228
13600.000000	79.385696	-93.4023
13800.000000	79.848427	-88.8694
14000.000000	80.480942	-84.9534
14300.000000	81.605850	-80.2811
14500.000000	82.552307	-78.8841
14750.000000	83.788879	-80.2573
15000.000000	84.801765	-86.5916
15250.000000	84.856766	-95.7576
15500.000000	84.054741	-100.2399
15750.000000	84.023018	-99.4778
16000.000000	84.315720	-107.7551
16250.000000	83.101059	-116.4163
16500.000000	81.541260	-118.5269
16750.000000	80.220512	-116.7040
17000.000000	79.269295	-113.7099
17250.000000	78.603294	-109.8010
17500.000000	77.993027	-106.4290
17750.000000	77.433975	-103.3612
18000.000000	77.044006	-102.6009
18250.000000	76.887253	-100.8554
18500.000000	77.194855	-98.7006
18750.000000	77.972458	-94.2322
19000.000000	79.254089	-90.1723
19250.000000	80.915672	-90.4316
19500.000000	82.493713	-94.8753
19750.000000	83.635490	-103.3178
