* Measurement data measured by REW V5.20.3
* Source: In 1-2 (MOTU M Series), LINE_IN (Master Volume), L, volume: 0.450
* Format: 256k Log Swept Sine, 1 sweep at -12.0 dBFS with no timing reference
* Dated: Oct 6, 2022 2:53:52 AM
* REW Settings:
*  C-weighting compensation: Off
*  Target level: 75.0 dB
* Note: ; 
* Measurement: Symphonium Triton L
* Smoothing: None
* Frequency Step: 1/48 octave
* Start Frequency: 20.000 Hz
*
* Freq(Hz)	SPL(dB)	Phase(degrees)
20.000000	93.543	151.9103
20.299999	93.498	151.5185
20.600000	93.459	151.1838
20.900000	93.431	150.8734
21.200001	93.415	150.5199
21.400000	93.405	150.2591
21.799999	93.381	149.7130
22.000000	93.366	149.4303
22.400000	93.328	148.8264
22.700001	93.296	148.4266
23.000000	93.262	148.0742
23.299999	93.232	147.7316
23.600000	93.206	147.4120
24.000000	93.172	146.9991
24.299999	93.148	146.6616
24.700001	93.114	146.1706
25.000000	93.083	145.7935
25.400000	93.028	145.3101
25.799999	92.962	144.9035
26.200001	92.900	144.5888
26.500000	92.864	144.3795
26.900000	92.824	144.0630
27.200001	92.794	143.7455
27.600000	92.742	143.2385
28.000000	92.669	142.7831
28.500000	92.582	142.4146
29.000000	92.543	142.1144
29.500000	92.537	141.4499
30.000000	92.486	140.4663
30.400000	92.397	139.8526
30.700001	92.330	139.7073
31.100000	92.310	139.7989
31.500000	92.396	139.6642
32.000000	92.553	138.3418
32.500000	92.553	135.8595
33.000000	92.282	133.7762
33.500000	91.885	133.6199
34.000000	91.680	135.2804
34.500000	91.780	136.6828
35.000000	91.962	136.5241
35.500000	91.994	135.5063
36.000000	91.891	134.9675
36.500000	91.805	135.1851
37.000000	91.810	135.3770
37.500000	91.827	134.9993
38.200001	91.732	134.1985
38.700001	91.629	134.0036
39.500000	91.537	133.7894
40.000000	91.480	133.3864
40.599998	91.375	132.9244
41.200001	91.277	132.7548
41.799999	91.226	132.6453
42.500000	91.204	132.3034
43.099998	91.185	131.8616
43.700001	91.160	131.3763
44.400002	91.129	130.8488
45.000000	91.109	130.3607
45.500000	91.082	129.8530
46.200001	91.000	129.1740
46.799999	90.912	128.8849
47.500000	90.851	128.7015
48.200001	90.803	128.2495
48.700001	90.742	127.8693
49.400002	90.642	127.5834
50.000000	90.590	127.4390
50.799999	90.535	126.9893
51.500000	90.462	126.5942
52.200001	90.406	126.3394
53.000000	90.358	125.8100
53.799999	90.256	125.2920
54.500000	90.182	125.2166
55.200001	90.163	124.9517
56.000000	90.083	124.3437
57.000000	89.979	124.3913
58.000000	89.982	123.9809
59.000000	89.897	123.8343
60.000000	89.998	123.5023
60.799999	89.938	122.1130
61.500000	89.761	121.7259
62.200001	89.664	121.8652
63.000000	89.571	121.7422
64.000000	89.512	121.9208
65.000000	89.464	120.6469
66.000000	89.199	120.7093
67.000000	89.357	120.8429
68.000000	89.269	118.7259
69.000000	89.124	118.9403
70.000000	89.180	118.2489
71.000000	89.072	117.8919
72.000000	89.087	117.7664
73.000000	89.026	117.3093
74.000000	88.985	117.0090
75.000000	88.871	116.5510
76.199997	88.785	116.5801
77.500000	88.770	116.5848
78.800003	88.842	114.7898
80.000000	88.525	114.2921
81.199997	88.602	114.5233
82.500000	88.426	113.5618
83.800003	88.402	113.8594
85.000000	88.344	113.5789
86.199997	88.374	113.1423
87.500000	88.270	112.4064
88.500000	88.245	112.0156
90.000000	88.121	111.4312
91.199997	88.085	110.8540
92.500000	87.957	110.5788
93.800003	87.936	110.4005
95.000000	87.931	110.0396
96.199997	87.875	109.2986
97.500000	87.808	109.1484
98.800003	87.753	108.5589
100.000000	87.686	108.4439
101.500000	87.661	107.9155
103.000000	87.589	107.4299
104.400002	87.558	107.1597
106.000000	87.507	106.6550
107.500000	87.473	106.3821
109.000000	87.412	105.8723
110.599998	87.381	105.4763
112.000000	87.307	104.9332
113.800003	87.225	104.5271
115.000000	87.217	104.2994
117.199997	87.129	103.6606
118.000000	87.106	103.3063
120.599998	87.021	102.0935
122.000000	87.013	102.2496
124.099998	86.949	101.6225
125.000000	86.911	101.0311
126.500000	86.861	101.1319
128.000000	86.740	100.2552
131.500000	86.804	99.7071
132.000000	86.771	99.3634
134.000000	86.722	99.6160
136.000000	86.617	99.1501
138.000000	86.530	98.1671
140.000000	86.418	97.8643
143.000000	86.352	97.1173
145.000000	86.404	96.1601
147.500000	86.307	95.6554
150.000000	86.387	95.4761
152.500000	86.279	95.8543
155.000000	86.206	94.3340
157.500000	86.274	92.3024
160.000000	86.336	92.4124
162.500000	86.351	92.0089
165.000000	86.143	91.4458
167.500000	86.147	90.0605
170.000000	86.387	89.6373
172.500000	86.277	87.8768
175.000000	86.118	88.8415
177.500000	85.954	93.3216
180.000000	85.443	86.7148
182.500000	85.389	86.8707
185.000000	85.820	84.6206
187.500000	85.762	85.6715
190.000000	85.822	86.0260
192.500000	85.797	86.3120
195.000000	85.745	83.5683
197.500000	85.772	83.7566
200.000000	85.670	83.2626
203.000000	85.644	82.7223
206.000000	85.569	82.4120
209.000000	85.571	81.1080
212.000000	85.496	80.8060
214.000000	85.591	79.9370
218.000000	85.508	79.5566
220.000000	85.425	79.0634
224.000000	85.362	78.4604
227.000000	85.324	77.9443
230.000000	85.393	77.5469
233.000000	85.324	76.5836
236.000000	85.290	76.4530
240.000000	85.253	75.1477
243.000000	85.260	74.6215
247.000000	85.192	74.3890
250.000000	85.179	73.7576
254.000000	85.136	73.2253
258.000000	85.107	72.5895
262.000000	85.054	72.0587
265.000000	85.018	71.6141
269.000000	85.015	70.9244
272.000000	84.964	70.4988
276.000000	84.940	70.1240
280.000000	84.919	69.5530
285.000000	84.937	68.9977
290.000000	84.941	68.3534
295.000000	84.914	67.6630
300.000000	84.914	66.9214
304.000000	84.910	66.4843
307.000000	84.903	66.0854
311.000000	84.901	65.4892
315.000000	84.890	64.9683
320.000000	84.874	64.2077
325.000000	84.852	63.7661
330.000000	84.848	63.2660
335.000000	84.821	62.6306
340.000000	84.826	62.1019
345.000000	84.828	61.4154
350.000000	84.836	61.1769
355.000000	84.866	60.5926
360.000000	84.883	60.0028
365.000000	84.913	59.3796
370.000000	84.927	58.6453
375.000000	84.942	57.8224
382.000000	84.937	56.8300
387.000000	84.912	55.9422
395.000000	84.878	54.8848
400.000000	84.844	54.2496
406.000000	84.825	53.5221
412.000000	84.784	52.9206
418.000000	84.761	52.3370
425.000000	84.730	51.6459
431.000000	84.703	51.1218
437.000000	84.688	50.6388
444.000000	84.651	50.0543
450.000000	84.644	49.5526
455.000000	84.614	49.1536
462.000000	84.605	48.5875
468.000000	84.586	48.2751
475.000000	84.572	47.7206
482.000000	84.560	47.2505
487.000000	84.541	46.9081
494.000000	84.526	46.5223
500.000000	84.506	46.1613
508.000000	84.491	45.6767
515.000000	84.465	45.2662
522.000000	84.444	44.9670
530.000000	84.425	44.5252
538.000000	84.413	44.1237
545.000000	84.399	43.7848
552.000000	84.376	43.4689
560.000000	84.360	43.1311
570.000000	84.343	42.7285
580.000000	84.324	42.3696
590.000000	84.303	41.9944
600.000000	84.280	41.6479
608.000000	84.276	41.4238
615.000000	84.265	41.2156
622.000000	84.257	40.9890
630.000000	84.250	40.8065
640.000000	84.247	40.5584
650.000000	84.252	40.3320
660.000000	84.244	40.1711
670.000000	84.232	39.9932
680.000000	84.234	39.8284
690.000000	84.239	39.7416
700.000000	84.233	39.5897
710.000000	84.231	39.5132
720.000000	84.233	39.4038
730.000000	84.238	39.3597
740.000000	84.243	39.3206
750.000000	84.252	39.2527
762.000000	84.260	39.2596
775.000000	84.273	39.2739
788.000000	84.284	39.2920
800.000000	84.294	39.3425
812.000000	84.324	39.4167
825.000000	84.354	39.5099
838.000000	84.382	39.6092
850.000000	84.416	39.6572
862.000000	84.452	39.7799
875.000000	84.503	39.9812
885.000000	84.542	40.0583
900.000000	84.599	40.1468
912.000000	84.656	40.3311
925.000000	84.717	40.4720
938.000000	84.789	40.5809
950.000000	84.858	40.6911
962.000000	84.927	40.7847
975.000000	85.004	40.8752
988.000000	85.090	40.9217
1000.000000	85.162	40.9404
1015.000000	85.265	40.9405
1030.000000	85.372	40.9223
1044.000000	85.471	40.8846
1060.000000	85.594	40.7829
1075.000000	85.705	40.6044
1090.000000	85.820	40.3804
1106.000000	85.958	40.2022
1120.000000	86.072	39.9143
1138.000000	86.220	39.4425
1150.000000	86.316	39.1137
1172.000000	86.473	38.5646
1180.000000	86.535	38.2783
1206.000000	86.718	37.4199
1220.000000	86.812	36.9075
1241.000000	86.946	36.1803
1250.000000	87.003	35.8771
1265.000000	87.093	35.2995
1280.000000	87.175	34.7297
1315.000000	87.352	33.3843
1320.000000	87.370	33.2255
1340.000000	87.449	32.5088
1360.000000	87.536	31.7778
1380.000000	87.610	31.0353
1400.000000	87.675	30.3955
1430.000000	87.772	29.4643
1450.000000	87.824	28.8563
1475.000000	87.885	28.1188
1500.000000	87.953	27.4860
1525.000000	88.019	26.8596
1550.000000	88.090	26.2488
1575.000000	88.161	25.7020
1600.000000	88.227	25.2197
1625.000000	88.293	24.7075
1650.000000	88.366	24.1888
1675.000000	88.442	23.7448
1700.000000	88.511	23.3153
1725.000000	88.587	22.8402
1750.000000	88.661	22.3968
1775.000000	88.746	21.9646
1800.000000	88.825	21.5643
1825.000000	88.908	21.1036
1850.000000	88.999	20.6068
1875.000000	89.085	20.1564
1900.000000	89.166	19.7183
1925.000000	89.257	19.2593
1950.000000	89.346	18.7169
1975.000000	89.433	18.1705
2000.000000	89.521	17.6077
2030.000000	89.620	16.9435
2060.000000	89.725	16.1926
2090.000000	89.827	15.4072
2120.000000	89.937	14.6074
2140.000000	89.999	14.0387
2180.000000	90.117	12.8791
2200.000000	90.177	12.2385
2240.000000	90.271	10.9631
2270.000000	90.336	9.9908
2300.000000	90.392	8.9812
2330.000000	90.448	7.9569
2360.000000	90.492	6.8859
2400.000000	90.539	5.4400
2430.000000	90.555	4.3707
2470.000000	90.557	2.9543
2500.000000	90.549	1.8650
2540.000000	90.525	0.5193
2580.000000	90.476	-0.8465
2620.000000	90.421	-2.0939
2650.000000	90.372	-3.0260
2690.000000	90.298	-4.1675
2720.000000	90.230	-4.9476
2760.000000	90.119	-5.9591
2800.000000	90.014	-6.8546
2850.000000	89.878	-7.8784
2900.000000	89.731	-8.6953
2950.000000	89.585	-9.4668
3000.000000	89.457	-10.0582
3040.000000	89.350	-10.4824
3070.000000	89.268	-10.7480
3110.000000	89.161	-11.0436
3150.000000	89.075	-11.2567
3200.000000	88.966	-11.5212
3250.000000	88.874	-11.6671
3300.000000	88.784	-11.8160
3350.000000	88.716	-11.9252
3400.000000	88.660	-12.0342
3450.000000	88.621	-12.1279
3500.000000	88.614	-12.2300
3550.000000	88.620	-12.3174
3600.000000	88.630	-12.5024
3650.000000	88.646	-12.7886
3700.000000	88.667	-13.0242
3750.000000	88.694	-13.3762
3820.000000	88.732	-14.0262
3870.000000	88.758	-14.5558
3950.000000	88.756	-15.6428
4000.000000	88.742	-16.3753
4060.000000	88.712	-17.3873
4120.000000	88.659	-18.4250
4180.000000	88.563	-19.5427
4250.000000	88.419	-20.8175
4310.000000	88.233	-21.8418
4370.000000	88.010	-22.5665
4440.000000	87.688	-23.0279
4500.000000	87.394	-22.8900
4550.000000	87.161	-22.3980
4620.000000	86.842	-21.0012
4680.000000	86.626	-19.3122
4750.000000	86.460	-16.7283
4820.000000	86.435	-13.7585
4870.000000	86.503	-11.5803
4940.000000	86.753	-8.5934
5000.000000	87.089	-6.4590
5080.000000	87.678	-4.5157
5150.000000	88.295	-4.0358
5220.000000	88.922	-4.8301
5300.000000	89.576	-7.3542
5380.000000	90.056	-11.1885
5450.000000	90.276	-15.2886
5520.000000	90.271	-19.4568
5600.000000	90.049	-23.8025
5700.000000	89.556	-28.1799
5800.000000	88.940	-31.0324
5900.000000	88.278	-32.5784
6000.000000	87.610	-32.8740
6080.000000	87.098	-32.3188
6150.000000	86.685	-31.2584
6220.000000	86.328	-29.5970
6300.000000	85.991	-27.0441
6400.000000	85.750	-23.2314
6500.000000	85.737	-19.2706
6600.000000	85.893	-15.7076
6700.000000	86.164	-12.6086
6800.000000	86.534	-10.1035
6900.000000	87.016	-8.1052
7000.000000	87.600	-6.6713
7100.000000	88.253	-5.8566
7200.000000	88.962	-5.8289
7300.000000	89.730	-6.4769
7400.000000	90.609	-8.2454
7500.000000	91.512	-11.8384
7620.000000	92.480	-18.6940
7750.000000	93.131	-29.0869
7880.000000	93.126	-40.8542
8000.000000	92.566	-50.8922
8120.000000	91.672	-58.7621
8250.000000	90.567	-64.9769
8380.000000	89.452	-69.3004
8500.000000	88.426	-72.2203
8620.000000	87.415	-74.3623
8750.000000	86.267	-75.9867
8850.000000	85.356	-76.5542
9000.000000	84.039	-76.4200
9120.000000	82.966	-75.4046
9250.000000	81.853	-73.2469
9380.000000	80.837	-70.2604
9500.000000	80.022	-66.8823
9620.000000	79.275	-63.1497
9750.000000	78.605	-58.8698
9880.000000	78.045	-54.3996
10000.000000	77.596	-50.3840
10150.000000	77.139	-45.3937
10300.000000	76.764	-40.5563
10440.000000	76.536	-36.3843
10600.000000	76.285	-31.8377
10750.000000	76.087	-27.9305
10900.000000	75.867	-24.1019
11060.000000	75.666	-19.9526
11200.000000	75.554	-16.0829
11380.000000	75.578	-11.5897
11500.000000	75.533	-9.5350
11720.000000	75.377	-5.3861
11800.000000	75.324	-3.6390
12060.000000	75.201	1.8407
12200.000000	75.129	4.8010
12410.000000	75.175	9.7421
12500.000000	75.207	11.7704
12650.000000	75.322	15.1951
12800.000000	75.449	18.7407
13150.000000	75.879	27.2018
13200.000000	75.966	28.3821
13400.000000	76.357	33.6633
13600.000000	77.001	39.1091
13800.000000	77.850	43.9832
14000.000000	78.975	48.1153
14300.000000	81.240	50.8170
14500.000000	83.086	48.1384
14750.000000	85.041	35.7797
15000.000000	85.295	20.9258
15250.000000	85.323	13.4453
15500.000000	86.052	-0.0919
15750.000000	84.835	-19.9091
16000.000000	82.306	-29.5775
16250.000000	79.989	-31.2631
16500.000000	78.008	-29.4015
16750.000000	76.229	-24.4880
17000.000000	74.918	-16.0115
17250.000000	74.475	-7.1997
17500.000000	74.227	-0.8643
17750.000000	74.054	4.6863
18000.000000	74.061	9.4648
18250.000000	74.204	13.9299
18500.000000	74.395	17.2440
18750.000000	74.725	20.2796
19000.000000	75.200	22.9597
19250.000000	76.001	24.8121
19500.000000	77.036	24.0491
19750.000000	78.078	19.6102
