* Measurement data measured by REW V5.20 Beta 60
* Source: Headset (USB-C to 3.5mm Headphone Jack Adapter), MICROPHONE (Master Volume), R, volume: 0.258
* Format: 256k Log Swept Sine, 1 sweep at -12.0 dBFS with no timing reference
* Dated: Mar 3, 2021 4:04:49 PM
* REW Settings:
*  C-weighting compensation: Off
*  Target level: 75.0 dB
* Note: ; 
* Measurement: Technics EAH-TZ700 R
* Smoothing: None
* Frequency Step: 1/48 octave
* Start Frequency: 20.000 Hz
*
* Freq(Hz)	SPL(dB)	Phase(degrees)
20.000000	94.714890	-177.8802
20.299999	94.706566	-178.2085
20.600000	94.703636	-178.4696
20.900000	94.709045	-178.6989
21.200001	94.726097	-178.9676
21.400000	94.738190	-179.1843
21.799999	94.755219	-179.6891
22.000000	94.757561	-179.9648
22.400000	94.750397	179.4753
22.700001	94.734550	179.1241
23.000000	94.717697	178.8498
23.299999	94.708374	178.6180
23.600000	94.706284	178.4015
24.000000	94.711029	178.0805
24.299999	94.715973	177.7877
24.700001	94.716705	177.3505
25.000000	94.710617	177.0162
25.400000	94.697723	176.5813
25.799999	94.679794	176.1941
26.200001	94.661484	175.8369
26.500000	94.648880	175.5810
26.900000	94.631935	175.2703
27.200001	94.621124	175.0496
27.600000	94.611031	174.7589
28.000000	94.601379	174.4555
28.500000	94.587387	174.0401
29.000000	94.567383	173.6480
29.500000	94.549179	173.2987
30.000000	94.534996	172.9765
30.400000	94.527222	172.6946
30.700001	94.519791	172.4755
31.100000	94.506592	172.1816
31.500000	94.491447	171.8978
32.000000	94.472290	171.5808
32.500000	94.458092	171.2655
33.000000	94.443954	170.9377
33.500000	94.425171	170.5926
34.000000	94.400017	170.2664
34.500000	94.376404	169.9624
35.000000	94.352661	169.6945
35.500000	94.332657	169.4456
36.000000	94.316925	169.1904
36.500000	94.301254	168.8785
37.000000	94.277618	168.5377
37.500000	94.245987	168.2269
38.200001	94.202148	167.9174
38.700001	94.183495	167.7121
39.500000	94.161842	167.2502
40.000000	94.134911	166.9405
40.599998	94.093643	166.6567
41.200001	94.066528	166.4654
41.799999	94.056259	166.2208
42.500000	94.037148	165.8192
43.099998	94.007545	165.4852
43.700001	93.977600	165.2007
44.400002	93.943642	164.8633
45.000000	93.908600	164.5780
45.500000	93.877548	164.3782
46.200001	93.836922	164.1602
46.799999	93.806938	163.9886
47.500000	93.778984	163.7831
48.200001	93.753845	163.5326
48.700001	93.730820	163.3108
49.400002	93.687584	163.0636
50.000000	93.656036	162.9478
50.799999	93.641029	162.6438
51.500000	93.605392	162.2169
52.200001	93.536865	161.9422
53.000000	93.484390	161.8640
53.799999	93.455635	161.5935
54.500000	93.397949	161.3270
55.200001	93.349503	161.3047
56.000000	93.345726	161.1595
57.000000	93.297318	160.5427
58.000000	93.213898	160.3439
59.000000	93.186401	160.1230
60.000000	93.138374	159.7469
60.799999	93.092293	159.5318
61.500000	93.054970	159.3414
62.200001	93.013046	159.1729
63.000000	92.968559	159.0250
64.000000	92.912697	158.8003
65.000000	92.857620	158.6549
66.000000	92.818451	158.3963
67.000000	92.752502	158.0731
68.000000	92.694687	157.9069
69.000000	92.641953	157.6564
70.000000	92.586784	157.5594
71.000000	92.553635	157.3085
72.000000	92.478661	157.1362
73.000000	92.444298	157.1531
74.000000	92.407097	156.8661
75.000000	92.343910	156.7097
76.199997	92.281372	156.5480
77.500000	92.233894	156.3709
78.800003	92.146767	155.9993
80.000000	92.090683	156.0518
81.199997	92.043541	155.7768
82.500000	91.971054	155.6852
83.800003	91.905327	155.5669
85.000000	91.854942	155.5526
86.199997	91.812202	155.3607
87.500000	91.730461	155.1503
88.500000	91.677719	155.1711
90.000000	91.615448	154.9987
91.199997	91.557175	154.9086
92.500000	91.486908	154.6734
93.800003	91.409698	154.6357
95.000000	91.352943	154.5520
96.199997	91.310814	154.5657
97.500000	91.275238	154.3672
98.800003	91.206772	154.3129
100.000000	91.168877	154.4174
101.500000	91.115723	154.0973
103.000000	90.986168	154.2024
104.400002	90.929794	154.1982
106.000000	90.872742	153.9769
107.500000	90.750237	153.8047
109.000000	90.741852	153.9855
110.599998	90.674774	153.6286
112.000000	90.593552	153.6537
113.800003	90.512550	153.9459
115.000000	90.491356	153.8400
117.199997	90.363907	153.7180
118.000000	90.329559	153.7902
120.599998	90.262054	153.5837
122.000000	90.175819	153.6396
124.099998	90.131409	153.9048
125.000000	90.110489	153.7485
126.500000	89.997505	153.6262
128.000000	89.926682	153.9711
131.500000	89.758614	153.9235
132.000000	89.749672	154.0351
134.000000	89.726807	154.0837
136.000000	89.646729	153.7232
138.000000	89.546280	154.1053
140.000000	89.474159	154.2206
143.000000	89.329170	154.2742
145.000000	89.272987	154.3867
147.500000	89.206558	154.4657
150.000000	89.122475	154.7532
152.500000	89.033356	154.6288
155.000000	88.953445	154.9861
157.500000	88.894341	154.7462
160.000000	88.763657	155.2231
162.500000	88.761742	155.2738
165.000000	88.650681	155.2921
167.500000	88.583199	155.5624
170.000000	88.520119	156.0814
172.500000	88.406342	156.0087
175.000000	88.293549	156.2185
177.500000	88.250252	156.0289
180.000000	88.155014	156.5491
182.500000	88.131393	156.9338
185.000000	87.972992	156.6052
187.500000	87.850319	157.3173
190.000000	87.968224	157.4673
192.500000	87.709320	156.6821
195.000000	87.657135	158.6402
197.500000	87.693970	157.7751
200.000000	87.499062	157.9546
203.000000	87.443283	158.7026
206.000000	87.430626	158.6569
209.000000	87.095764	158.7047
212.000000	87.252663	159.7275
214.000000	87.223923	159.6432
218.000000	87.089012	161.1280
220.000000	87.069778	158.7596
224.000000	86.956772	160.8891
227.000000	86.820953	160.5666
230.000000	86.815857	160.9069
233.000000	86.711121	161.3800
236.000000	86.673691	162.0618
240.000000	86.632256	161.7291
243.000000	86.623505	162.1108
247.000000	86.274200	162.4835
250.000000	86.231567	162.5921
254.000000	86.237839	165.1061
258.000000	86.070595	163.6547
262.000000	86.114075	165.1938
265.000000	85.978683	165.2208
269.000000	85.869606	166.1773
272.000000	85.836403	166.5466
276.000000	85.712181	167.1810
280.000000	85.644272	167.7101
285.000000	85.562881	168.7383
290.000000	85.602180	169.3018
295.000000	85.608673	169.7299
300.000000	85.590721	170.3733
304.000000	85.522202	171.8055
307.000000	85.537689	172.0803
311.000000	85.345139	171.4343
315.000000	85.399979	172.6056
320.000000	85.211761	173.1100
325.000000	85.183670	173.6808
330.000000	85.228378	174.6555
335.000000	85.168755	175.5563
340.000000	85.187500	176.1761
345.000000	85.202332	176.6481
350.000000	85.141602	176.5614
355.000000	85.095894	177.0959
360.000000	85.047470	177.2161
365.000000	84.995689	177.7485
370.000000	84.915344	177.8370
375.000000	84.910828	178.0777
382.000000	84.780937	178.8790
387.000000	84.737968	179.3595
395.000000	84.661392	-179.8167
400.000000	84.574142	-179.2427
406.000000	84.541611	-178.6273
412.000000	84.472656	-178.0090
418.000000	84.421692	-177.2784
425.000000	84.321541	-176.5860
431.000000	84.288506	-175.9026
437.000000	84.228722	-175.1754
444.000000	84.192154	-174.5107
450.000000	84.147469	-173.7567
455.000000	84.155930	-173.3132
462.000000	84.074524	-172.4462
468.000000	83.999313	-171.9824
475.000000	83.976097	-171.4820
482.000000	83.933884	-170.6366
487.000000	83.883011	-169.8318
494.000000	83.878830	-169.3211
500.000000	83.844353	-168.8255
508.000000	83.860352	-167.9770
515.000000	83.739876	-166.5174
522.000000	83.731171	-166.7549
530.000000	83.715553	-165.5850
538.000000	83.654877	-164.6754
545.000000	83.615692	-163.8428
552.000000	83.594551	-163.0561
560.000000	83.556442	-162.2469
570.000000	83.492401	-161.3580
580.000000	83.541039	-160.3211
590.000000	83.464035	-159.1838
600.000000	83.403931	-158.4741
608.000000	83.404419	-157.0232
615.000000	83.348969	-156.3752
622.000000	83.334572	-155.5554
630.000000	83.336853	-154.8833
640.000000	83.346451	-153.5453
650.000000	83.274673	-152.7307
660.000000	83.287979	-151.4660
670.000000	83.259979	-150.9554
680.000000	83.218506	-149.6049
690.000000	83.229027	-148.3145
700.000000	83.192360	-147.3739
710.000000	83.229446	-146.3587
720.000000	83.201332	-145.3937
730.000000	83.226830	-144.4951
740.000000	83.190506	-143.0240
750.000000	83.199814	-142.3594
762.000000	83.202423	-140.9616
775.000000	83.206474	-139.6549
788.000000	83.204071	-138.1646
800.000000	83.215866	-136.8880
812.000000	83.244278	-135.7013
825.000000	83.263786	-134.4595
838.000000	83.282104	-133.0312
850.000000	83.305489	-131.8944
862.000000	83.347504	-130.5056
875.000000	83.371040	-129.2089
885.000000	83.421349	-128.1937
900.000000	83.464523	-126.6532
912.000000	83.529915	-125.4573
925.000000	83.589035	-124.2028
938.000000	83.667221	-122.9574
950.000000	83.733238	-121.8282
962.000000	83.796204	-120.6245
975.000000	83.877846	-119.5274
988.000000	83.983818	-118.3472
1000.000000	84.126358	-117.1241
1015.000000	84.157776	-116.1108
1030.000000	84.248062	-114.9737
1044.000000	84.354546	-113.8854
1060.000000	84.479126	-112.7445
1075.000000	84.585953	-111.7258
1090.000000	84.716583	-110.7762
1106.000000	84.854225	-109.8263
1120.000000	84.976974	-109.0294
1138.000000	85.130730	-108.1264
1150.000000	85.228867	-107.5490
1172.000000	85.410698	-106.5334
1180.000000	85.469894	-106.1974
1206.000000	85.676376	-105.2044
1220.000000	85.789932	-104.6771
1241.000000	85.944107	-103.9878
1250.000000	86.008835	-103.7138
1265.000000	86.116791	-103.2417
1280.000000	86.222389	-102.7836
1315.000000	86.436623	-101.7927
1320.000000	86.466812	-101.6669
1340.000000	86.596161	-101.1711
1360.000000	86.710938	-100.6453
1380.000000	86.825134	-100.1066
1400.000000	86.930107	-99.6205
1430.000000	87.081772	-98.8284
1450.000000	87.183327	-98.3917
1475.000000	87.310982	-97.7752
1500.000000	87.422432	-97.2044
1525.000000	87.529495	-96.5682
1550.000000	87.648254	-96.0317
1575.000000	87.765182	-95.4998
1600.000000	87.870674	-94.9023
1625.000000	87.985237	-94.4268
1650.000000	88.087357	-93.8805
1675.000000	88.194351	-93.3411
1700.000000	88.297638	-92.9044
1725.000000	88.404549	-92.4090
1750.000000	88.502083	-91.9645
1775.000000	88.604576	-91.5832
1800.000000	88.696594	-91.1763
1825.000000	88.790314	-90.8263
1850.000000	88.875183	-90.5083
1875.000000	88.964478	-90.1553
1900.000000	89.054192	-89.8378
1925.000000	89.132568	-89.5937
1950.000000	89.192261	-89.3528
1975.000000	89.244629	-89.1711
2000.000000	89.254173	-89.2731
2030.000000	89.389008	-88.7246
2060.000000	89.464546	-88.4750
2090.000000	89.520729	-88.2626
2120.000000	89.566528	-88.1395
2140.000000	89.591072	-88.0371
2180.000000	89.634056	-87.7896
2200.000000	89.649948	-87.6801
2240.000000	89.676682	-87.6807
2270.000000	89.674736	-87.9133
2300.000000	89.664528	-88.3143
2330.000000	89.651901	-88.6896
2360.000000	89.625717	-89.0589
2400.000000	89.587227	-89.2633
2430.000000	89.556503	-89.1818
2470.000000	89.495605	-88.8678
2500.000000	89.440140	-88.6287
2540.000000	89.354752	-88.2427
2580.000000	89.268188	-87.7669
2620.000000	89.176476	-87.2919
2650.000000	89.100685	-86.9029
2690.000000	88.998558	-86.3004
2720.000000	88.919891	-85.8179
2760.000000	88.802170	-85.1516
2800.000000	88.685471	-84.3951
2850.000000	88.527763	-83.3766
2900.000000	88.377495	-82.3397
2950.000000	88.229965	-81.1375
3000.000000	88.086334	-79.6570
3040.000000	87.969749	-78.9275
3070.000000	87.880180	-78.2183
3110.000000	87.769402	-77.2084
3150.000000	87.654839	-76.1267
3200.000000	87.513924	-74.7517
3250.000000	87.366577	-73.3016
3300.000000	87.225853	-71.8239
3350.000000	87.090111	-70.2166
3400.000000	86.954910	-68.4854
3450.000000	86.845871	-66.6284
3500.000000	86.785042	-64.6588
3550.000000	86.770119	-62.7581
3600.000000	86.778999	-61.1082
3650.000000	86.779037	-59.6106
3700.000000	86.767342	-58.2562
3750.000000	86.735085	-56.9019
3820.000000	86.685089	-54.9929
3870.000000	86.638382	-53.5557
3950.000000	86.550430	-51.2657
4000.000000	86.477356	-49.9410
4060.000000	86.441910	-47.9747
4120.000000	86.403145	-46.1614
4180.000000	86.346474	-44.4048
4250.000000	86.309128	-42.1482
4310.000000	86.270462	-40.3326
4370.000000	86.244705	-38.5293
4440.000000	86.206123	-36.3725
4500.000000	86.194901	-34.5059
4550.000000	86.171417	-32.9908
4620.000000	86.158791	-30.7740
4680.000000	86.143555	-28.8566
4750.000000	86.142258	-26.5838
4820.000000	86.150978	-24.3275
4870.000000	86.166077	-22.6854
4940.000000	86.200806	-20.4651
5000.000000	86.233269	-18.6912
5080.000000	86.290375	-15.9318
5150.000000	86.333832	-13.4554
5220.000000	86.406151	-11.0961
5300.000000	86.501060	-8.2738
5380.000000	86.625381	-5.4139
5450.000000	86.753555	-2.8254
5520.000000	86.880997	-0.2430
5600.000000	87.057068	2.6867
5700.000000	87.342697	6.3041
5800.000000	87.720062	9.5858
5900.000000	88.175499	12.5827
6000.000000	88.692635	15.0106
6080.000000	89.157265	16.4685
6150.000000	89.588806	17.4182
6220.000000	90.041176	17.9199
6300.000000	90.561707	18.0481
6400.000000	91.198013	17.3177
6500.000000	91.791214	15.6614
6600.000000	92.272720	13.1337
6700.000000	92.636391	9.9251
6800.000000	92.836365	6.4009
6900.000000	92.892403	2.8011
7000.000000	92.819023	-0.4634
7100.000000	92.637520	-3.1144
7200.000000	92.389809	-5.1042
7300.000000	92.103668	-6.5411
7400.000000	91.799080	-7.3785
7500.000000	91.494133	-7.6168
7620.000000	91.151115	-7.2874
7750.000000	90.822342	-6.3123
7880.000000	90.536591	-4.9010
8000.000000	90.354507	-3.3016
8120.000000	90.242928	-1.6255
8250.000000	90.229813	0.0533
8380.000000	90.300507	1.5583
8500.000000	90.437813	2.5663
8620.000000	90.652336	3.0277
8750.000000	90.904991	2.7665
8850.000000	91.116882	1.8301
9000.000000	91.426292	-1.0381
9120.000000	91.582298	-4.9227
9250.000000	91.501335	-10.4284
9380.000000	91.047905	-16.3335
9500.000000	90.291718	-20.9822
9620.000000	89.336983	-23.5472
9750.000000	88.305168	-23.5692
9880.000000	87.574295	-21.5837
10000.000000	87.257217	-19.8173
10150.000000	87.173073	-19.8556
10300.000000	86.951088	-23.1480
10440.000000	86.358734	-27.0656
10600.000000	85.306053	-30.5673
10750.000000	84.167946	-31.9447
10900.000000	83.030968	-31.7016
11060.000000	81.862274	-30.2947
11200.000000	80.935364	-28.1079
11380.000000	79.859604	-24.6503
11500.000000	79.222618	-22.1399
11720.000000	78.153625	-16.8968
11800.000000	77.831940	-15.0451
12060.000000	76.879944	-7.8350
12200.000000	76.469002	-4.1079
12410.000000	76.054779	1.6444
12500.000000	75.978905	4.0673
12650.000000	75.811981	8.3825
12800.000000	75.744598	12.4871
13150.000000	75.995094	21.9348
13200.000000	76.091270	23.1659
13400.000000	76.501022	27.6029
13600.000000	77.090561	31.1092
13800.000000	77.802628	33.6188
14000.000000	78.685509	35.0158
14300.000000	80.235336	34.2433
14500.000000	81.586807	32.0196
14750.000000	83.511757	23.0594
15000.000000	85.116211	4.0736
15250.000000	84.826302	-22.1790
15500.000000	82.614105	-41.9181
15750.000000	80.072334	-51.9589
16000.000000	77.943962	-57.2187
16250.000000	76.134644	-59.7149
16500.000000	74.725891	-61.3144
16750.000000	73.677917	-62.0399
17000.000000	72.898674	-63.5054
17250.000000	72.475784	-65.3508
17500.000000	72.318405	-68.3934
17750.000000	72.573944	-76.1058
18000.000000	72.882431	-90.8726
18250.000000	73.046478	-111.0056
18500.000000	72.477402	-133.7566
18750.000000	71.187492	-154.2605
19000.000000	69.534798	-168.7743
19250.000000	68.383865	-179.7498
19500.000000	68.346016	167.8010
19750.000000	68.625389	146.1653
