* Measurement data measured by REW V5.20 Beta 60
* Source: Headset (USB-C to 3.5mm Headphone Jack Adapter), MICROPHONE (Master Volume), R, volume: 0.000
* Format: 256k Log Swept Sine, 1 sweep at -12.0 dBFS with no timing reference
* Dated: Nov 21, 2020 4:47:15 PM
* REW Settings:
*  C-weighting compensation: Off
*  Target level: 75.0 dB
* Note: ; 
* Measurement: TFZ Live 3 R
* Smoothing: None
* Frequency Step: 1/48 octave
* Start Frequency: 20.000 Hz
*
* Freq(Hz)	SPL(dB)	Phase(degrees)
20.000000	94.885147	-173.7357
20.299999	94.892906	-174.2612
20.600000	94.897018	-174.7476
20.900000	94.898460	-175.1845
21.200001	94.904114	-175.5930
21.400000	94.909332	-175.8558
21.799999	94.922165	-176.3748
22.000000	94.929527	-176.6468
22.400000	94.945129	-177.2520
22.700001	94.949432	-177.7182
23.000000	94.946205	-178.1721
23.299999	94.939552	-178.6040
23.600000	94.930069	-178.9982
24.000000	94.916206	-179.4745
24.299999	94.907959	-179.8208
24.700001	94.898163	179.7190
25.000000	94.889847	179.3734
25.400000	94.879219	178.9089
25.799999	94.867447	178.4698
26.200001	94.858490	178.0301
26.500000	94.853600	177.6819
26.900000	94.843643	177.2038
27.200001	94.832245	176.8423
27.600000	94.812637	176.3910
28.000000	94.790558	176.0074
28.500000	94.774971	175.5880
29.000000	94.776459	175.1480
29.500000	94.783569	174.5864
30.000000	94.771553	173.9640
30.400000	94.747696	173.5117
30.700001	94.725983	173.2469
31.100000	94.703697	172.9735
31.500000	94.695709	172.7182
32.000000	94.697388	172.3273
32.500000	94.694901	171.8181
33.000000	94.675034	171.3030
33.500000	94.646301	170.8568
34.000000	94.621826	170.4607
34.500000	94.606415	170.0136
35.000000	94.583130	169.5121
35.500000	94.546501	169.0297
36.000000	94.504883	168.6394
36.500000	94.470253	168.2982
37.000000	94.443779	167.9465
37.500000	94.419098	167.5548
38.200001	94.374359	167.0155
38.700001	94.339493	166.6729
39.500000	94.292770	166.1867
40.000000	94.266541	165.8980
40.599998	94.235725	165.5392
41.200001	94.207245	165.1595
41.799999	94.174782	164.7333
42.500000	94.116920	164.2555
43.099998	94.061165	163.9813
43.700001	94.025261	163.8006
44.400002	94.009697	163.4753
45.000000	93.990372	163.0312
45.500000	93.959274	162.6616
46.200001	93.912224	162.2744
46.799999	93.884483	161.9343
47.500000	93.836357	161.4314
48.200001	93.757187	161.1415
48.700001	93.717918	161.1271
49.400002	93.711372	161.0184
50.000000	93.696205	160.6466
50.799999	93.624649	160.1958
51.500000	93.578293	160.0893
52.200001	93.558479	159.7844
53.000000	93.487953	159.2672
53.799999	93.402611	159.1320
54.500000	93.376724	159.0742
55.200001	93.369987	158.7647
56.000000	93.341217	158.1940
57.000000	93.245247	157.4695
58.000000	93.135292	157.2705
59.000000	93.101608	157.0869
60.000000	93.046715	156.5979
60.799999	92.982201	156.3666
61.500000	92.941139	156.2084
62.200001	92.902359	156.0096
63.000000	92.858162	155.7825
64.000000	92.800674	155.3917
65.000000	92.711815	155.0410
66.000000	92.631317	154.9381
67.000000	92.590141	154.7420
68.000000	92.529251	154.3459
69.000000	92.460098	154.1451
70.000000	92.420242	153.8753
71.000000	92.348053	153.4806
72.000000	92.269562	153.3604
73.000000	92.212112	153.2424
74.000000	92.160889	153.1228
75.000000	92.112701	152.8199
76.199997	92.005745	152.5640
77.500000	91.951477	152.5589
78.800003	91.917557	152.0759
80.000000	91.839905	151.6166
81.199997	91.742798	151.3870
82.500000	91.656540	151.4694
83.800003	91.593704	151.3780
85.000000	91.524437	151.3203
86.199997	91.440948	151.0440
87.500000	91.359566	151.1035
88.500000	91.335182	150.7336
90.000000	91.212128	150.5515
91.199997	91.168785	150.4544
92.500000	91.108856	150.5489
93.800003	91.074768	150.2763
95.000000	90.987213	149.9756
96.199997	90.851830	149.8208
97.500000	90.781258	150.0901
98.800003	90.719994	149.8733
100.000000	90.676399	149.8035
101.500000	90.595726	149.7037
103.000000	90.548058	149.5694
104.400002	90.454514	149.4636
106.000000	90.348679	149.4398
107.500000	90.275864	149.3715
109.000000	90.192528	149.3158
110.599998	90.131317	149.2184
112.000000	90.040352	149.1196
113.800003	89.971619	149.3214
115.000000	89.900490	149.1845
117.199997	89.830795	149.0633
118.000000	89.772270	148.7713
120.599998	89.587807	149.1037
122.000000	89.573952	149.1922
124.099998	89.454742	149.1748
125.000000	89.441238	149.2379
126.500000	89.349976	149.0841
128.000000	89.285416	149.1042
131.500000	89.123138	149.2134
132.000000	89.111107	149.2400
134.000000	89.017204	149.3527
136.000000	88.953514	149.2466
138.000000	88.846756	149.4930
140.000000	88.730118	149.4326
143.000000	88.593262	149.4913
145.000000	88.521255	149.6987
147.500000	88.420807	149.7248
150.000000	88.347153	150.1851
152.500000	88.244461	150.0920
155.000000	88.156525	150.3478
157.500000	88.046982	150.4539
160.000000	87.952705	150.4282
162.500000	87.891380	150.6587
165.000000	87.797623	150.7371
167.500000	87.712189	150.7702
170.000000	87.616600	150.9851
172.500000	87.537300	151.2904
175.000000	87.441917	151.4075
177.500000	87.337059	151.6655
180.000000	87.271515	151.9344
182.500000	87.159203	152.1013
185.000000	87.067955	152.2759
187.500000	86.974831	152.5838
190.000000	86.886887	152.7491
192.500000	86.812164	152.9645
195.000000	86.720016	153.2478
197.500000	86.624931	153.3707
200.000000	86.567184	153.6243
203.000000	86.461067	153.9799
206.000000	86.363609	154.3014
209.000000	86.271523	154.6168
212.000000	86.179199	154.9386
214.000000	86.118362	155.1419
218.000000	86.008209	155.5206
220.000000	85.970612	155.7443
224.000000	85.868965	156.1647
227.000000	85.798973	156.4827
230.000000	85.726227	156.8478
233.000000	85.652199	157.2208
236.000000	85.589005	157.5122
240.000000	85.488792	157.9701
243.000000	85.401787	158.2729
247.000000	85.309448	158.7894
250.000000	85.241814	159.1036
254.000000	85.142250	159.6091
258.000000	85.056465	160.0079
262.000000	84.962631	160.6173
265.000000	84.893692	160.9544
269.000000	84.804184	161.2961
272.000000	84.745674	161.7190
276.000000	84.666748	162.2004
280.000000	84.583237	162.7389
285.000000	84.480965	163.4156
290.000000	84.388092	163.9831
295.000000	84.300545	164.6155
300.000000	84.212868	165.1485
304.000000	84.135254	165.6833
307.000000	84.069481	166.0966
311.000000	84.021507	166.6072
315.000000	83.953415	167.0883
320.000000	83.859680	167.7111
325.000000	83.774918	168.3498
330.000000	83.709511	169.0416
335.000000	83.616135	169.5988
340.000000	83.536026	170.3479
345.000000	83.464439	171.0825
350.000000	83.394112	171.6053
355.000000	83.322662	172.3201
360.000000	83.232910	172.9249
365.000000	83.168396	173.6472
370.000000	83.111633	174.2412
375.000000	83.045326	174.8464
382.000000	82.953415	175.7579
387.000000	82.895760	176.4081
395.000000	82.817177	177.4397
400.000000	82.751740	178.1366
406.000000	82.690910	178.8391
412.000000	82.617943	179.6412
418.000000	82.562668	-179.5411
425.000000	82.494064	-178.6848
431.000000	82.439514	-177.8505
437.000000	82.376740	-177.0976
444.000000	82.324455	-176.1480
450.000000	82.283165	-175.4142
455.000000	82.246948	-174.7616
462.000000	82.199036	-173.9794
468.000000	82.136971	-173.2684
475.000000	82.081573	-172.4804
482.000000	82.028160	-171.6192
487.000000	82.001404	-171.0400
494.000000	81.949478	-170.2349
500.000000	81.908211	-169.4500
508.000000	81.858795	-168.4157
515.000000	81.805656	-167.5079
522.000000	81.773163	-166.6701
530.000000	81.724564	-165.6875
538.000000	81.669693	-164.7579
545.000000	81.633446	-163.7449
552.000000	81.603081	-162.9072
560.000000	81.558609	-161.9239
570.000000	81.516624	-160.6261
580.000000	81.476601	-159.3596
590.000000	81.433189	-158.1234
600.000000	81.396637	-156.9356
608.000000	81.373413	-155.9053
615.000000	81.351738	-155.0576
622.000000	81.332047	-154.2384
630.000000	81.309380	-153.1989
640.000000	81.291504	-151.9879
650.000000	81.282623	-150.8328
660.000000	81.260315	-149.6185
670.000000	81.247307	-148.3819
680.000000	81.239182	-147.1620
690.000000	81.228371	-145.9837
700.000000	81.224472	-144.7913
710.000000	81.223518	-143.5878
720.000000	81.216080	-142.4255
730.000000	81.227203	-141.2719
740.000000	81.241684	-140.1858
750.000000	81.250343	-139.0580
762.000000	81.264511	-137.9007
775.000000	81.282898	-136.6651
788.000000	81.256622	-135.8732
800.000000	81.111732	-135.3318
812.000000	80.844345	-132.9732
825.000000	80.900612	-129.6714
838.000000	81.041870	-127.6005
850.000000	81.151932	-126.1326
862.000000	81.250130	-124.7509
875.000000	81.340508	-123.4499
885.000000	81.423500	-122.5079
900.000000	81.547577	-121.5126
912.000000	81.600685	-121.5754
925.000000	81.202469	-121.8610
938.000000	81.009102	-116.6758
950.000000	81.279221	-114.0919
962.000000	81.462273	-112.5776
975.000000	81.615082	-111.0819
988.000000	81.775459	-109.6961
1000.000000	81.952454	-108.3479
1015.000000	82.007553	-107.0890
1030.000000	82.130554	-105.6660
1044.000000	82.250862	-104.4089
1060.000000	82.390640	-103.0208
1075.000000	82.527565	-101.7340
1090.000000	82.671616	-100.5028
1106.000000	82.830338	-99.2786
1120.000000	82.965782	-98.2423
1138.000000	83.137939	-96.9687
1150.000000	83.248344	-96.1747
1172.000000	83.461365	-94.7486
1180.000000	83.536575	-94.2455
1206.000000	83.778740	-92.6754
1220.000000	83.899902	-91.9229
1241.000000	84.104218	-90.7668
1250.000000	84.181793	-90.3281
1265.000000	84.322792	-89.5666
1280.000000	84.450470	-88.8033
1315.000000	84.748535	-87.1130
1320.000000	84.794113	-86.9009
1340.000000	84.963242	-86.0004
1360.000000	85.128387	-85.0710
1380.000000	85.287796	-84.1885
1400.000000	85.457664	-83.3662
1430.000000	85.694252	-82.0385
1450.000000	85.853279	-81.2298
1475.000000	86.059410	-80.2122
1500.000000	86.262001	-79.2022
1525.000000	86.469208	-78.2380
1550.000000	86.672577	-77.3554
1575.000000	86.891785	-76.5059
1600.000000	87.108833	-75.6862
1625.000000	87.322517	-74.9174
1650.000000	87.542816	-74.2284
1675.000000	87.759697	-73.6330
1700.000000	87.975044	-73.0492
1725.000000	88.189873	-72.5642
1750.000000	88.399452	-72.1645
1775.000000	88.606308	-71.8283
1800.000000	88.802887	-71.5165
1825.000000	88.997269	-71.3005
1850.000000	89.182640	-71.1488
1875.000000	89.369934	-71.0149
1900.000000	89.542679	-70.9807
1925.000000	89.710281	-70.9156
1950.000000	89.864441	-70.9656
1975.000000	89.999458	-71.0954
2000.000000	90.073769	-71.4792
2030.000000	90.302139	-71.3230
2060.000000	90.460320	-71.4945
2090.000000	90.590790	-71.7645
2120.000000	90.711784	-72.0969
2140.000000	90.783249	-72.3137
2180.000000	90.894691	-72.7700
2200.000000	90.940559	-73.0008
2240.000000	91.022888	-73.6383
2270.000000	91.049820	-74.3505
2300.000000	91.060516	-75.2039
2330.000000	91.070000	-75.9918
2360.000000	91.055275	-76.7803
2400.000000	91.023041	-77.4820
2430.000000	90.995384	-77.7213
2470.000000	90.931999	-77.7780
2500.000000	90.877014	-77.7289
2540.000000	90.790398	-77.6286
2580.000000	90.696938	-77.3862
2620.000000	90.600975	-76.9898
2650.000000	90.528893	-76.6698
2690.000000	90.435150	-76.1128
2720.000000	90.365845	-75.6484
2760.000000	90.258415	-74.9186
2800.000000	90.156769	-74.1356
2850.000000	90.040024	-72.9897
2900.000000	89.936821	-71.8259
2950.000000	89.849594	-70.4967
3000.000000	89.764595	-68.7873
3040.000000	89.719666	-68.0157
3070.000000	89.688873	-67.2373
3110.000000	89.649330	-66.0785
3150.000000	89.626450	-64.9406
3200.000000	89.600769	-63.4739
3250.000000	89.593742	-62.0291
3300.000000	89.597900	-60.6348
3350.000000	89.613052	-59.2107
3400.000000	89.646576	-57.8311
3450.000000	89.704903	-56.4270
3500.000000	89.797096	-55.1105
3550.000000	89.904488	-53.9145
3600.000000	90.020302	-52.7963
3650.000000	90.150261	-51.8538
3700.000000	90.276253	-50.9668
3750.000000	90.407684	-50.1655
3820.000000	90.598648	-49.2371
3870.000000	90.734283	-48.6260
3950.000000	90.955811	-48.0488
4000.000000	91.080040	-48.0265
4060.000000	91.282608	-47.8184
4120.000000	91.441498	-48.1167
4180.000000	91.592186	-48.6740
4250.000000	91.751022	-49.6463
4310.000000	91.824417	-50.8087
4370.000000	91.859985	-52.1875
4440.000000	91.828529	-53.9023
4500.000000	91.747963	-55.3832
4550.000000	91.636597	-56.6194
4620.000000	91.423134	-58.2735
4680.000000	91.181435	-59.5549
4750.000000	90.847923	-60.7879
4820.000000	90.464027	-61.6934
4870.000000	90.172447	-62.1473
4940.000000	89.739777	-62.4470
5000.000000	89.343918	-62.5539
5080.000000	88.826256	-61.9007
5150.000000	88.364586	-61.0544
5220.000000	87.906494	-59.8804
5300.000000	87.408920	-58.0748
5380.000000	86.944038	-55.9699
5450.000000	86.566147	-53.8732
5520.000000	86.168243	-51.6487
5600.000000	85.745491	-48.8946
5700.000000	85.263451	-45.2531
5800.000000	84.828827	-41.3457
5900.000000	84.441170	-37.2525
6000.000000	84.113670	-32.9302
6080.000000	83.910469	-29.4179
6150.000000	83.766533	-26.1792
6220.000000	83.657257	-23.0279
6300.000000	83.572105	-19.4013
6400.000000	83.511841	-14.8681
6500.000000	83.497726	-10.2925
6600.000000	83.554680	-5.8111
6700.000000	83.669113	-1.2285
6800.000000	83.839371	3.2148
6900.000000	84.106003	7.6275
7000.000000	84.461807	11.9261
7100.000000	84.919983	16.1468
7200.000000	85.496574	19.9479
7300.000000	86.152618	23.4261
7400.000000	86.918411	26.3902
7500.000000	87.827385	28.4514
7620.000000	89.075333	29.5069
7750.000000	90.593872	27.9310
7880.000000	92.099823	21.7570
8000.000000	93.127945	11.1787
8120.000000	93.269798	-2.2780
8250.000000	92.341377	-15.2119
8380.000000	90.800781	-23.1855
8500.000000	89.193062	-26.2494
8620.000000	88.003464	-23.0810
8750.000000	86.948822	-24.1784
8850.000000	86.026398	-22.5986
9000.000000	84.879539	-18.7096
9120.000000	84.158249	-14.9778
9250.000000	83.538086	-10.5996
9380.000000	83.087570	-6.0017
9500.000000	82.811584	-1.7722
9620.000000	82.663132	2.2732
9750.000000	82.661400	6.3288
9880.000000	82.824013	9.8221
10000.000000	83.106094	12.1980
10150.000000	83.658195	13.7645
10300.000000	84.354935	13.0744
10440.000000	85.104904	8.9015
10600.000000	85.547211	-1.1725
10750.000000	85.023346	-13.2604
10900.000000	83.566780	-23.1145
11060.000000	81.544823	-28.0787
11200.000000	79.874710	-28.9357
11380.000000	77.903282	-28.2635
11500.000000	76.654434	-26.3925
11720.000000	74.514252	-20.7825
11800.000000	73.856888	-18.3590
12060.000000	71.953728	-8.7840
12200.000000	71.105972	-3.1849
12410.000000	70.138863	5.6240
12500.000000	69.629524	9.4790
12650.000000	69.138748	15.5001
12800.000000	68.685577	21.8060
13150.000000	67.946320	36.2867
13200.000000	67.887405	38.4673
13400.000000	67.607224	46.5586
13600.000000	67.521584	54.3675
13800.000000	67.513023	62.9775
14000.000000	67.660233	70.7201
14300.000000	68.274910	82.3776
14500.000000	68.774574	89.9473
14750.000000	70.091354	98.0472
15000.000000	71.724976	104.2718
15250.000000	74.078827	105.9080
15500.000000	76.843590	98.2719
15750.000000	78.655739	76.1689
16000.000000	77.540802	52.9081
16250.000000	75.480995	42.2246
16500.000000	73.893112	39.2069
16750.000000	73.203568	38.1130
17000.000000	73.271172	32.4103
17250.000000	72.424385	15.3645
17500.000000	68.093315	16.9639
17750.000000	69.950478	31.8097
18000.000000	71.461662	7.7246
18250.000000	70.007889	-15.2660
18500.000000	68.275284	-30.6041
18750.000000	66.510506	-43.0222
19000.000000	64.585678	-47.8577
19250.000000	63.421753	-52.1016
19500.000000	62.835876	-56.8746
19750.000000	62.482819	-69.2947
