* Measurement data measured by REW V5.20 Beta 60
* Source: In 1-2 (MOTU M Series), LINE_IN (Master Volume), L, volume: 0.250
* Format: 256k Log Swept Sine, 1 sweep at -10.0 dBFS with no timing reference
* Dated: Sep 17, 2022 10:31:14 PM
* REW Settings:
*  C-weighting compensation: Off
*  Target level: 75.0 dB
* Note: ; 
* Measurement: ThieAudio Monarch II R
* Smoothing: None
* Frequency Step: 1/48 octave
* Start Frequency: 20.000 Hz
*
* Freq(Hz)	SPL(dB)	Phase(degrees)
20.000000	90.706	-171.8092
20.299999	90.701	-172.3284
20.600000	90.697	-172.7908
20.900000	90.698	-173.2100
21.200001	90.710	-173.6460
21.400000	90.720	-173.9525
21.799999	90.737	-174.5805
22.000000	90.742	-174.9043
22.400000	90.746	-175.5926
22.700001	90.745	-176.0551
23.000000	90.746	-176.4716
23.299999	90.751	-176.8914
23.600000	90.761	-177.3112
24.000000	90.772	-177.8924
24.299999	90.776	-178.3585
24.700001	90.773	-178.9751
25.000000	90.766	-179.3910
25.400000	90.756	-179.8726
25.799999	90.750	179.7033
26.200001	90.754	179.2826
26.500000	90.761	178.9483
26.900000	90.768	178.4775
27.200001	90.769	178.1014
27.600000	90.765	177.5901
28.000000	90.752	177.1155
28.500000	90.732	176.5782
29.000000	90.717	176.1252
29.500000	90.713	175.6733
30.000000	90.713	175.1777
30.400000	90.712	174.7221
30.700001	90.706	174.3749
31.100000	90.693	173.9214
31.500000	90.677	173.4823
32.000000	90.655	172.9761
32.500000	90.632	172.4780
33.000000	90.609	172.0279
33.500000	90.587	171.6153
34.000000	90.570	171.2146
34.500000	90.558	170.7819
35.000000	90.539	170.3269
35.500000	90.515	169.8741
36.000000	90.490	169.4559
36.500000	90.464	169.0378
37.000000	90.434	168.6154
37.500000	90.402	168.2206
38.200001	90.360	167.7145
38.700001	90.335	167.3328
39.500000	90.288	166.7230
40.000000	90.263	166.3964
40.599998	90.249	165.9433
41.200001	90.227	165.3444
41.799999	90.172	164.8013
42.500000	90.114	164.5230
43.099998	90.114	164.3082
43.700001	90.118	163.7751
44.400002	90.061	163.0815
45.000000	89.991	162.8136
45.500000	89.956	162.7075
46.200001	89.925	162.4268
46.799999	89.882	162.1573
47.500000	89.845	161.9698
48.200001	89.836	161.5699
48.700001	89.812	161.0863
49.400002	89.733	160.4759
50.000000	89.666	160.1886
50.799999	89.619	159.8390
51.500000	89.591	159.3840
52.200001	89.554	158.8353
53.000000	89.480	158.2692
53.799999	89.407	158.0832
54.500000	89.396	157.9792
55.200001	89.389	157.5351
56.000000	89.312	156.9933
57.000000	89.212	156.8450
58.000000	89.158	156.5989
59.000000	89.094	156.1955
60.000000	89.017	155.6991
60.799999	88.946	155.4346
61.500000	88.910	155.2630
62.200001	88.888	154.9387
63.000000	88.842	154.5135
64.000000	88.782	154.1238
65.000000	88.709	153.6525
66.000000	88.600	153.4798
67.000000	88.548	153.4498
68.000000	88.475	152.9680
69.000000	88.357	152.8483
70.000000	88.313	152.7236
71.000000	88.225	152.2638
72.000000	88.142	152.3016
73.000000	88.124	152.0962
74.000000	88.064	151.7043
75.000000	87.994	151.4758
76.199997	87.913	151.3408
77.500000	87.868	150.9690
78.800003	87.751	150.5752
80.000000	87.690	150.3520
81.199997	87.574	150.1949
82.500000	87.545	150.2347
83.800003	87.404	149.8875
85.000000	87.317	150.0141
86.199997	87.141	150.0771
87.500000	87.142	150.5223
88.500000	87.075	149.8736
90.000000	87.019	149.5530
91.199997	86.860	149.0745
92.500000	86.865	149.5852
93.800003	86.787	149.1034
95.000000	86.737	149.3684
96.199997	86.651	149.1572
97.500000	86.557	149.2440
98.800003	86.466	149.2414
100.000000	86.417	148.9912
101.500000	86.307	148.9191
103.000000	86.232	148.7724
104.400002	86.206	148.7018
106.000000	85.995	148.7890
107.500000	85.987	149.1108
109.000000	85.871	149.3297
110.599998	85.854	149.4319
112.000000	85.730	148.8741
113.800003	85.685	149.6093
115.000000	85.605	149.1607
117.199997	85.465	148.7020
118.000000	85.382	149.0998
120.599998	85.279	149.0834
122.000000	85.246	149.4293
124.099998	85.137	149.6162
125.000000	85.102	149.8871
126.500000	85.051	149.8006
128.000000	84.934	150.1863
131.500000	84.857	150.2278
132.000000	84.824	150.3721
134.000000	84.785	150.5761
136.000000	84.716	151.1604
138.000000	84.565	151.4028
140.000000	84.483	151.4351
143.000000	84.374	151.4118
145.000000	84.349	151.5373
147.500000	84.242	151.8771
150.000000	84.190	152.3727
152.500000	84.096	152.1989
155.000000	84.052	152.8103
157.500000	84.021	153.0627
160.000000	83.892	153.3824
162.500000	83.860	153.3500
165.000000	83.810	154.3140
167.500000	83.743	155.1581
170.000000	83.770	153.7955
172.500000	83.828	154.2549
175.000000	83.635	154.9152
177.500000	83.582	153.9044
180.000000	83.217	156.8692
182.500000	83.213	157.1873
185.000000	83.214	157.1710
187.500000	83.113	157.1523
190.000000	83.165	157.5783
192.500000	83.170	158.4002
195.000000	83.029	158.7285
197.500000	83.021	158.8134
200.000000	82.863	158.6305
203.000000	82.846	159.1019
206.000000	82.827	159.7929
209.000000	82.771	160.0355
212.000000	82.806	160.1554
214.000000	82.728	160.5930
218.000000	82.695	161.1864
220.000000	82.663	160.9746
224.000000	82.617	161.9033
227.000000	82.611	162.1465
230.000000	82.585	162.7646
233.000000	82.445	163.0335
236.000000	82.461	161.9136
240.000000	82.571	162.8897
243.000000	82.508	163.6936
247.000000	82.325	164.9585
250.000000	82.510	165.9308
254.000000	82.405	165.0925
258.000000	82.454	165.4677
262.000000	82.302	167.1509
265.000000	82.360	166.0934
269.000000	82.332	166.9203
272.000000	82.218	167.4224
276.000000	82.303	167.3699
280.000000	82.299	168.0554
285.000000	82.267	168.4021
290.000000	82.237	169.0571
295.000000	82.233	169.3981
300.000000	82.225	169.9243
304.000000	82.202	169.8669
307.000000	82.166	170.2725
311.000000	82.193	170.4823
315.000000	82.178	170.8769
320.000000	82.176	171.2122
325.000000	82.141	171.5532
330.000000	82.140	171.9633
335.000000	82.188	172.2609
340.000000	82.114	172.8912
345.000000	82.059	173.0160
350.000000	82.104	173.5982
355.000000	82.108	173.8057
360.000000	82.118	173.8484
365.000000	82.045	174.1211
370.000000	82.063	174.4216
375.000000	82.040	174.8174
382.000000	82.079	175.2419
387.000000	82.048	175.5171
395.000000	82.005	175.9391
400.000000	82.039	175.8057
406.000000	82.040	176.2682
412.000000	81.978	176.8779
418.000000	82.006	177.9901
425.000000	82.010	177.7905
431.000000	82.080	177.7276
437.000000	81.974	177.1862
444.000000	81.983	178.5222
450.000000	81.985	178.6404
455.000000	81.989	178.6000
462.000000	81.917	179.1214
468.000000	82.018	178.9868
475.000000	82.014	179.2930
482.000000	81.955	179.9484
487.000000	81.955	179.9890
494.000000	82.008	-179.5635
500.000000	82.011	-179.3127
508.000000	81.957	-178.7518
515.000000	81.923	-178.6073
522.000000	81.884	-178.0541
530.000000	81.931	-177.8819
538.000000	81.884	-177.4812
545.000000	81.873	-176.9567
552.000000	81.848	-176.7400
560.000000	81.877	-176.2033
570.000000	81.827	-175.9908
580.000000	81.870	-175.6111
590.000000	81.804	-175.0675
600.000000	81.814	-174.3944
608.000000	81.780	-174.0614
615.000000	81.788	-174.0642
622.000000	81.765	-173.8458
630.000000	81.807	-173.1491
640.000000	81.787	-172.8571
650.000000	81.833	-172.3094
660.000000	81.815	-172.0318
670.000000	81.752	-171.6577
680.000000	81.734	-170.7052
690.000000	81.741	-170.1251
700.000000	81.759	-169.3077
710.000000	81.699	-169.1232
720.000000	81.711	-168.8035
730.000000	81.745	-167.5529
740.000000	81.724	-167.3963
750.000000	81.796	-166.6304
762.000000	81.723	-166.1810
775.000000	81.715	-165.0661
788.000000	81.676	-164.0054
800.000000	81.744	-162.6924
812.000000	81.792	-162.3284
825.000000	81.829	-161.0036
838.000000	82.093	-161.6427
850.000000	82.018	-159.6253
862.000000	82.024	-158.9599
875.000000	82.176	-157.8937
885.000000	82.292	-157.6229
900.000000	82.382	-157.0855
912.000000	82.565	-156.5469
925.000000	82.617	-156.5666
938.000000	82.732	-156.6478
950.000000	82.760	-156.1844
962.000000	82.721	-155.6117
975.000000	82.759	-156.1387
988.000000	82.790	-155.7992
1000.000000	82.768	-155.5952
1015.000000	82.826	-154.8046
1030.000000	82.922	-154.4178
1044.000000	82.951	-153.7636
1060.000000	82.948	-153.0904
1075.000000	83.060	-152.5324
1090.000000	83.155	-152.1035
1106.000000	83.217	-151.5712
1120.000000	83.305	-151.1267
1138.000000	83.402	-150.8282
1150.000000	83.491	-150.5070
1172.000000	83.610	-150.1038
1180.000000	83.662	-150.0314
1206.000000	83.815	-149.7137
1220.000000	83.905	-149.4342
1241.000000	83.992	-149.1353
1250.000000	84.058	-149.0296
1265.000000	84.148	-148.9326
1280.000000	84.217	-148.8469
1315.000000	84.374	-148.5267
1320.000000	84.389	-148.5765
1340.000000	84.476	-148.3584
1360.000000	84.552	-148.1771
1380.000000	84.629	-147.9824
1400.000000	84.709	-147.6652
1430.000000	84.811	-147.1270
1450.000000	84.904	-146.8024
1475.000000	85.046	-146.2925
1500.000000	85.202	-145.9856
1525.000000	85.351	-145.8412
1550.000000	85.484	-145.8435
1575.000000	85.589	-145.8923
1600.000000	85.692	-145.7634
1625.000000	85.790	-145.6441
1650.000000	85.890	-145.4805
1675.000000	85.974	-145.3357
1700.000000	86.074	-145.0826
1725.000000	86.168	-144.8528
1750.000000	86.278	-144.5995
1775.000000	86.384	-144.3459
1800.000000	86.497	-144.0625
1825.000000	86.607	-143.7612
1850.000000	86.736	-143.4743
1875.000000	86.860	-143.1354
1900.000000	87.025	-142.9604
1925.000000	87.187	-142.8008
1950.000000	87.330	-142.7609
1975.000000	87.489	-142.8589
2000.000000	87.625	-142.9407
2030.000000	87.789	-143.0920
2060.000000	87.950	-143.3241
2090.000000	88.116	-143.5129
2120.000000	88.287	-143.7091
2140.000000	88.387	-143.9956
2180.000000	88.591	-144.5742
2200.000000	88.695	-144.8933
2240.000000	88.892	-145.6030
2270.000000	89.026	-146.2228
2300.000000	89.160	-146.9491
2330.000000	89.276	-147.7029
2360.000000	89.381	-148.5234
2400.000000	89.498	-149.6078
2430.000000	89.572	-150.4035
2470.000000	89.654	-151.5380
2500.000000	89.697	-152.4078
2540.000000	89.746	-153.5813
2580.000000	89.758	-154.7577
2620.000000	89.753	-155.8320
2650.000000	89.740	-156.6409
2690.000000	89.708	-157.6056
2720.000000	89.682	-158.2095
2760.000000	89.621	-159.0328
2800.000000	89.572	-159.7552
2850.000000	89.501	-160.4610
2900.000000	89.433	-161.1395
2950.000000	89.386	-161.7670
3000.000000	89.357	-162.4878
3040.000000	89.328	-163.0978
3070.000000	89.298	-163.6075
3110.000000	89.257	-164.3146
3150.000000	89.197	-164.9783
3200.000000	89.118	-165.8533
3250.000000	89.016	-166.5243
3300.000000	88.917	-167.1992
3350.000000	88.835	-167.8210
3400.000000	88.780	-168.3995
3450.000000	88.718	-169.1744
3500.000000	88.656	-170.0155
3550.000000	88.593	-170.8379
3600.000000	88.528	-171.7613
3650.000000	88.446	-172.8483
3700.000000	88.343	-174.0922
3750.000000	88.184	-175.5070
3820.000000	87.833	-177.3238
3870.000000	87.488	-178.4377
3950.000000	86.775	-179.1508
4000.000000	86.280	-178.5235
4060.000000	85.712	-176.5004
4120.000000	85.279	-173.3222
4180.000000	85.028	-169.2624
4250.000000	85.050	-164.5177
4310.000000	85.261	-161.1018
4370.000000	85.589	-158.5368
4440.000000	86.064	-156.5812
4500.000000	86.476	-155.8263
4550.000000	86.804	-155.6258
4620.000000	87.266	-155.9636
4680.000000	87.636	-156.8659
4750.000000	88.015	-158.4094
4820.000000	88.343	-160.4428
4870.000000	88.543	-162.2020
4940.000000	88.754	-164.9159
5000.000000	88.876	-167.5148
5080.000000	88.955	-171.0549
5150.000000	88.924	-174.2184
5220.000000	88.820	-177.3298
5300.000000	88.616	179.3887
5380.000000	88.319	176.3575
5450.000000	88.006	174.0617
5520.000000	87.617	172.0905
5600.000000	87.150	170.3002
5700.000000	86.542	168.6887
5800.000000	85.932	167.7553
5900.000000	85.343	167.3635
6000.000000	84.794	167.5426
6080.000000	84.387	168.0089
6150.000000	84.069	168.5557
6220.000000	83.782	169.3708
6300.000000	83.494	170.4219
6400.000000	83.192	171.8720
6500.000000	82.979	173.4035
6600.000000	82.815	175.0689
6700.000000	82.713	176.6619
6800.000000	82.701	178.3012
6900.000000	82.769	179.6335
7000.000000	82.947	-178.9827
7100.000000	83.180	-177.8916
7200.000000	83.510	-177.0764
7300.000000	83.910	-176.8532
7400.000000	84.387	-177.3214
7500.000000	84.928	-178.4545
7620.000000	85.590	178.9959
7750.000000	86.285	174.1898
7880.000000	86.795	167.2582
8000.000000	86.991	159.4052
8120.000000	86.804	151.0471
8250.000000	86.208	142.9529
8380.000000	85.353	136.7623
8500.000000	84.473	132.8477
8620.000000	83.608	130.4376
8750.000000	82.677	129.1717
8850.000000	82.044	129.2994
9000.000000	81.261	129.9041
9120.000000	80.703	130.9825
9250.000000	80.284	132.4764
9380.000000	79.971	134.2245
9500.000000	79.809	135.5878
9620.000000	79.757	136.9296
9750.000000	79.775	137.7221
9880.000000	79.872	137.8822
10000.000000	79.979	137.6747
10150.000000	80.116	136.5080
10300.000000	80.195	134.3459
10440.000000	80.138	131.8720
10600.000000	79.904	129.0217
10750.000000	79.545	126.8539
10900.000000	79.113	125.2413
11060.000000	78.613	124.3886
11200.000000	78.148	124.2157
11380.000000	77.568	124.8679
11500.000000	77.241	125.7238
11720.000000	76.772	127.8341
11800.000000	76.613	128.6749
12060.000000	76.155	130.6370
12200.000000	75.875	132.0402
12410.000000	75.451	134.1839
12500.000000	75.284	135.3293
12650.000000	75.016	137.9832
12800.000000	74.799	140.8929
13150.000000	74.549	149.0734
13200.000000	74.571	150.2833
13400.000000	74.713	155.1595
13600.000000	74.991	159.5158
13800.000000	75.437	163.1298
14000.000000	76.009	165.4904
14300.000000	76.867	165.4785
14500.000000	77.202	163.4400
14750.000000	77.105	159.3390
15000.000000	76.442	157.1311
15250.000000	75.535	158.3342
15500.000000	74.675	162.6317
15750.000000	74.122	169.3295
16000.000000	73.975	177.2676
16250.000000	74.333	-175.3305
16500.000000	75.138	-170.3845
16750.000000	76.195	-169.9767
17000.000000	76.770	-175.1313
17250.000000	76.338	178.7737
17500.000000	75.263	176.3143
17750.000000	74.181	178.1930
18000.000000	73.422	-178.9251
18250.000000	72.939	-176.6316
18500.000000	72.551	-176.9460
18750.000000	71.756	-179.8904
19000.000000	70.133	176.9500
19250.000000	67.908	177.1692
19500.000000	65.443	-176.7453
19750.000000	62.881	-164.7496
