* Measurement data measured by REW V5.20 Beta 47
* Source: Headset (USB-C to 3.5mm Headphone Jack Adapter), MICROPHONE (Master Volume), L, volume: 0.000
* Format: 256k Log Swept Sine, 1 sweep at -3.0 dBFS with no timing reference
* Dated: Jun 28, 2020 10:52:24 PM
* REW Settings:
*  C-weighting compensation: Off
*  Target level: 75.0 dB
* Note: ; 
* Measurement: 10 L
* Smoothing: None
* Frequency Step: 1/48 octave
* Start Frequency: 20.000 Hz
*
* Freq(Hz)	SPL(dB)	Phase(degrees)
20.0000	93.1281	-150.70
20.3000	93.1570	-151.04
20.6000	93.1988	-151.32
20.9000	93.2540	-151.61
21.2000	93.3206	-152.01
21.4000	93.3629	-152.33
21.8000	93.4308	-153.10
22.0000	93.4535	-153.50
22.4000	93.4786	-154.29
22.7000	93.4824	-154.78
23.0000	93.4847	-155.14
23.3000	93.4966	-155.43
23.6000	93.5199	-155.66
24.0000	93.5674	-155.99
24.3000	93.6114	-156.29
24.7000	93.6720	-156.75
25.0000	93.7145	-157.15
25.4000	93.7673	-157.71
25.8000	93.8118	-158.27
26.2000	93.8490	-158.84
26.5000	93.8723	-159.26
26.9000	93.8948	-159.78
27.2000	93.9079	-160.14
27.6000	93.9234	-160.58
28.0000	93.9355	-160.96
28.5000	93.9499	-161.38
29.0000	93.9689	-161.70
29.5000	94.0066	-161.99
30.0000	94.0597	-162.36
30.4000	94.1015	-162.79
30.7000	94.1213	-163.18
31.1000	94.1268	-163.68
31.5000	94.1159	-164.07
32.0000	94.1060	-164.33
32.5000	94.1333	-164.47
33.0000	94.1921	-164.77
33.5000	94.2459	-165.32
34.0000	94.2630	-165.98
34.5000	94.2536	-166.50
35.0000	94.2411	-166.81
35.5000	94.2493	-167.00
36.0000	94.2753	-167.24
36.5000	94.3013	-167.59
37.0000	94.3116	-167.97
37.5000	94.3082	-168.30
38.2000	94.3071	-168.54
38.7000	94.3308	-168.68
39.5000	94.3919	-169.23
40.0000	94.4023	-169.75
40.6000	94.3756	-170.27
41.2000	94.3520	-170.50
41.8000	94.3643	-170.67
42.5000	94.3975	-171.01
43.1000	94.4256	-171.37
43.7000	94.4597	-171.79
44.4000	94.4760	-172.43
45.0000	94.4511	-172.80
45.5000	94.4461	-172.81
46.2000	94.5167	-172.86
46.8000	94.5856	-173.45
47.5000	94.5573	-174.31
48.2000	94.4756	-174.46
48.7000	94.4654	-174.30
49.4000	94.5057	-174.35
50.0000	94.5164	-174.64
50.8000	94.5049	-174.94
51.5000	94.5122	-175.13
52.2000	94.5179	-175.43
53.0000	94.5145	-175.76
53.8000	94.5190	-176.09
54.5000	94.5118	-176.41
55.2000	94.5058	-176.61
56.0000	94.5269	-176.84
57.0000	94.5431	-177.37
58.0000	94.5309	-177.74
59.0000	94.5389	-178.02
60.0000	94.5556	-178.34
60.8000	94.5596	-178.68
61.5000	94.5461	-178.96
62.2000	94.5286	-179.10
63.0000	94.5303	-179.22
64.0000	94.5249	-179.55
65.0000	94.5093	-179.67
66.0000	94.5427	-179.94
67.0000	94.5358	179.48
68.0000	94.5070	179.19
69.0000	94.5122	178.92
70.0000	94.5144	178.62
71.0000	94.5195	178.30
72.0000	94.5089	178.05
73.0000	94.5153	177.90
74.0000	94.5234	177.63
75.0000	94.5185	177.39
76.2000	94.5183	177.06
77.5000	94.5054	176.74
78.8000	94.5092	176.45
80.0000	94.5074	176.09
81.2000	94.4950	175.87
82.5000	94.4987	175.62
83.8000	94.4948	175.35
85.0000	94.4928	175.07
86.2000	94.4847	174.80
87.5000	94.4803	174.51
88.5000	94.4747	174.33
90.0000	94.4783	174.01
91.2000	94.4614	173.70
92.5000	94.4423	173.49
93.8000	94.4272	173.20
95.0000	94.4149	173.01
96.2000	94.4185	172.71
97.5000	94.4073	172.44
98.8000	94.4054	172.21
100.0000	94.4071	172.02
101.5000	94.3854	171.61
103.0000	94.3478	171.49
104.4000	94.3391	171.35
106.0000	94.3544	170.85
107.5000	94.3225	170.58
109.0000	94.3176	170.30
110.6000	94.3249	170.09
112.0000	94.3076	169.81
113.8000	94.2898	169.55
115.0000	94.2778	169.38
117.2000	94.2726	168.99
118.0000	94.2598	168.83
120.6000	94.2357	168.47
122.0000	94.2147	168.23
124.1000	94.2088	167.91
125.0000	94.1888	167.71
126.5000	94.1734	167.57
128.0000	94.1604	167.32
131.5000	94.1344	166.82
132.0000	94.1259	166.76
134.0000	94.1054	166.48
136.0000	94.0868	166.20
138.0000	94.0615	165.87
140.0000	94.0422	165.70
143.0000	94.0168	165.21
145.0000	93.9915	165.06
147.5000	93.9636	164.72
150.0000	93.9335	164.41
152.5000	93.9099	164.08
155.0000	93.8906	163.78
157.5000	93.8750	163.50
160.0000	93.8454	163.20
162.5000	93.8325	162.88
165.0000	93.8140	162.63
167.5000	93.7932	162.34
170.0000	93.7698	162.07
172.5000	93.7353	161.83
175.0000	93.7000	161.57
177.5000	93.6684	161.31
180.0000	93.6401	161.05
182.5000	93.5926	160.89
185.0000	93.5526	160.55
187.5000	93.5215	160.37
190.0000	93.4880	160.08
192.5000	93.4534	159.87
195.0000	93.4199	159.70
197.5000	93.3827	159.43
200.0000	93.3414	159.27
203.0000	93.3087	158.91
206.0000	93.2658	158.72
209.0000	93.2268	158.48
212.0000	93.1928	158.24
214.0000	93.1614	158.08
218.0000	93.1226	157.73
220.0000	93.1082	157.57
224.0000	93.0741	157.28
227.0000	93.0509	157.05
230.0000	93.0167	156.82
233.0000	92.9848	156.62
236.0000	92.9472	156.40
240.0000	92.9144	156.14
243.0000	92.8720	155.83
247.0000	92.8356	155.58
250.0000	92.7963	155.42
254.0000	92.7439	155.16
258.0000	92.6933	154.91
262.0000	92.6500	154.64
265.0000	92.6055	154.54
269.0000	92.5524	154.30
272.0000	92.5217	154.03
276.0000	92.4779	153.85
280.0000	92.4335	153.68
285.0000	92.3752	153.37
290.0000	92.3165	153.13
295.0000	92.2607	152.89
300.0000	92.2040	152.69
304.0000	92.1540	152.51
307.0000	92.1177	152.35
311.0000	92.0783	152.16
315.0000	92.0287	152.03
320.0000	91.9668	151.82
325.0000	91.9096	151.62
330.0000	91.8551	151.41
335.0000	91.8024	151.21
340.0000	91.7428	151.02
345.0000	91.6896	150.81
350.0000	91.6369	150.65
355.0000	91.5738	150.51
360.0000	91.5089	150.35
365.0000	91.4531	150.28
370.0000	91.3995	150.07
375.0000	91.3489	149.86
382.0000	91.2712	149.64
387.0000	91.2179	149.54
395.0000	91.1344	149.33
400.0000	91.0813	149.21
406.0000	91.0171	149.06
412.0000	90.9532	148.94
418.0000	90.8891	148.82
425.0000	90.8243	148.70
431.0000	90.7621	148.58
437.0000	90.7067	148.50
444.0000	90.6437	148.42
450.0000	90.5963	148.34
455.0000	90.5523	148.23
462.0000	90.4887	148.06
468.0000	90.4314	147.93
475.0000	90.3606	147.78
482.0000	90.2946	147.62
487.0000	90.2480	147.50
494.0000	90.1886	147.38
500.0000	90.1376	147.32
508.0000	90.0659	147.26
515.0000	89.9997	147.23
522.0000	89.9377	147.18
530.0000	89.8640	147.13
538.0000	89.7831	147.07
545.0000	89.7253	147.07
552.0000	89.6630	147.05
560.0000	89.5923	147.04
570.0000	89.4989	147.06
580.0000	89.4124	147.09
590.0000	89.3265	147.13
600.0000	89.2404	147.18
608.0000	89.1758	147.27
615.0000	89.1169	147.34
622.0000	89.0699	147.40
630.0000	89.0093	147.49
640.0000	88.9343	147.59
650.0000	88.8674	147.70
660.0000	88.8006	147.83
670.0000	88.7332	148.00
680.0000	88.6744	148.13
690.0000	88.6016	148.31
700.0000	88.5334	148.51
710.0000	88.4675	148.72
720.0000	88.4007	148.94
730.0000	88.3460	149.16
740.0000	88.2898	149.36
750.0000	88.2330	149.58
762.0000	88.1657	149.91
775.0000	88.0971	150.24
788.0000	88.0303	150.58
800.0000	87.9734	150.91
812.0000	87.9117	151.27
825.0000	87.8615	151.64
838.0000	87.8114	152.04
850.0000	87.7692	152.41
862.0000	87.7322	152.81
875.0000	87.6957	153.21
885.0000	87.6686	153.56
900.0000	87.6339	153.98
912.0000	87.6129	154.37
925.0000	87.6025	154.78
938.0000	87.5863	155.18
950.0000	87.5824	155.55
962.0000	87.5815	155.89
975.0000	87.5734	156.29
988.0000	87.5995	156.70
1000.0000	87.6672	157.15
1015.0000	87.5971	157.33
1030.0000	87.5949	157.61
1044.0000	87.6111	157.84
1060.0000	87.6279	158.12
1075.0000	87.6473	158.35
1090.0000	87.6809	158.52
1106.0000	87.7143	158.67
1120.0000	87.7498	158.72
1138.0000	87.7859	158.80
1150.0000	87.8061	158.83
1172.0000	87.8604	158.82
1180.0000	87.8733	158.79
1206.0000	87.9153	158.67
1220.0000	87.9429	158.56
1241.0000	87.9768	158.44
1250.0000	87.9877	158.36
1265.0000	88.0126	158.21
1280.0000	88.0301	158.07
1315.0000	88.0501	157.68
1320.0000	88.0481	157.65
1340.0000	88.0563	157.44
1360.0000	88.0521	157.26
1380.0000	88.0496	157.08
1400.0000	88.0454	156.93
1430.0000	88.0227	156.73
1450.0000	88.0031	156.66
1475.0000	87.9729	156.56
1500.0000	87.9473	156.52
1525.0000	87.9109	156.58
1550.0000	87.8769	156.61
1575.0000	87.8499	156.71
1600.0000	87.8260	156.91
1625.0000	87.8009	157.17
1650.0000	87.7879	157.40
1675.0000	87.7723	157.69
1700.0000	87.7623	158.01
1725.0000	87.7575	158.31
1750.0000	87.7532	158.69
1775.0000	87.7517	159.09
1800.0000	87.7540	159.52
1825.0000	87.7630	159.93
1850.0000	87.7780	160.40
1875.0000	87.7981	160.93
1900.0000	87.8344	161.42
1925.0000	87.8661	161.96
1950.0000	87.9039	162.44
1975.0000	87.9430	162.94
2000.0000	87.9387	163.24
2030.0000	88.0980	164.15
2060.0000	88.2182	164.82
2090.0000	88.3359	165.37
2120.0000	88.4663	165.81
2140.0000	88.5679	166.06
2180.0000	88.7751	166.46
2200.0000	88.8904	166.53
2240.0000	89.1212	166.28
2270.0000	89.2765	165.65
2300.0000	89.4234	164.68
2330.0000	89.5637	163.53
2360.0000	89.6752	162.30
2400.0000	89.7797	160.73
2430.0000	89.8398	159.74
2470.0000	89.8699	158.59
2500.0000	89.8551	157.75
2540.0000	89.8063	156.86
2580.0000	89.7309	156.10
2620.0000	89.6463	155.55
2650.0000	89.5880	155.22
2690.0000	89.4973	154.97
2720.0000	89.4298	154.95
2760.0000	89.3494	154.92
2800.0000	89.2763	155.16
2850.0000	89.1894	155.33
2900.0000	89.1648	155.68
2950.0000	89.1400	155.88
3000.0000	89.1516	156.53
3040.0000	89.1321	156.47
3070.0000	89.1786	156.46
3110.0000	89.1852	156.34
3150.0000	89.1984	156.35
3200.0000	89.2409	156.16
3250.0000	89.3038	155.60
3300.0000	89.3726	155.21
3350.0000	89.3494	154.20
3400.0000	89.3216	153.41
3450.0000	89.2835	152.39
3500.0000	89.2410	151.01
3550.0000	89.1901	150.07
3600.0000	88.9631	148.80
3650.0000	88.7742	148.18
3700.0000	88.5482	147.44
3750.0000	88.2506	146.96
3820.0000	87.7801	146.61
3870.0000	87.5198	147.07
3950.0000	86.9080	148.44
4000.0000	86.5838	149.63
4060.0000	86.2924	151.42
4120.0000	85.9810	153.61
4180.0000	85.7373	156.39
4250.0000	85.5020	159.93
4310.0000	85.2951	162.55
4370.0000	85.2153	166.19
4440.0000	85.2769	170.08
4500.0000	85.2875	173.03
4550.0000	85.4716	175.05
4620.0000	85.6167	179.06
4680.0000	85.9359	-178.46
4750.0000	86.2592	-176.02
4820.0000	86.6313	-173.29
4870.0000	86.8356	-171.63
4940.0000	87.3385	-171.01
5000.0000	87.5924	-169.66
5080.0000	88.0874	-169.05
5150.0000	88.5715	-169.38
5220.0000	89.0746	-169.12
5300.0000	89.4388	-170.51
5380.0000	89.7870	-171.68
5450.0000	90.0051	-172.95
5520.0000	90.0365	-173.59
5600.0000	90.0977	-176.14
5700.0000	89.8418	-178.22
5800.0000	89.7789	-179.35
5900.0000	89.5205	-178.14
6000.0000	89.3924	-178.85
6080.0000	89.1763	-177.50
6150.0000	89.0508	-178.17
6220.0000	88.8752	-176.74
6300.0000	88.7207	-174.23
6400.0000	88.6184	-172.31
6500.0000	88.8388	-171.07
6600.0000	88.8216	-167.67
6700.0000	89.1651	-165.97
6800.0000	88.4728	-165.24
6900.0000	89.2357	-160.20
7000.0000	89.6633	-158.10
7100.0000	90.1859	-156.48
7200.0000	91.2375	-155.10
7300.0000	90.7062	-152.82
7400.0000	91.9223	-148.93
7500.0000	92.7764	-148.82
7620.0000	93.9015	-150.21
7750.0000	94.4693	-153.24
7880.0000	95.7268	-158.24
8000.0000	96.2105	-165.27
8120.0000	95.6968	-175.06
8250.0000	95.7937	179.71
8380.0000	94.9968	174.77
8500.0000	93.7977	172.03
8620.0000	93.3082	168.96
8750.0000	92.1418	171.29
8850.0000	91.4566	177.43
9000.0000	91.6599	-174.76
9120.0000	91.8940	-173.36
9250.0000	93.0842	-171.17
9380.0000	94.8799	-175.58
9500.0000	94.6240	179.31
9620.0000	93.9999	167.85
9750.0000	93.6041	166.46
9880.0000	93.9133	166.68
10000.0000	93.7058	167.66
10150.0000	93.0886	163.32
10300.0000	94.2541	165.52
10440.0000	95.7257	151.75
10600.0000	95.4440	132.65
10750.0000	94.1185	124.24
10900.0000	92.4064	109.34
11060.0000	90.8541	96.39
11200.0000	88.7109	92.63
11380.0000	85.6931	99.18
11500.0000	83.8211	90.07
11720.0000	82.0483	92.84
11800.0000	80.6514	106.18
12060.0000	78.0255	102.38
12200.0000	79.0571	112.80
12410.0000	77.3692	122.64
12500.0000	77.0205	114.10
12650.0000	74.8681	120.49
12800.0000	74.0039	125.40
13150.0000	73.0259	138.77
13200.0000	74.8635	147.52
13400.0000	72.5380	157.50
13600.0000	74.8416	154.85
13800.0000	74.7026	158.48
14000.0000	73.9838	178.54
14300.0000	73.5260	165.67
14500.0000	74.7242	167.82
14750.0000	75.9164	-170.41
15000.0000	78.3740	-176.24
15250.0000	77.0250	179.20
15500.0000	81.4280	160.28
15750.0000	80.4740	134.41
16000.0000	80.4162	80.65
16250.0000	76.6827	52.90
16500.0000	76.0162	52.04
16750.0000	71.8885	5.83
17000.0000	68.7809	-14.56
17250.0000	68.1572	-3.60
17500.0000	63.5731	-39.63
17750.0000	61.0638	-44.71
18000.0000	60.4934	-17.05
18250.0000	56.4413	-61.49
18500.0000	55.8376	-58.06
18750.0000	59.3492	-52.70
19000.0000	49.0571	-29.24
19250.0000	57.7292	-29.92
19500.0000	55.7527	-35.87
19750.0000	54.1217	-137.64
