* Measurement data measured by REW V5.20 Beta 60
* Source: Headset (USB-C to 3.5mm Headphone Jack Adapter), MICROPHONE (Master Volume), R, volume: 0.250
* Format: 256k Log Swept Sine, 1 sweep at -3.0 dBFS with no timing reference
* Dated: Sep 11, 2020 10:12:57 PM
* REW Settings:
*  C-weighting compensation: Off
*  Target level: 75.0 dB
* Note: ; 
* Measurement: 30 Ohm L
* Smoothing: None
* Frequency Step: 1/48 octave
* Start Frequency: 20.000 Hz
*
* Freq(Hz)	SPL(dB)	Phase(degrees)
20.000000	100.108841	144.6338
20.299999	100.069305	144.1576
20.600000	100.026939	143.6886
20.900000	99.980690	143.2381
21.200001	99.935394	142.7965
21.400000	99.904572	142.5125
21.799999	99.842377	141.9724
22.000000	99.812386	141.7068
22.400000	99.757790	141.1470
22.700001	99.715446	140.7259
23.000000	99.670647	140.3069
23.299999	99.625351	139.8898
23.600000	99.578148	139.4928
24.000000	99.513474	138.9993
24.299999	99.467033	138.6417
24.700001	99.407906	138.1703
25.000000	99.364082	137.8097
25.400000	99.305893	137.3044
25.799999	99.241959	136.8101
26.200001	99.174835	136.3373
26.500000	99.125252	135.9982
26.900000	99.060333	135.5723
27.200001	99.014084	135.2499
27.600000	98.954552	134.7972
28.000000	98.889854	134.3178
28.500000	98.799751	133.7065
29.000000	98.702377	133.1669
29.500000	98.611023	132.6945
30.000000	98.527557	132.2401
30.400000	98.464989	131.8392
30.700001	98.416115	131.5253
31.100000	98.346786	131.1024
31.500000	98.274460	130.6920
32.000000	98.183243	130.2307
32.500000	98.099159	129.7888
33.000000	98.019394	129.3308
33.500000	97.936722	128.8273
34.000000	97.844200	128.3211
34.500000	97.748734	127.8521
35.000000	97.652832	127.4510
35.500000	97.563339	127.0832
36.000000	97.478806	126.7109
36.500000	97.394341	126.3015
37.000000	97.306755	125.8849
37.500000	97.218460	125.4706
38.200001	97.088669	124.8986
38.700001	96.989159	124.5113
39.500000	96.833557	124.0298
40.000000	96.748535	123.7730
40.599998	96.653946	123.3812
41.200001	96.551132	122.9145
41.799999	96.436852	122.4789
42.500000	96.303604	122.0624
43.099998	96.196945	121.6903
43.700001	96.085236	121.2769
44.400002	95.942032	120.8543
45.000000	95.825157	120.6015
45.500000	95.741829	120.3978
46.200001	95.633018	120.0262
46.799999	95.531197	119.6444
47.500000	95.403351	119.2380
48.200001	95.276016	118.8904
48.700001	95.186813	118.6253
49.400002	95.053421	118.2446
50.000000	94.924118	117.9864
50.799999	94.758194	117.8008
51.500000	94.639633	117.7341
52.200001	94.537292	117.5338
53.000000	94.404709	117.1483
53.799999	94.251961	116.8210
54.500000	94.118118	116.6072
55.200001	93.990013	116.4167
56.000000	93.848732	116.2207
57.000000	93.679047	115.9667
58.000000	93.512497	115.7025
59.000000	93.341866	115.4291
60.000000	93.169052	115.2314
60.799999	93.031860	115.0945
61.500000	92.914955	114.9735
62.200001	92.798599	114.8473
63.000000	92.664978	114.7016
64.000000	92.495499	114.5338
65.000000	92.333420	114.4224
66.000000	92.172424	114.2601
67.000000	91.990135	114.1753
68.000000	91.812531	114.3310
69.000000	91.655289	114.5062
70.000000	91.485825	114.6989
71.000000	91.328278	114.9211
72.000000	91.163628	114.9688
73.000000	90.982117	115.0000
74.000000	90.799217	114.9534
75.000000	90.601089	114.9613
76.199997	90.401573	115.0702
77.500000	90.191704	115.1113
78.800003	89.997864	115.2899
80.000000	89.824738	115.5554
81.199997	89.659058	115.7574
82.500000	89.459679	116.1107
83.800003	89.289040	116.2622
85.000000	89.090088	116.4734
86.199997	88.947876	116.7211
87.500000	88.753395	116.8235
88.500000	88.637863	117.1064
90.000000	88.365097	117.2433
91.199997	88.207382	118.4160
92.500000	88.089569	118.5812
93.800003	87.887581	119.2593
95.000000	87.771591	119.5784
96.199997	87.604645	119.9885
97.500000	87.478363	120.4669
98.800003	87.322052	120.8936
100.000000	87.194588	121.4819
101.500000	87.028412	122.0124
103.000000	86.844948	122.8427
104.400002	86.691788	123.4140
106.000000	86.527344	124.1550
107.500000	86.366287	124.8186
109.000000	86.229691	125.4824
110.599998	86.088890	126.3310
112.000000	85.964096	126.9460
113.800003	85.809937	127.8313
115.000000	85.702034	128.4459
117.199997	85.534370	129.5237
118.000000	85.474297	129.9194
120.599998	85.287125	131.2605
122.000000	85.184769	131.9531
124.099998	85.037941	133.0106
125.000000	84.976196	133.5172
126.500000	84.886406	134.2710
128.000000	84.799744	135.0425
131.500000	84.603729	136.7385
132.000000	84.572929	137.0369
134.000000	84.485100	138.0463
136.000000	84.391327	139.1388
138.000000	84.301697	140.0997
140.000000	84.211227	141.0662
143.000000	84.101280	142.5028
145.000000	84.020744	143.4746
147.500000	83.940559	144.6118
150.000000	83.867485	145.7596
152.500000	83.810013	146.8462
155.000000	83.759254	147.9383
157.500000	83.719894	148.9924
160.000000	83.666855	150.0209
162.500000	83.642143	150.9362
165.000000	83.605042	151.9862
167.500000	83.584610	152.8930
170.000000	83.568985	153.8587
172.500000	83.520790	154.7472
175.000000	83.489967	155.6514
177.500000	83.465012	156.5328
180.000000	83.445068	157.2617
182.500000	83.414780	158.0997
185.000000	83.374237	158.8615
187.500000	83.373230	159.6528
190.000000	83.332512	160.3776
192.500000	83.325867	160.9967
195.000000	83.312515	161.7148
197.500000	83.303207	162.3887
200.000000	83.281273	163.0473
203.000000	83.263329	163.8204
206.000000	83.258118	164.5756
209.000000	83.246689	165.2208
212.000000	83.243889	165.9651
214.000000	83.232918	166.4175
218.000000	83.223747	167.2422
220.000000	83.221329	167.7419
224.000000	83.229836	168.5068
227.000000	83.240852	169.1304
230.000000	83.238670	169.7006
233.000000	83.248566	170.3029
236.000000	83.255928	170.8727
240.000000	83.247803	171.5048
243.000000	83.245697	171.9960
247.000000	83.242477	172.6791
250.000000	83.240707	173.2228
254.000000	83.238342	173.8704
258.000000	83.225182	174.5292
262.000000	83.227783	175.0804
265.000000	83.220688	175.5432
269.000000	83.215042	176.1183
272.000000	83.211624	176.5386
276.000000	83.205276	177.1263
280.000000	83.198898	177.6764
285.000000	83.197853	178.2860
290.000000	83.193680	178.9677
295.000000	83.184341	179.5980
300.000000	83.180351	-179.7415
304.000000	83.177071	-179.2511
307.000000	83.160446	-178.9270
311.000000	83.155174	-178.4297
315.000000	83.147072	-177.9420
320.000000	83.133560	-177.3458
325.000000	83.116898	-176.8133
330.000000	83.109100	-176.1822
335.000000	83.101578	-175.6540
340.000000	83.084778	-175.0943
345.000000	83.073044	-174.5508
350.000000	83.070755	-173.9864
355.000000	83.048721	-173.4528
360.000000	83.030548	-172.9268
365.000000	83.014511	-172.3143
370.000000	82.999161	-171.8109
375.000000	82.992668	-171.3049
382.000000	82.970100	-170.6082
387.000000	82.959587	-170.0379
395.000000	82.941818	-169.2849
400.000000	82.926765	-168.6792
406.000000	82.917404	-168.1373
412.000000	82.900627	-167.5269
418.000000	82.883400	-166.8773
425.000000	82.871651	-166.1498
431.000000	82.855873	-165.5183
437.000000	82.845398	-164.8861
444.000000	82.842331	-164.1600
450.000000	82.838837	-163.5321
455.000000	82.841026	-163.0673
462.000000	82.828537	-162.4442
468.000000	82.822060	-161.8862
475.000000	82.811577	-161.2703
482.000000	82.806976	-160.5963
487.000000	82.799240	-160.1091
494.000000	82.810997	-159.5058
500.000000	82.816124	-158.8905
508.000000	82.825195	-158.1758
515.000000	82.833794	-157.5622
522.000000	82.837296	-156.9301
530.000000	82.853455	-156.3731
538.000000	82.841194	-155.8189
545.000000	82.840492	-155.3141
552.000000	82.834267	-154.8363
560.000000	82.809296	-154.2728
570.000000	82.772614	-153.5438
580.000000	82.743050	-152.7312
590.000000	82.700020	-151.8779
600.000000	82.669212	-151.0118
608.000000	82.651772	-150.2611
615.000000	82.628685	-149.5957
622.000000	82.616455	-148.9573
630.000000	82.603653	-148.2141
640.000000	82.583649	-147.2572
650.000000	82.573425	-146.3317
660.000000	82.563065	-145.3981
670.000000	82.554565	-144.4196
680.000000	82.544899	-143.4821
690.000000	82.533051	-142.4458
700.000000	82.522247	-141.4860
710.000000	82.516861	-140.4757
720.000000	82.512550	-139.4494
730.000000	82.516983	-138.4499
740.000000	82.519562	-137.4973
750.000000	82.519783	-136.5157
762.000000	82.528999	-135.2795
775.000000	82.540138	-134.0044
788.000000	82.551094	-132.7031
800.000000	82.559311	-131.4492
812.000000	82.571442	-130.2373
825.000000	82.596024	-128.9086
838.000000	82.631332	-127.6159
850.000000	82.658508	-126.3898
862.000000	82.694626	-125.1538
875.000000	82.736420	-123.8511
885.000000	82.772804	-122.8213
900.000000	82.836670	-121.4102
912.000000	82.893204	-120.1582
925.000000	82.954910	-118.8851
938.000000	83.022888	-117.6592
950.000000	83.099533	-116.5145
962.000000	83.178589	-115.3837
975.000000	83.256165	-114.1730
988.000000	83.367241	-112.9743
1000.000000	83.516937	-111.7975
1015.000000	83.549164	-110.7376
1030.000000	83.648460	-109.5430
1044.000000	83.760185	-108.4710
1060.000000	83.885315	-107.3183
1075.000000	84.009071	-106.2708
1090.000000	84.147110	-105.3090
1106.000000	84.296799	-104.3234
1120.000000	84.420807	-103.4994
1138.000000	84.583160	-102.5318
1150.000000	84.692581	-101.9414
1172.000000	84.882973	-100.9311
1180.000000	84.957535	-100.5793
1206.000000	85.170563	-99.5606
1220.000000	85.301964	-99.0233
1241.000000	85.470535	-98.2922
1250.000000	85.550346	-97.9837
1265.000000	85.668579	-97.5287
1280.000000	85.784874	-97.0395
1315.000000	86.038185	-96.0538
1320.000000	86.071159	-95.9105
1340.000000	86.202957	-95.3904
1360.000000	86.335091	-94.8353
1380.000000	86.462982	-94.3647
1400.000000	86.582878	-93.8491
1430.000000	86.758888	-93.0761
1450.000000	86.875496	-92.5815
1475.000000	87.019836	-91.9582
1500.000000	87.146141	-91.3803
1525.000000	87.276123	-90.7911
1550.000000	87.412643	-90.1988
1575.000000	87.539322	-89.6093
1600.000000	87.670944	-88.9986
1625.000000	87.796349	-88.4611
1650.000000	87.934738	-87.9229
1675.000000	88.060387	-87.3788
1700.000000	88.178581	-86.8568
1725.000000	88.304741	-86.3678
1750.000000	88.430038	-85.8876
1775.000000	88.555962	-85.4523
1800.000000	88.668938	-84.9758
1825.000000	88.788925	-84.5910
1850.000000	88.902908	-84.1990
1875.000000	89.017975	-83.7877
1900.000000	89.131058	-83.3807
1925.000000	89.240067	-82.9837
1950.000000	89.354202	-82.5989
1975.000000	89.456009	-82.2691
2000.000000	89.521782	-82.2626
2030.000000	89.749092	-81.7252
2060.000000	89.907303	-81.5869
2090.000000	90.034691	-81.6001
2120.000000	90.144127	-81.6615
2140.000000	90.212242	-81.7167
2180.000000	90.328606	-81.8130
2200.000000	90.380981	-81.8608
2240.000000	90.480667	-82.1543
2270.000000	90.531769	-82.6107
2300.000000	90.573280	-83.2637
2330.000000	90.616776	-83.9234
2360.000000	90.639053	-84.6355
2400.000000	90.667526	-85.3223
2430.000000	90.688568	-85.6320
2470.000000	90.684669	-85.8619
2500.000000	90.674294	-86.0621
2540.000000	90.645981	-86.3148
2580.000000	90.599915	-86.6227
2620.000000	90.534424	-86.8772
2650.000000	90.479935	-87.0795
2690.000000	90.379593	-87.4087
2720.000000	90.298843	-87.6111
2760.000000	90.143440	-87.8682
2800.000000	89.955063	-88.0184
2850.000000	89.676407	-87.9703
2900.000000	89.367180	-87.5163
2950.000000	89.055237	-86.5263
3000.000000	88.779671	-84.6761
3040.000000	88.613350	-83.6759
3070.000000	88.501724	-82.6975
3110.000000	88.373711	-81.4015
3150.000000	88.270294	-80.1345
3200.000000	88.159576	-78.5857
3250.000000	88.045410	-77.1108
3300.000000	87.953835	-75.6798
3350.000000	87.866859	-74.2514
3400.000000	87.788544	-72.9002
3450.000000	87.724030	-71.5326
3500.000000	87.680450	-70.2314
3550.000000	87.630829	-68.9235
3600.000000	87.583633	-67.5870
3650.000000	87.541786	-66.1983
3700.000000	87.522079	-64.8067
3750.000000	87.521393	-63.5292
3820.000000	87.521667	-61.8755
3870.000000	87.496422	-60.9185
3950.000000	87.434700	-59.5347
4000.000000	87.353104	-58.7823
4060.000000	87.286850	-57.5802
4120.000000	87.170578	-56.5021
4180.000000	87.016548	-55.3046
4250.000000	86.814178	-53.3859
4310.000000	86.636856	-51.4345
4370.000000	86.483772	-49.0867
4440.000000	86.362984	-46.0154
4500.000000	86.340019	-43.1270
4550.000000	86.370834	-40.6850
4620.000000	86.494080	-37.2789
4680.000000	86.666939	-34.7011
4750.000000	86.935768	-32.0181
4820.000000	87.269196	-29.9144
4870.000000	87.513107	-28.7953
4940.000000	87.862015	-27.6957
5000.000000	88.159866	-27.3503
5080.000000	88.515503	-27.0872
5150.000000	88.789673	-27.4759
5220.000000	88.999611	-28.3811
5300.000000	89.140747	-29.6508
5380.000000	89.169792	-31.1938
5450.000000	89.097809	-32.4177
5520.000000	88.908791	-33.4380
5600.000000	88.613434	-34.2741
5700.000000	88.171982	-34.4962
5800.000000	87.704628	-33.9459
5900.000000	87.228180	-32.5824
6000.000000	86.786308	-30.5154
6080.000000	86.493408	-28.3443
6150.000000	86.273872	-26.3518
6220.000000	86.091393	-24.0334
6300.000000	85.914169	-21.2760
6400.000000	85.795197	-17.7076
6500.000000	85.752274	-14.0724
6600.000000	85.782478	-10.3272
6700.000000	85.911072	-6.7623
6800.000000	86.099808	-3.3199
6900.000000	86.390419	-0.0283
7000.000000	86.794579	2.8607
7100.000000	87.288239	5.5547
7200.000000	87.889595	7.6838
7300.000000	88.600166	9.0265
7400.000000	89.410622	8.9703
7500.000000	90.214066	7.2216
7620.000000	91.035950	2.7624
7750.000000	91.516571	-4.1243
7880.000000	91.438141	-11.4207
8000.000000	91.035767	-16.8589
8120.000000	90.506783	-20.8536
8250.000000	89.895950	-24.0732
8380.000000	89.303596	-26.6569
8500.000000	88.745071	-28.9114
8620.000000	88.122597	-31.3725
8750.000000	87.265579	-33.9719
8850.000000	86.467636	-35.5529
9000.000000	85.091721	-36.3019
9120.000000	83.950233	-35.4198
9250.000000	82.770233	-32.8967
9380.000000	81.673546	-29.1491
9500.000000	80.809616	-24.9408
9620.000000	80.077972	-20.0937
9750.000000	79.449593	-14.7374
9880.000000	78.969986	-9.2887
10000.000000	78.620117	-4.6292
10150.000000	78.354317	0.9971
10300.000000	78.165939	6.2256
10440.000000	78.025398	9.7833
10600.000000	77.901306	13.2395
10750.000000	77.671501	16.1581
10900.000000	77.322769	19.3621
11060.000000	76.909241	23.7242
11200.000000	76.691689	28.1798
11380.000000	76.704285	35.2146
11500.000000	76.847755	38.8202
11720.000000	77.254967	43.3789
11800.000000	77.401009	44.1825
12060.000000	77.620041	46.9434
12200.000000	77.634415	48.3462
12410.000000	77.716469	51.1293
12500.000000	77.742615	52.4641
12650.000000	77.870934	55.2897
12800.000000	78.095459	58.3818
13150.000000	79.250404	64.9614
13200.000000	79.504448	65.6549
13400.000000	80.658844	66.2907
13600.000000	81.864952	63.1595
13800.000000	82.836472	55.6085
14000.000000	83.023209	44.9002
14300.000000	81.757874	33.1564
14500.000000	80.615814	30.7502
14750.000000	79.558487	32.1080
15000.000000	79.021065	35.2702
15250.000000	79.077049	38.7354
15500.000000	79.592377	39.1157
15750.000000	80.328117	35.1798
16000.000000	80.745125	25.9783
16250.000000	80.450958	15.1231
16500.000000	79.551247	5.9083
16750.000000	78.558067	-1.0614
17000.000000	77.522484	-7.3920
17250.000000	76.424049	-12.5377
17500.000000	75.458138	-15.5221
17750.000000	74.771248	-21.0532
18000.000000	74.140518	-31.5265
18250.000000	73.422379	-44.0804
18500.000000	72.610352	-55.1139
18750.000000	71.898453	-64.2459
19000.000000	71.392448	-74.9532
19250.000000	70.796204	-88.3670
19500.000000	69.855545	-105.3416
19750.000000	68.324608	-124.6640
