* Measurement data measured by REW V5.20 Beta 60
* Source: In 1-2 (MOTU M Series), LINE_IN (Master Volume), L, volume: 0.250
* Format: 256k Log Swept Sine, 1 sweep at -10.0 dBFS with no timing reference
* Dated: Apr 2, 2022 3:27:22 PM
* REW Settings:
*  C-weighting compensation: Off
*  Target level: 75.0 dB
* Note: ; 
* Measurement: Monarch MKII R
* Smoothing: None
* Frequency Step: 1/48 octave
* Start Frequency: 20.000 Hz
*
* Freq(Hz) SPL(dB) Phase(degrees)
20.000000	90.980	10.2286
20.299999	90.993	9.7995
20.600000	91.012	9.3398
20.900000	91.033	8.8316
21.200001	91.053	8.2598
21.400000	91.061	7.8778
21.799999	91.064	7.1801
22.000000	91.064	6.8686
22.400000	91.071	6.2569
22.700001	91.084	5.8245
23.000000	91.104	5.3562
23.299999	91.123	4.8066
23.600000	91.135	4.2236
24.000000	91.130	3.4679
24.299999	91.117	2.9582
24.700001	91.099	2.3939
25.000000	91.092	2.0434
25.400000	91.095	1.5987
25.799999	91.103	1.1214
26.200001	91.111	0.6147
26.500000	91.117	0.2440
26.900000	91.122	-0.2170
27.200001	91.127	-0.5664
27.600000	91.137	-1.0712
28.000000	91.138	-1.6050
28.500000	91.125	-2.2570
29.000000	91.107	-2.7712
29.500000	91.106	-3.2428
30.000000	91.114	-3.8205
30.400000	91.109	-4.3926
30.700001	91.090	-4.8111
31.100000	91.055	-5.2665
31.500000	91.025	-5.5902
32.000000	91.017	-5.9231
32.500000	91.033	-6.4448
33.000000	91.033	-7.1705
33.500000	90.995	-7.9041
34.000000	90.939	-8.4258
34.500000	90.903	-8.7785
35.000000	90.891	-9.1620
35.500000	90.880	-9.7055
36.000000	90.849	-10.2862
36.500000	90.801	-10.7539
37.000000	90.761	-11.0841
37.500000	90.743	-11.4092
38.200001	90.722	-12.0501
38.700001	90.686	-12.5420
39.500000	90.622	-13.0671
40.000000	90.607	-13.3622
40.599998	90.591	-13.9128
41.200001	90.537	-14.4778
41.799999	90.473	-14.7398
42.500000	90.463	-14.8787
43.099998	90.486	-15.3806
43.700001	90.458	-16.1547
44.400002	90.361	-16.7573
45.000000	90.298	-16.9041
45.500000	90.279	-17.0295
46.200001	90.268	-17.4162
46.799999	90.250	-17.8890
47.500000	90.207	-18.5162
48.200001	90.131	-19.0562
48.700001	90.074	-19.2673
49.400002	90.029	-19.4629
50.000000	90.010	-19.7997
50.799999	89.946	-20.3811
51.500000	89.873	-20.6492
52.200001	89.828	-20.8402
53.000000	89.775	-21.2031
53.799999	89.715	-21.4511
54.500000	89.693	-21.7205
55.200001	89.659	-22.3363
56.000000	89.538	-23.0100
57.000000	89.392	-23.0443
58.000000	89.362	-23.1425
59.000000	89.325	-23.7267
60.000000	89.246	-24.2720
60.799999	89.178	-24.5130
61.500000	89.137	-24.6601
62.200001	89.107	-24.8833
63.000000	89.063	-25.2308
64.000000	88.979	-25.6540
65.000000	88.889	-25.8409
66.000000	88.839	-26.1122
67.000000	88.751	-26.6521
68.000000	88.633	-26.8679
69.000000	88.546	-26.8985
70.000000	88.495	-26.8607
71.000000	88.473	-27.1105
72.000000	88.409	-27.5309
73.000000	88.319	-27.8277
74.000000	88.220	-27.9203
75.000000	88.165	-27.9158
76.199997	88.106	-28.3381
77.500000	87.983	-28.7346
78.800003	87.880	-28.8429
80.000000	87.805	-28.9882
81.199997	87.735	-29.1593
82.500000	87.650	-29.3603
83.800003	87.558	-29.5439
85.000000	87.469	-29.5817
86.199997	87.384	-29.6099
87.500000	87.306	-29.5963
88.500000	87.222	-29.5407
90.000000	87.212	-29.3794
91.199997	87.100	-29.9550
92.500000	86.983	-29.7457
93.800003	86.885	-29.7827
95.000000	86.819	-29.7464
96.199997	86.751	-29.9051
97.500000	86.652	-29.9900
98.800003	86.595	-29.7800
100.000000	86.537	-29.9235
101.500000	86.433	-29.7318
103.000000	86.343	-29.6276
104.400002	86.251	-29.5096
106.000000	86.142	-29.4598
107.500000	86.109	-29.1298
109.000000	86.025	-29.5189
110.599998	85.972	-29.0866
112.000000	85.893	-29.0913
113.800003	85.794	-29.0799
115.000000	85.702	-28.8905
117.199997	85.623	-28.9182
118.000000	85.573	-29.0374
120.599998	85.499	-28.8462
122.000000	85.423	-28.5402
124.099998	85.326	-28.1827
125.000000	85.301	-28.0790
126.500000	85.183	-27.9499
128.000000	85.154	-27.6689
131.500000	85.037	-27.3812
132.000000	85.034	-27.2730
134.000000	84.949	-27.2641
136.000000	84.847	-26.7854
138.000000	84.770	-26.4920
140.000000	84.705	-26.2003
143.000000	84.632	-25.6810
145.000000	84.502	-25.6667
147.500000	84.415	-25.4869
150.000000	84.333	-25.5040
152.500000	84.362	-24.8091
155.000000	84.319	-24.1911
157.500000	84.237	-24.0849
160.000000	84.227	-24.0064
162.500000	84.267	-23.3493
165.000000	84.145	-23.9067
167.500000	84.170	-22.0340
170.000000	84.155	-20.8387
172.500000	84.005	-22.3034
175.000000	84.103	-22.7830
177.500000	84.060	-20.3576
180.000000	83.937	-21.1109
182.500000	83.801	-20.4496
185.000000	83.573	-19.9660
187.500000	83.599	-18.8276
190.000000	83.637	-19.1580
192.500000	83.479	-18.6044
195.000000	83.476	-18.6423
197.500000	83.418	-18.0662
200.000000	83.362	-18.4528
203.000000	83.407	-17.8268
206.000000	83.324	-17.5496
209.000000	83.314	-17.0459
212.000000	83.286	-16.7861
214.000000	83.303	-16.4618
218.000000	83.223	-15.9907
220.000000	83.224	-15.9105
224.000000	83.207	-15.5026
227.000000	83.158	-15.0629
230.000000	83.128	-14.5170
233.000000	83.110	-14.3369
236.000000	83.108	-13.8384
240.000000	83.105	-13.5856
243.000000	83.116	-13.2294
247.000000	83.075	-12.9544
250.000000	83.047	-12.5263
254.000000	83.037	-12.3080
258.000000	83.022	-11.7082
262.000000	82.995	-11.5034
265.000000	82.986	-11.2102
269.000000	82.978	-10.8090
272.000000	82.976	-10.6166
276.000000	82.958	-10.2014
280.000000	82.960	-9.9577
285.000000	82.942	-9.5576
290.000000	82.931	-9.2423
295.000000	82.928	-8.8503
300.000000	82.926	-8.5641
304.000000	82.912	-8.1955
307.000000	82.902	-8.0590
311.000000	82.892	-7.8241
315.000000	82.893	-7.6298
320.000000	82.890	-7.1436
325.000000	82.887	-6.8720
330.000000	82.868	-6.5107
335.000000	82.860	-6.3110
340.000000	82.859	-6.0014
345.000000	82.849	-5.8032
350.000000	82.832	-5.5728
355.000000	82.834	-5.2169
360.000000	82.832	-4.9235
365.000000	82.817	-4.6880
370.000000	82.818	-4.4678
375.000000	82.819	-4.2299
382.000000	82.800	-3.8864
387.000000	82.794	-3.6740
395.000000	82.787	-3.3420
400.000000	82.786	-3.1485
406.000000	82.776	-2.8459
412.000000	82.767	-2.6155
418.000000	82.761	-2.3404
425.000000	82.745	-2.0806
431.000000	82.739	-1.8354
437.000000	82.740	-1.5755
444.000000	82.735	-1.3089
450.000000	82.721	-1.0062
455.000000	82.719	-0.8562
462.000000	82.709	-0.5610
468.000000	82.704	-0.3635
475.000000	82.703	-0.1081
482.000000	82.691	0.2028
487.000000	82.682	0.4139
494.000000	82.667	0.6730
500.000000	82.652	0.9353
508.000000	82.646	1.2512
515.000000	82.622	1.5135
522.000000	82.620	1.8030
530.000000	82.599	2.1217
538.000000	82.581	2.4604
545.000000	82.563	2.7610
552.000000	82.547	3.0417
560.000000	82.526	3.3841
570.000000	82.502	3.8234
580.000000	82.480	4.2644
590.000000	82.461	4.7455
600.000000	82.432	5.2571
608.000000	82.422	5.6280
615.000000	82.415	5.9536
622.000000	82.405	6.3352
630.000000	82.400	6.7188
640.000000	82.393	7.2267
650.000000	82.383	7.7172
660.000000	82.374	8.2589
670.000000	82.371	8.7300
680.000000	82.366	9.2625
690.000000	82.359	9.7884
700.000000	82.342	10.3171
710.000000	82.336	10.8697
720.000000	82.328	11.4459
730.000000	82.320	12.0541
740.000000	82.317	12.6144
750.000000	82.312	13.2128
762.000000	82.317	13.9541
775.000000	82.316	14.8102
788.000000	82.321	15.6467
800.000000	82.336	16.4299
812.000000	82.349	17.3101
825.000000	82.378	18.2575
838.000000	82.413	19.1679
850.000000	82.463	20.0783
862.000000	82.526	20.9486
875.000000	82.608	21.8444
885.000000	82.686	22.4578
900.000000	82.815	23.2985
912.000000	82.923	23.8054
925.000000	83.034	24.0966
938.000000	83.122	24.4145
950.000000	83.188	24.5574
962.000000	83.241	24.7296
975.000000	83.266	24.9907
988.000000	83.301	25.3612
1000.000000	83.333	25.7368
1015.000000	83.366	26.2432
1030.000000	83.413	26.8075
1044.000000	83.461	27.3723
1060.000000	83.542	27.9728
1075.000000	83.608	28.5048
1090.000000	83.691	29.0031
1106.000000	83.786	29.5442
1120.000000	83.868	29.9603
1138.000000	83.987	30.3957
1150.000000	84.061	30.6540
1172.000000	84.200	31.1244
1180.000000	84.251	31.2655
1206.000000	84.409	31.6847
1220.000000	84.501	31.8610
1241.000000	84.625	32.0812
1250.000000	84.684	32.1685
1265.000000	84.768	32.3041
1280.000000	84.855	32.4131
1315.000000	85.038	32.6602
1320.000000	85.061	32.7037
1340.000000	85.154	32.8188
1360.000000	85.256	32.9577
1380.000000	85.340	33.0904
1400.000000	85.426	33.2025
1430.000000	85.546	33.4195
1450.000000	85.624	33.5821
1475.000000	85.717	33.7969
1500.000000	85.816	34.0630
1525.000000	85.906	34.2864
1550.000000	86.009	34.5774
1575.000000	86.112	34.8020
1600.000000	86.212	35.1072
1625.000000	86.311	35.4078
1650.000000	86.419	35.6814
1675.000000	86.526	35.9912
1700.000000	86.638	36.2967
1725.000000	86.747	36.5824
1750.000000	86.862	36.8529
1775.000000	86.977	37.1376
1800.000000	87.096	37.4009
1825.000000	87.225	37.6487
1850.000000	87.349	37.8985
1875.000000	87.483	38.0905
1900.000000	87.613	38.2533
1925.000000	87.751	38.4174
1950.000000	87.882	38.5757
1975.000000	88.020	38.6650
2000.000000	88.162	38.7201
2030.000000	88.333	38.7574
2060.000000	88.502	38.7086
2090.000000	88.677	38.6543
2120.000000	88.854	38.4883
2140.000000	88.968	38.3355
2180.000000	89.198	37.9399
2200.000000	89.301	37.6929
2240.000000	89.517	37.1449
2270.000000	89.664	36.5992
2300.000000	89.816	35.9782
2330.000000	89.955	35.3401
2360.000000	90.085	34.5959
2400.000000	90.232	33.5312
2430.000000	90.328	32.6836
2470.000000	90.417	31.5180
2500.000000	90.471	30.6242
2540.000000	90.516	29.4153
2580.000000	90.543	28.2832
2620.000000	90.542	27.2313
2650.000000	90.534	26.4592
2690.000000	90.510	25.5998
2720.000000	90.483	24.9724
2760.000000	90.429	24.2731
2800.000000	90.375	23.7015
2850.000000	90.312	23.0772
2900.000000	90.256	22.5976
2950.000000	90.217	22.1070
3000.000000	90.179	21.7065
3040.000000	90.149	21.3694
3070.000000	90.131	21.1343
3110.000000	90.110	20.8440
3150.000000	90.095	20.5555
3200.000000	90.081	20.2599
3250.000000	90.084	19.9355
3300.000000	90.112	19.5556
3350.000000	90.150	18.9670
3400.000000	90.179	18.1747
3450.000000	90.213	17.2901
3500.000000	90.248	16.2580
3550.000000	90.260	15.0587
3600.000000	90.255	13.8443
3650.000000	90.223	12.4956
3700.000000	90.177	11.0938
3750.000000	90.075	9.6129
3820.000000	89.861	7.5798
3870.000000	89.638	6.2304
3950.000000	89.147	4.5632
4000.000000	88.776	4.0642
4060.000000	88.294	4.3692
4120.000000	87.816	5.6452
4180.000000	87.436	7.9522
4250.000000	87.193	11.5348
4310.000000	87.156	14.8514
4370.000000	87.317	17.8536
4440.000000	87.667	20.5906
4500.000000	88.041	21.8876
4550.000000	88.355	22.5428
4620.000000	88.798	22.5679
4680.000000	89.174	22.0546
4750.000000	89.579	20.8899
4820.000000	89.942	19.1441
4870.000000	90.147	17.5907
4940.000000	90.401	15.0436
5000.000000	90.574	12.4866
5080.000000	90.711	9.0471
5150.000000	90.716	5.7905
5220.000000	90.629	2.7077
5300.000000	90.433	-0.5495
5380.000000	90.163	-3.4684
5450.000000	89.876	-5.5966
5520.000000	89.505	-7.4151
5600.000000	89.057	-8.9419
5700.000000	88.508	-10.3891
5800.000000	87.953	-11.0423
5900.000000	87.434	-11.1342
6000.000000	86.951	-11.0795
6080.000000	86.618	-10.5532
6150.000000	86.346	-10.0423
6220.000000	86.101	-9.5812
6300.000000	85.878	-8.6354
6400.000000	85.677	-7.5624
6500.000000	85.517	-6.4754
6600.000000	85.416	-5.2916
6700.000000	85.365	-4.2433
6800.000000	85.364	-3.0463
6900.000000	85.460	-1.8320
7000.000000	85.672	-0.8536
7100.000000	85.985	-0.1638
7200.000000	86.383	-0.0469
7300.000000	86.849	-0.7695
7400.000000	87.368	-2.5126
7500.000000	87.859	-5.6861
7620.000000	88.344	-11.0000
7750.000000	88.562	-18.4318
7880.000000	88.331	-26.5711
8000.000000	87.744	-33.3931
8120.000000	86.910	-38.5760
8250.000000	85.886	-42.1421
8380.000000	84.878	-43.6761
8500.000000	84.024	-43.8060
8620.000000	83.258	-42.9040
8750.000000	82.544	-41.0665
8850.000000	82.086	-39.2986
9000.000000	81.532	-36.1979
9120.000000	81.234	-33.5756
9250.000000	81.042	-30.7041
9380.000000	80.976	-28.0824
9500.000000	80.981	-25.8762
9620.000000	81.055	-23.8533
9750.000000	81.217	-22.2897
9880.000000	81.437	-21.2231
10000.000000	81.717	-20.7869
10150.000000	82.029	-21.1506
10300.000000	82.288	-22.0114
10440.000000	82.502	-23.0533
10600.000000	82.715	-24.4998
10750.000000	82.937	-26.5091
10900.000000	83.083	-29.5217
11060.000000	83.009	-33.3601
11200.000000	82.720	-36.3136
11380.000000	82.152	-38.5897
11500.000000	81.769	-38.8291
11720.000000	81.181	-37.4555
11800.000000	81.052	-36.6210
12060.000000	80.911	-33.6699
12200.000000	80.990	-32.9486
12410.000000	81.250	-32.9588
12500.000000	81.344	-33.4154
12650.000000	81.415	-34.6702
12800.000000	81.396	-35.8530
13150.000000	81.236	-37.7622
13200.000000	81.215	-37.9870
13400.000000	81.215	-39.2267
13600.000000	81.180	-41.4823
13800.000000	81.005	-45.3111
14000.000000	80.457	-49.8359
14300.000000	78.852	-54.1477
14500.000000	77.533	-53.7451
14750.000000	75.923	-49.1982
15000.000000	74.611	-41.2875
15250.000000	73.718	-31.7203
15500.000000	73.274	-20.5434
15750.000000	73.316	-9.9193
16000.000000	73.791	-0.7201
16250.000000	74.539	6.3461
16500.000000	75.401	11.0501
16750.000000	76.399	13.3639
17000.000000	77.332	12.3509
17250.000000	77.946	8.3621
17500.000000	78.037	3.5970
17750.000000	77.884	-0.9551
18000.000000	77.673	-7.0287
18250.000000	77.084	-16.4745
18500.000000	75.372	-27.2285
18750.000000	72.658	-33.2312
19000.000000	69.635	-31.8305
19250.000000	67.003	-25.9287
19500.000000	64.469	-17.8989
19750.000000	61.935	-7.0387
