* Measurement data measured by REW V5.20 Beta 47
* Source: Input device not selected, no input selected, L, volume: no control
* Format: 256k Log Swept Sine, 1 sweep at -3.0 dBFS with no timing reference
* Dated: Jun 7, 2020 8:59:59 PM
* REW Settings:
*  C-weighting compensation: Off
*  Target level: 75.0 dB
* Note: ; 
* Measurement: ThieAudio Legacy 3 10 R
* Smoothing: None
* Frequency Step: 1/48 octave
* Start Frequency: 20.000 Hz
*
* Freq(Hz)	SPL(dB)	Phase(degrees)
20.0000	92.5475	170.19
20.3000	92.5313	169.90
20.6000	92.5218	169.66
20.9000	92.5200	169.41
21.2000	92.5269	169.12
21.4000	92.5312	168.88
21.8000	92.5287	168.34
22.0000	92.5202	168.05
22.4000	92.4899	167.51
22.7000	92.4604	167.20
23.0000	92.4347	166.96
23.3000	92.4205	166.76
23.6000	92.4172	166.53
24.0000	92.4165	166.12
24.3000	92.4085	165.72
24.7000	92.3747	165.18
25.0000	92.3357	164.86
25.4000	92.2857	164.58
25.8000	92.2576	164.44
26.2000	92.2583	164.22
26.5000	92.2657	163.92
26.9000	92.2584	163.38
27.2000	92.2323	162.94
27.6000	92.1728	162.47
28.0000	92.1070	162.25
28.5000	92.0627	162.16
29.0000	92.0673	161.98
29.5000	92.0816	161.46
30.0000	92.0536	160.76
30.4000	91.9985	160.27
30.7000	91.9481	160.04
31.1000	91.8879	159.89
31.5000	91.8515	159.84
32.0000	91.8390	159.74
32.5000	91.8454	159.41
33.0000	91.8371	158.90
33.5000	91.7951	158.30
34.0000	91.7213	157.83
34.5000	91.6458	157.58
35.0000	91.5897	157.48
35.5000	91.5623	157.36
36.0000	91.5445	157.11
36.5000	91.5155	156.74
37.0000	91.4718	156.39
37.5000	91.4265	156.10
38.2000	91.3708	155.73
38.7000	91.3297	155.43
39.5000	91.2560	155.03
40.0000	91.2131	154.87
40.6000	91.1719	154.68
41.2000	91.1394	154.45
41.8000	91.1071	154.16
42.5000	91.0559	153.78
43.1000	91.0018	153.48
43.7000	90.9477	153.22
44.4000	90.8838	152.93
45.0000	90.8267	152.70
45.5000	90.7834	152.53
46.2000	90.7315	152.28
46.8000	90.6834	152.02
47.5000	90.6243	151.79
48.2000	90.5895	151.58
48.7000	90.5716	151.27
49.4000	90.5006	150.70
50.0000	90.3955	150.51
50.8000	90.3093	150.73
51.5000	90.3052	150.77
52.2000	90.2801	150.44
53.0000	90.2034	150.18
53.8000	90.1438	150.09
54.5000	90.0973	149.90
55.2000	90.0369	149.69
56.0000	89.9718	149.54
57.0000	89.9022	149.28
58.0000	89.8224	148.98
59.0000	89.7388	148.77
60.0000	89.6724	148.64
60.8000	89.6207	148.48
61.5000	89.5691	148.35
62.2000	89.5166	148.28
63.0000	89.4648	148.23
64.0000	89.4030	148.07
65.0000	89.3245	147.89
66.0000	89.2439	147.79
67.0000	89.1715	147.68
68.0000	89.0998	147.59
69.0000	89.0429	147.44
70.0000	88.9677	147.25
71.0000	88.8961	147.20
72.0000	88.8354	147.10
73.0000	88.7674	147.02
74.0000	88.7110	146.97
75.0000	88.6485	146.86
76.2000	88.5749	146.81
77.5000	88.4967	146.71
78.8000	88.4212	146.66
80.0000	88.3505	146.56
81.2000	88.2796	146.51
82.5000	88.2020	146.47
83.8000	88.1338	146.45
85.0000	88.0650	146.42
86.2000	87.9950	146.39
87.5000	87.9190	146.41
88.5000	87.8632	146.32
90.0000	87.7556	146.41
91.2000	87.7175	146.41
92.5000	87.6421	146.29
93.8000	87.5751	146.32
95.0000	87.5192	146.28
96.2000	87.4478	146.29
97.5000	87.3856	146.36
98.8000	87.3245	146.43
100.0000	87.2792	146.38
101.5000	87.1923	146.35
103.0000	87.1146	146.43
104.4000	87.0560	146.46
106.0000	86.9736	146.52
107.5000	86.9085	146.54
109.0000	86.8472	146.66
110.6000	86.7836	146.64
112.0000	86.7287	146.72
113.8000	86.6523	146.81
115.0000	86.5966	146.85
117.2000	86.5241	146.97
118.0000	86.4805	146.98
120.6000	86.3786	147.16
122.0000	86.3230	147.25
124.1000	86.2405	147.39
125.0000	86.2045	147.47
126.5000	86.1538	147.54
128.0000	86.0864	147.63
131.5000	85.9634	147.88
132.0000	85.9485	147.93
134.0000	85.8828	148.07
136.0000	85.8134	148.21
138.0000	85.7463	148.35
140.0000	85.6797	148.47
143.0000	85.5860	148.69
145.0000	85.5195	148.90
147.5000	85.4420	149.10
150.0000	85.3646	149.20
152.5000	85.3014	149.47
155.0000	85.2409	149.74
157.5000	85.1920	149.86
160.0000	85.1227	150.12
162.5000	85.0627	150.33
165.0000	85.0098	150.49
167.5000	84.9537	150.76
170.0000	84.8996	150.96
172.5000	84.8385	151.20
175.0000	84.7692	151.45
177.5000	84.6944	151.60
180.0000	84.6412	151.82
182.5000	84.5714	151.96
185.0000	84.5123	152.27
187.5000	84.4573	152.46
190.0000	84.4065	152.68
192.5000	84.3495	152.88
195.0000	84.2927	153.08
197.5000	84.2343	153.33
200.0000	84.1803	153.55
203.0000	84.1185	153.84
206.0000	84.0690	154.07
209.0000	84.0088	154.36
212.0000	83.9549	154.62
214.0000	83.9106	154.78
218.0000	83.8588	155.08
220.0000	83.8389	155.30
224.0000	83.7846	155.66
227.0000	83.7427	155.89
230.0000	83.6988	156.13
233.0000	83.6659	156.39
236.0000	83.6327	156.66
240.0000	83.5796	157.02
243.0000	83.5294	157.22
247.0000	83.4874	157.58
250.0000	83.4513	157.65
254.0000	83.4024	158.23
258.0000	83.3599	158.45
262.0000	83.2957	158.81
265.0000	83.2659	159.10
269.0000	83.2164	159.40
272.0000	83.1826	159.74
276.0000	83.1455	159.96
280.0000	83.1016	160.35
285.0000	83.0511	160.66
290.0000	83.0008	161.11
295.0000	82.9555	161.47
300.0000	82.9049	161.90
304.0000	82.8779	162.21
307.0000	82.8542	162.40
311.0000	82.8233	162.72
315.0000	82.7938	162.99
320.0000	82.7465	163.38
325.0000	82.7081	163.71
330.0000	82.6660	164.14
335.0000	82.6298	164.61
340.0000	82.5958	164.91
345.0000	82.5726	165.26
350.0000	82.5432	165.80
355.0000	82.4863	166.00
360.0000	82.4496	166.37
365.0000	82.4165	166.78
370.0000	82.3919	167.13
375.0000	82.3615	167.38
382.0000	82.3188	167.90
387.0000	82.2955	168.25
395.0000	82.2461	168.77
400.0000	82.2339	169.07
406.0000	82.1969	169.56
412.0000	82.1625	169.96
418.0000	82.1412	170.31
425.0000	82.1191	170.79
431.0000	82.0851	171.27
437.0000	82.0548	171.68
444.0000	82.0415	172.16
450.0000	82.0447	172.68
455.0000	82.0001	172.93
462.0000	81.9861	173.25
468.0000	81.9532	173.68
475.0000	81.9253	174.10
482.0000	81.9046	174.43
487.0000	81.8863	174.80
494.0000	81.8742	175.23
500.0000	81.8575	175.59
508.0000	81.8451	176.16
515.0000	81.8110	176.76
522.0000	81.7924	177.25
530.0000	81.7891	177.84
538.0000	81.7685	178.45
545.0000	81.7617	179.00
552.0000	81.7554	179.60
560.0000	81.7396	-179.83
570.0000	81.7584	-179.12
580.0000	81.7593	-178.50
590.0000	81.7734	-177.87
600.0000	81.8114	-177.11
608.0000	81.8026	-176.69
615.0000	81.8297	-176.28
622.0000	81.8450	-176.01
630.0000	81.8599	-175.47
640.0000	81.8702	-175.09
650.0000	81.8724	-174.53
660.0000	81.9095	-174.07
670.0000	81.9175	-173.66
680.0000	81.9024	-173.09
690.0000	81.9064	-172.55
700.0000	81.8956	-171.88
710.0000	81.9075	-171.25
720.0000	81.9218	-170.63
730.0000	81.9326	-170.05
740.0000	81.9596	-169.41
750.0000	81.9864	-169.05
762.0000	82.0003	-168.27
775.0000	82.0224	-167.54
788.0000	82.0474	-166.86
800.0000	82.0663	-166.33
812.0000	82.0578	-165.77
825.0000	82.0500	-165.03
838.0000	82.0449	-164.00
850.0000	82.0654	-162.95
862.0000	82.1073	-162.21
875.0000	82.1815	-161.27
885.0000	82.2101	-160.61
900.0000	82.2896	-159.72
912.0000	82.3473	-158.87
925.0000	82.4152	-158.16
938.0000	82.4917	-157.30
950.0000	82.5708	-156.69
962.0000	82.6491	-155.97
975.0000	82.7336	-155.27
988.0000	82.8423	-154.55
1000.0000	82.9909	-153.71
1015.0000	83.0134	-153.21
1030.0000	83.1076	-152.54
1044.0000	83.2170	-151.96
1060.0000	83.3340	-151.32
1075.0000	83.4544	-150.75
1090.0000	83.5842	-150.19
1106.0000	83.7337	-149.76
1120.0000	83.8489	-149.31
1138.0000	84.0066	-148.90
1150.0000	84.1188	-148.58
1172.0000	84.3062	-148.18
1180.0000	84.3758	-148.01
1206.0000	84.5986	-147.57
1220.0000	84.7135	-147.41
1241.0000	84.9011	-147.18
1250.0000	84.9683	-147.07
1265.0000	85.1036	-146.95
1280.0000	85.2281	-146.83
1315.0000	85.5065	-146.55
1320.0000	85.5547	-146.51
1340.0000	85.7092	-146.37
1360.0000	85.8699	-146.27
1380.0000	86.0336	-146.15
1400.0000	86.1878	-146.09
1430.0000	86.4351	-145.97
1450.0000	86.5955	-145.92
1475.0000	86.8000	-145.93
1500.0000	87.0091	-145.94
1525.0000	87.2242	-145.97
1550.0000	87.4523	-146.09
1575.0000	87.6850	-146.34
1600.0000	87.9194	-146.60
1625.0000	88.1600	-146.99
1650.0000	88.3976	-147.47
1675.0000	88.6475	-148.09
1700.0000	88.8784	-148.88
1725.0000	89.1155	-149.84
1750.0000	89.3328	-150.86
1775.0000	89.5395	-152.05
1800.0000	89.7237	-153.40
1825.0000	89.8854	-154.87
1850.0000	90.0270	-156.42
1875.0000	90.1309	-158.06
1900.0000	90.2066	-159.68
1925.0000	90.2501	-161.30
1950.0000	90.2562	-162.86
1975.0000	90.2188	-164.45
2000.0000	90.1202	-166.13
2030.0000	90.1070	-167.32
2060.0000	90.0257	-168.53
2090.0000	89.9096	-169.65
2120.0000	89.7911	-170.57
2140.0000	89.7138	-171.10
2180.0000	89.5501	-171.83
2200.0000	89.4769	-172.14
2240.0000	89.3437	-172.70
2270.0000	89.2356	-173.28
2300.0000	89.1368	-174.05
2330.0000	89.0632	-174.60
2360.0000	88.9844	-175.22
2400.0000	88.9022	-175.73
2430.0000	88.8617	-175.78
2470.0000	88.8019	-175.78
2500.0000	88.7583	-175.82
2540.0000	88.7166	-175.74
2580.0000	88.6845	-175.77
2620.0000	88.6493	-175.75
2650.0000	88.6342	-175.81
2690.0000	88.6220	-175.91
2720.0000	88.6026	-176.00
2760.0000	88.5928	-176.18
2800.0000	88.5594	-176.28
2850.0000	88.5240	-176.58
2900.0000	88.4932	-176.83
2950.0000	88.4638	-177.11
3000.0000	88.4366	-177.20
3040.0000	88.4104	-177.78
3070.0000	88.3769	-178.12
3110.0000	88.3330	-178.51
3150.0000	88.3043	-178.86
3200.0000	88.2435	-179.44
3250.0000	88.1819	-179.96
3300.0000	88.1138	179.45
3350.0000	88.0332	178.85
3400.0000	87.9365	178.19
3450.0000	87.8326	177.58
3500.0000	87.7406	176.95
3550.0000	87.6248	176.39
3600.0000	87.4734	175.68
3650.0000	87.3184	175.22
3700.0000	87.1178	174.80
3750.0000	86.8975	174.56
3820.0000	86.5458	174.84
3870.0000	86.2599	175.32
3950.0000	85.8413	176.96
4000.0000	85.5734	178.38
4060.0000	85.3879	-178.91
4120.0000	85.2632	-175.88
4180.0000	85.3165	-172.52
4250.0000	85.5815	-168.78
4310.0000	85.9928	-166.13
4370.0000	86.5275	-164.42
4440.0000	87.2264	-164.06
4500.0000	87.8419	-165.05
4550.0000	88.2841	-166.78
4620.0000	88.7710	-170.24
4680.0000	89.0255	-173.67
4750.0000	89.1362	-177.78
4820.0000	89.1281	178.37
4870.0000	89.0598	175.84
4940.0000	88.9187	172.51
5000.0000	88.7621	169.62
5080.0000	88.4910	166.29
5150.0000	88.1502	163.44
5220.0000	87.7594	160.93
5300.0000	87.2411	158.77
5380.0000	86.6772	157.23
5450.0000	86.1926	156.47
5520.0000	85.6543	156.08
5600.0000	85.0798	156.22
5700.0000	84.4203	157.03
5800.0000	83.8402	158.13
5900.0000	83.3184	159.61
6000.0000	82.8252	161.30
6080.0000	82.4410	162.92
6150.0000	82.2242	164.70
6220.0000	82.0028	166.33
6300.0000	81.7903	168.44
6400.0000	81.6265	170.98
6500.0000	81.5437	173.42
6600.0000	81.4868	175.85
6700.0000	81.5235	178.61
6800.0000	81.6357	-178.97
6900.0000	81.8897	-176.62
7000.0000	82.2673	-174.53
7100.0000	82.6871	-172.78
7200.0000	83.2142	-171.88
7300.0000	83.8644	-170.97
7400.0000	84.6218	-170.68
7500.0000	85.5103	-171.62
7620.0000	86.7046	-174.63
7750.0000	88.0832	178.85
7880.0000	89.2773	167.61
8000.0000	89.8092	153.39
8120.0000	89.5135	138.22
8250.0000	88.4557	124.62
8380.0000	87.0969	114.75
8500.0000	85.8543	108.03
8620.0000	84.7240	102.37
8750.0000	83.5117	96.54
8850.0000	82.5311	91.80
9000.0000	80.7964	84.70
9120.0000	79.1609	79.70
9250.0000	77.1419	76.06
9380.0000	74.8868	75.27
9500.0000	73.0897	77.08
9620.0000	71.2095	80.65
9750.0000	69.4843	85.63
9880.0000	67.7858	91.63
10000.0000	66.4279	98.28
10150.0000	65.2448	107.05
10300.0000	63.8623	118.07
10440.0000	62.8599	126.87
10600.0000	61.7128	139.52
10750.0000	60.8970	152.09
10900.0000	60.8564	165.72
11060.0000	61.2891	-179.00
11200.0000	62.5598	-164.70
11380.0000	65.6352	-149.55
11500.0000	68.4596	-147.64
11720.0000	73.2405	-166.84
11800.0000	74.0695	178.63
12060.0000	72.5356	143.88
12200.0000	71.1601	134.69
12410.0000	69.6664	125.97
12500.0000	69.1130	121.17
12650.0000	68.3109	115.91
12800.0000	67.5592	109.79
13150.0000	65.7816	95.22
13200.0000	65.7334	93.96
13400.0000	64.8008	88.90
13600.0000	63.9984	81.47
13800.0000	63.5971	75.95
14000.0000	63.1413	71.44
14300.0000	63.2766	65.12
14500.0000	63.2664	63.21
14750.0000	63.8171	58.76
15000.0000	64.7572	52.60
15250.0000	65.6606	44.54
15500.0000	68.2016	29.70
15750.0000	69.1550	-9.96
16000.0000	65.9222	-51.90
16250.0000	61.1347	-85.91
16500.0000	53.8203	-119.48
16750.0000	47.1910	171.42
17000.0000	45.2918	132.67
17250.0000	46.5888	99.45
17500.0000	49.9471	80.72
17750.0000	51.8628	83.37
18000.0000	48.7112	66.97
18250.0000	51.7217	68.97
18500.0000	52.5066	56.44
18750.0000	53.8069	45.72
19000.0000	54.3129	18.58
19250.0000	54.9696	5.18
19500.0000	56.0844	-11.83
19750.0000	55.6361	-41.47
