* Measurement data measured by REW V5.20 Beta 47
* Source: Headset (USB-C to 3.5mm Headphone Jack Adapter), MICROPHONE (Master Volume), L, volume: 0.000
* Format: 256k Log Swept Sine, 1 sweep at -3.0 dBFS with no timing reference
* Dated: Jun 28, 2020 10:48:30 PM
* REW Settings:
*  C-weighting compensation: Off
*  Target level: 75.0 dB
* Note: ; 
* Measurement: 11 R
* Smoothing: None
* Frequency Step: 1/48 octave
* Start Frequency: 20.000 Hz
*
* Freq(Hz)	SPL(dB)	Phase(degrees)
20.0000	92.6960	-147.86
20.3000	92.7457	-148.39
20.6000	92.7945	-148.91
20.9000	92.8409	-149.42
21.2000	92.8883	-149.93
21.4000	92.9178	-150.28
21.8000	92.9684	-150.97
22.0000	92.9893	-151.31
22.4000	93.0249	-151.97
22.7000	93.0442	-152.39
23.0000	93.0633	-152.73
23.3000	93.0909	-153.01
23.6000	93.1274	-153.28
24.0000	93.1867	-153.69
24.3000	93.2324	-154.07
24.7000	93.2816	-154.66
25.0000	93.3044	-155.11
25.4000	93.3219	-155.64
25.8000	93.3361	-156.03
26.2000	93.3643	-156.34
26.5000	93.3980	-156.58
26.9000	93.4514	-156.98
27.2000	93.4911	-157.36
27.6000	93.5358	-157.93
28.0000	93.5636	-158.52
28.5000	93.5802	-159.22
29.0000	93.5865	-159.77
29.5000	93.6003	-160.18
30.0000	93.6324	-160.50
30.4000	93.6740	-160.79
30.7000	93.7074	-161.06
31.1000	93.7446	-161.48
31.5000	93.7691	-161.91
32.0000	93.7911	-162.33
32.5000	93.8295	-162.70
33.0000	93.8771	-163.21
33.5000	93.8907	-163.90
34.0000	93.8505	-164.40
34.5000	93.8240	-164.40
35.0000	93.8871	-164.22
35.5000	94.0172	-164.63
36.0000	94.0843	-165.75
36.5000	94.0140	-166.79
37.0000	93.9011	-166.85
37.5000	93.9222	-166.21
38.2000	94.1686	-166.49
38.7000	94.2515	-167.91
39.5000	94.0616	-169.16
40.0000	94.0042	-168.52
40.6000	94.1583	-168.06
41.2000	94.2987	-169.10
41.8000	94.2305	-170.30
42.5000	94.0859	-170.17
43.1000	94.1274	-169.70
43.7000	94.2102	-170.04
44.4000	94.1931	-170.77
45.0000	94.1513	-170.92
45.5000	94.1610	-170.96
46.2000	94.1927	-171.33
46.8000	94.1929	-171.73
47.5000	94.1983	-172.07
48.2000	94.2168	-172.48
48.7000	94.2206	-172.82
49.4000	94.2155	-173.19
50.0000	94.2136	-173.43
50.8000	94.2210	-173.75
51.5000	94.2329	-173.99
52.2000	94.2453	-174.29
53.0000	94.2449	-174.64
53.8000	94.2460	-174.91
54.5000	94.2539	-175.18
55.2000	94.2565	-175.49
56.0000	94.2601	-175.80
57.0000	94.2665	-176.23
58.0000	94.2646	-176.53
59.0000	94.2981	-176.80
60.0000	94.3224	-177.35
60.8000	94.2996	-177.72
61.5000	94.2824	-177.87
62.2000	94.2802	-178.01
63.0000	94.2799	-178.23
64.0000	94.2761	-178.56
65.0000	94.2672	-178.91
66.0000	94.2601	-179.21
67.0000	94.2640	-179.55
68.0000	94.2672	-179.90
69.0000	94.2655	179.76
70.0000	94.2612	179.57
71.0000	94.2784	179.29
72.0000	94.2632	178.98
73.0000	94.2671	178.68
74.0000	94.2082	178.20
75.0000	94.1552	178.49
76.2000	94.2447	178.31
77.5000	94.2424	177.71
78.8000	94.2626	177.26
80.0000	94.2505	176.99
81.2000	94.2803	176.80
82.5000	94.2923	176.41
83.8000	94.2858	176.03
85.0000	94.2639	175.77
86.2000	94.2668	175.49
87.5000	94.2377	175.08
88.5000	94.2306	174.92
90.0000	94.2141	174.60
91.2000	94.2134	174.37
92.5000	94.1961	174.10
93.8000	94.1855	173.69
95.0000	94.1507	173.57
96.2000	94.1717	173.28
97.5000	94.1606	173.03
98.8000	94.1688	172.61
100.0000	94.1386	172.60
101.5000	94.1672	172.20
103.0000	94.1281	172.05
104.4000	94.1027	171.44
106.0000	94.0658	171.58
107.5000	94.0961	170.93
109.0000	94.0635	170.76
110.6000	94.0932	170.47
112.0000	94.0421	170.50
113.8000	94.0885	169.61
115.0000	93.9764	169.93
117.2000	94.0011	169.31
118.0000	94.0135	169.35
120.6000	94.0347	168.68
122.0000	93.9835	168.42
124.1000	93.9947	168.28
125.0000	93.9701	168.14
126.5000	93.9516	168.01
128.0000	93.9504	167.68
131.5000	93.8990	167.09
132.0000	93.8887	167.04
134.0000	93.8752	166.74
136.0000	93.8498	166.48
138.0000	93.8269	166.20
140.0000	93.7986	165.88
143.0000	93.7761	165.45
145.0000	93.7596	165.21
147.5000	93.7374	164.83
150.0000	93.7269	164.58
152.5000	93.6775	164.10
155.0000	93.6699	163.84
157.5000	93.6303	163.58
160.0000	93.6213	163.32
162.5000	93.6245	163.05
165.0000	93.5924	162.78
167.5000	93.5761	162.47
170.0000	93.5390	162.15
172.5000	93.5126	161.79
175.0000	93.4747	161.65
177.5000	93.4329	161.31
180.0000	93.4090	161.04
182.5000	93.3527	160.80
185.0000	93.3197	160.65
187.5000	93.2794	160.04
190.0000	93.2603	159.91
192.5000	93.2277	159.80
195.0000	93.1875	159.60
197.5000	93.1497	159.32
200.0000	93.1183	159.08
203.0000	93.0798	158.84
206.0000	93.0352	158.57
209.0000	92.9935	158.31
212.0000	92.9547	158.04
214.0000	92.9297	157.88
218.0000	92.8899	157.52
220.0000	92.8752	157.38
224.0000	92.8266	156.97
227.0000	92.8030	156.81
230.0000	92.7807	156.58
233.0000	92.7499	156.39
236.0000	92.7113	156.14
240.0000	92.6699	155.84
243.0000	92.6307	155.58
247.0000	92.5840	155.42
250.0000	92.5508	155.19
254.0000	92.5011	154.90
258.0000	92.4550	154.66
262.0000	92.4027	154.38
265.0000	92.3648	154.22
269.0000	92.3183	153.98
272.0000	92.2800	153.78
276.0000	92.2408	153.59
280.0000	92.1960	153.37
285.0000	92.1343	153.08
290.0000	92.0767	152.80
295.0000	92.0238	152.56
300.0000	91.9690	152.32
304.0000	91.9237	152.13
307.0000	91.8926	151.97
311.0000	91.8437	151.80
315.0000	91.7954	151.63
320.0000	91.7377	151.40
325.0000	91.6846	151.18
330.0000	91.6250	150.96
335.0000	91.5678	150.78
340.0000	91.5115	150.58
345.0000	91.4554	150.41
350.0000	91.4038	150.20
355.0000	91.3436	150.04
360.0000	91.2800	149.87
365.0000	91.2211	149.81
370.0000	91.1717	149.58
375.0000	91.1217	149.39
382.0000	91.0409	149.19
387.0000	90.9914	149.09
395.0000	90.9098	148.88
400.0000	90.8557	148.74
406.0000	90.7942	148.61
412.0000	90.7313	148.45
418.0000	90.6696	148.35
425.0000	90.6032	148.19
431.0000	90.5409	148.09
437.0000	90.4851	148.01
444.0000	90.4210	147.90
450.0000	90.3737	147.85
455.0000	90.3291	147.72
462.0000	90.2624	147.54
468.0000	90.2071	147.40
475.0000	90.1361	147.28
482.0000	90.0638	147.12
487.0000	90.0180	147.03
494.0000	89.9578	146.90
500.0000	89.9049	146.89
508.0000	89.8359	146.85
515.0000	89.7737	146.80
522.0000	89.7043	146.78
530.0000	89.6382	146.75
538.0000	89.5591	146.73
545.0000	89.4987	146.74
552.0000	89.4390	146.77
560.0000	89.3675	146.77
570.0000	89.2800	146.80
580.0000	89.2010	146.85
590.0000	89.1159	146.94
600.0000	89.0302	147.01
608.0000	88.9751	147.11
615.0000	88.9160	147.18
622.0000	88.8682	147.23
630.0000	88.8147	147.38
640.0000	88.7448	147.49
650.0000	88.6783	147.64
660.0000	88.6094	147.78
670.0000	88.5451	147.98
680.0000	88.4825	148.19
690.0000	88.4178	148.38
700.0000	88.3538	148.60
710.0000	88.2876	148.84
720.0000	88.2277	149.10
730.0000	88.1743	149.36
740.0000	88.1205	149.63
750.0000	88.0648	149.88
762.0000	88.0034	150.25
775.0000	87.9357	150.68
788.0000	87.8737	151.07
800.0000	87.8171	151.48
812.0000	87.7647	151.89
825.0000	87.7181	152.36
838.0000	87.6725	152.84
850.0000	87.6341	153.31
862.0000	87.6038	153.76
875.0000	87.5714	154.25
885.0000	87.5497	154.64
900.0000	87.5245	155.22
912.0000	87.5132	155.72
925.0000	87.5002	156.24
938.0000	87.4963	156.72
950.0000	87.4957	157.20
962.0000	87.4986	157.68
975.0000	87.5043	158.15
988.0000	87.5317	158.70
1000.0000	87.6114	159.28
1015.0000	87.5518	159.58
1030.0000	87.5611	160.05
1044.0000	87.5856	160.46
1060.0000	87.6191	160.89
1075.0000	87.6506	161.29
1090.0000	87.7021	161.63
1106.0000	87.7541	162.01
1120.0000	87.7983	162.26
1138.0000	87.8522	162.58
1150.0000	87.8925	162.76
1172.0000	87.9639	163.06
1180.0000	87.9882	163.15
1206.0000	88.0698	163.45
1220.0000	88.1121	163.59
1241.0000	88.1770	163.80
1250.0000	88.2097	163.85
1265.0000	88.2522	163.96
1280.0000	88.2919	164.08
1315.0000	88.3818	164.42
1320.0000	88.3937	164.44
1340.0000	88.4380	164.62
1360.0000	88.4881	164.85
1380.0000	88.5308	165.07
1400.0000	88.5741	165.33
1430.0000	88.6349	165.79
1450.0000	88.6808	166.12
1475.0000	88.7401	166.56
1500.0000	88.7988	167.08
1525.0000	88.8616	167.65
1550.0000	88.9403	168.23
1575.0000	89.0262	168.84
1600.0000	89.1154	169.56
1625.0000	89.2192	170.23
1650.0000	89.3339	170.96
1675.0000	89.4610	171.70
1700.0000	89.5978	172.42
1725.0000	89.7476	173.17
1750.0000	89.9102	173.87
1775.0000	90.0868	174.56
1800.0000	90.2763	175.24
1825.0000	90.4763	175.85
1850.0000	90.6900	176.38
1875.0000	90.9147	176.90
1900.0000	91.1583	177.31
1925.0000	91.4085	177.77
1950.0000	91.6751	178.03
1975.0000	91.9461	178.13
2000.0000	92.1937	177.77
2030.0000	92.6404	177.68
2060.0000	93.0139	176.91
2090.0000	93.3444	175.80
2120.0000	93.6469	174.44
2140.0000	93.8294	173.42
2180.0000	94.1300	171.12
2200.0000	94.2488	169.87
2240.0000	94.4178	167.20
2270.0000	94.4773	165.00
2300.0000	94.4909	162.69
2330.0000	94.4715	160.54
2360.0000	94.4102	158.52
2400.0000	94.2860	156.44
2430.0000	94.1829	155.35
2470.0000	94.0179	154.44
2500.0000	93.8927	153.99
2540.0000	93.7317	153.57
2580.0000	93.5732	153.49
2620.0000	93.4322	153.55
2650.0000	93.3346	153.80
2690.0000	93.2271	154.25
2720.0000	93.1740	154.59
2760.0000	93.1015	155.36
2800.0000	93.0503	155.96
2850.0000	93.0444	156.77
2900.0000	93.0136	157.50
2950.0000	93.0250	158.39
3000.0000	93.0543	159.48
3040.0000	93.1239	159.56
3070.0000	93.1384	159.97
3110.0000	93.2219	160.45
3150.0000	93.2856	160.60
3200.0000	93.3497	160.94
3250.0000	93.4178	161.43
3300.0000	93.4388	161.49
3350.0000	93.5394	161.69
3400.0000	93.5822	161.46
3450.0000	93.6113	161.44
3500.0000	93.6388	161.61
3550.0000	93.5742	161.59
3600.0000	93.6099	161.74
3650.0000	93.5245	161.76
3700.0000	93.4420	162.25
3750.0000	93.3847	162.99
3820.0000	93.3320	164.86
3870.0000	93.2169	166.50
3950.0000	93.3079	169.00
4000.0000	93.3745	170.61
4060.0000	93.5695	173.16
4120.0000	93.8196	174.69
4180.0000	94.0148	175.65
4250.0000	94.2785	176.78
4310.0000	94.5957	177.94
4370.0000	94.8148	178.34
4440.0000	95.0512	179.23
4500.0000	95.3747	179.80
4550.0000	95.5587	-179.10
4620.0000	95.8820	-179.49
4680.0000	96.0833	-178.73
4750.0000	96.4187	-178.31
4820.0000	96.7141	-178.67
4870.0000	97.0323	-179.25
4940.0000	97.3811	-178.75
5000.0000	97.7344	179.63
5080.0000	98.1554	178.79
5150.0000	98.4327	177.77
5220.0000	98.5505	175.69
5300.0000	98.8656	174.08
5380.0000	99.0155	171.39
5450.0000	99.1072	168.89
5520.0000	99.0725	165.76
5600.0000	99.0079	164.08
5700.0000	98.8740	160.82
5800.0000	98.5259	158.71
5900.0000	98.0145	155.99
6000.0000	97.5213	155.65
6080.0000	97.1938	155.24
6150.0000	97.0288	156.08
6220.0000	96.9394	156.47
6300.0000	96.5415	155.25
6400.0000	96.3002	156.68
6500.0000	96.1249	160.15
6600.0000	95.9322	159.91
6700.0000	95.8195	161.97
6800.0000	95.8483	164.92
6900.0000	95.5981	167.90
7000.0000	96.1961	170.08
7100.0000	96.6018	171.23
7200.0000	96.2345	169.60
7300.0000	96.8235	171.23
7400.0000	97.0355	171.40
7500.0000	97.3549	172.00
7620.0000	97.9883	168.23
7750.0000	98.9202	163.65
7880.0000	98.5914	156.72
8000.0000	98.1701	148.97
8120.0000	97.5780	141.83
8250.0000	95.9330	137.64
8380.0000	94.3617	136.41
8500.0000	93.1658	136.59
8620.0000	91.8468	145.28
8750.0000	90.7357	153.72
8850.0000	89.9261	157.31
9000.0000	89.4512	172.71
9120.0000	91.2819	-175.17
9250.0000	93.0958	-174.10
9380.0000	93.1183	177.03
9500.0000	93.0997	166.58
9620.0000	93.1730	167.81
9750.0000	92.7345	168.92
9880.0000	91.8853	169.05
10000.0000	91.7603	163.10
10150.0000	93.1545	160.37
10300.0000	93.1174	150.44
10440.0000	92.4794	146.73
10600.0000	92.3893	135.65
10750.0000	90.4861	117.29
10900.0000	87.6455	109.00
11060.0000	84.5938	115.01
11200.0000	82.7397	118.92
11380.0000	81.0716	115.92
11500.0000	80.8468	125.76
11720.0000	77.9365	138.59
11800.0000	77.5445	129.72
12060.0000	76.2498	146.34
12200.0000	73.6483	154.02
12410.0000	72.5458	161.04
12500.0000	72.8256	174.85
12650.0000	73.6082	178.80
12800.0000	73.3222	-176.41
13150.0000	72.9779	-160.68
13200.0000	70.0837	-160.27
13400.0000	72.0339	-156.99
13600.0000	69.9970	-138.64
13800.0000	70.3616	-127.40
14000.0000	71.4444	-135.76
14300.0000	74.0322	-108.81
14500.0000	74.5866	-105.24
14750.0000	73.5358	-119.38
15000.0000	74.7571	-117.25
15250.0000	80.2723	-132.35
15500.0000	79.0660	-149.28
15750.0000	82.6283	173.85
16000.0000	81.9437	169.57
16250.0000	80.8309	135.92
16500.0000	73.1507	93.80
16750.0000	73.4708	82.12
17000.0000	69.3626	80.10
17250.0000	60.9272	59.89
17500.0000	62.3989	80.35
17750.0000	60.4143	86.78
18000.0000	52.9193	64.29
18250.0000	57.9797	92.93
18500.0000	58.8971	90.21
18750.0000	53.8205	105.02
19000.0000	60.0019	63.41
19250.0000	56.9967	36.22
19500.0000	60.8576	28.22
19750.0000	64.0392	39.80
