* Measurement data measured by REW V5.20 Beta 60
* Source: Headset (USB-C to 3.5mm Headphone Jack Adapter), MICROPHONE (Master Volume), R, volume: 0.250
* Format: 256k Log Swept Sine, 1 sweep at -3.0 dBFS with no timing reference
* Dated: Sep 11, 2020 10:16:36 PM
* REW Settings:
*  C-weighting compensation: Off
*  Target level: 75.0 dB
* Note: ; 
* Measurement: 30 Ohm R
* Smoothing: None
* Frequency Step: 1/48 octave
* Start Frequency: 20.000 Hz
*
* Freq(Hz)	SPL(dB)	Phase(degrees)
20.000000	100.845291	144.4881
20.299999	100.805099	144.0725
20.600000	100.765343	143.6539
20.900000	100.723610	143.2328
21.200001	100.682877	142.7958
21.400000	100.654381	142.5031
21.799999	100.594727	141.9233
22.000000	100.564857	141.6290
22.400000	100.508301	140.9957
22.700001	100.462280	140.5058
23.000000	100.411148	140.0088
23.299999	100.356369	139.5129
23.600000	100.296730	139.0468
24.000000	100.212578	138.4928
24.299999	100.151688	138.1219
24.700001	100.076828	137.6755
25.000000	100.025864	137.3589
25.400000	99.966110	136.9322
25.799999	99.910614	136.5190
26.200001	99.861343	136.1035
26.500000	99.829346	135.7753
26.900000	99.788918	135.3118
27.200001	99.757950	134.9296
27.600000	99.711258	134.3843
28.000000	99.651520	133.8413
28.500000	99.564728	133.2238
29.000000	99.476250	132.7194
29.500000	99.396713	132.2568
30.000000	99.317749	131.7864
30.400000	99.252190	131.3986
30.700001	99.200584	131.1249
31.100000	99.132706	130.7767
31.500000	99.068932	130.4178
32.000000	98.989807	129.9282
32.500000	98.905106	129.3821
33.000000	98.809738	128.8533
33.500000	98.710175	128.3710
34.000000	98.612877	127.9253
34.500000	98.522835	127.4688
35.000000	98.431870	127.0174
35.500000	98.341461	126.5875
36.000000	98.253860	126.1791
36.500000	98.167656	125.7525
37.000000	98.078812	125.3297
37.500000	97.989891	124.9341
38.200001	97.868484	124.4107
38.700001	97.780685	124.0045
39.500000	97.624054	123.3876
40.000000	97.522133	123.1158
40.599998	97.414307	122.8477
41.200001	97.324310	122.5015
41.799999	97.230995	122.0257
42.500000	97.098763	121.4585
43.099998	96.980354	121.0635
43.700001	96.870529	120.7059
44.400002	96.746231	120.2644
45.000000	96.636993	119.8925
45.500000	96.546181	119.6076
46.200001	96.419586	119.2565
46.799999	96.314255	118.9855
47.500000	96.199066	118.6555
48.200001	96.079483	118.2623
48.700001	95.984390	117.9634
49.400002	95.841965	117.6320
50.000000	95.722130	117.4266
50.799999	95.579346	117.1090
51.500000	95.456444	116.8041
52.200001	95.329376	116.4872
53.000000	95.182152	116.1610
53.799999	95.042389	115.8878
54.500000	94.923378	115.6259
55.200001	94.798981	115.3634
56.000000	94.652809	115.1443
57.000000	94.476494	114.9169
58.000000	94.299545	114.6902
59.000000	94.120392	114.4625
60.000000	93.939423	114.2539
60.799999	93.792046	114.1133
61.500000	93.670441	114.0113
62.200001	93.554726	113.8877
63.000000	93.420822	113.7165
64.000000	93.246025	113.5325
65.000000	93.075294	113.4191
66.000000	92.902725	113.3135
67.000000	92.732697	113.2649
68.000000	92.567413	113.1965
69.000000	92.403732	113.1410
70.000000	92.237679	113.0714
71.000000	92.067375	113.0955
72.000000	91.916763	113.1489
73.000000	91.756920	113.1589
74.000000	91.605202	113.2639
75.000000	91.447334	113.2743
76.199997	91.260109	113.4894
77.500000	91.068405	113.5015
78.800003	90.872299	113.7203
80.000000	90.704865	113.7592
81.199997	90.526192	113.9722
82.500000	90.341797	114.2165
83.800003	90.166656	114.5817
85.000000	89.983002	114.7472
86.199997	89.805389	115.2548
87.500000	89.627235	115.2534
88.500000	89.459641	115.4232
90.000000	89.140747	115.6302
91.199997	89.047974	117.0546
92.500000	88.986526	116.4284
93.800003	88.764359	117.1258
95.000000	88.703018	117.3846
96.199997	88.536827	117.4674
97.500000	88.337761	118.1699
98.800003	88.219650	118.9107
100.000000	88.092567	119.3287
101.500000	87.903053	119.7611
103.000000	87.762215	120.8143
104.400002	87.603889	120.6849
106.000000	87.450951	121.9580
107.500000	87.274338	122.0778
109.000000	87.164108	123.1096
110.599998	86.995491	123.6150
112.000000	86.882362	124.4297
113.800003	86.740250	124.9956
115.000000	86.568443	125.5718
117.199997	86.545433	126.3388
118.000000	86.372238	126.4139
120.599998	86.237000	128.1060
122.000000	86.127609	128.9508
124.099998	85.949127	129.5663
125.000000	85.854805	130.3782
126.500000	85.850288	131.0497
128.000000	85.659149	131.6338
131.500000	85.471153	132.8864
132.000000	85.417389	133.5775
134.000000	85.429329	134.6030
136.000000	85.354088	135.4395
138.000000	85.207954	136.0166
140.000000	85.151108	137.3922
143.000000	85.050537	138.6106
145.000000	84.974518	139.2805
147.500000	84.861694	140.8259
150.000000	84.800552	141.1176
152.500000	84.689796	142.7322
155.000000	84.668655	143.3478
157.500000	84.597946	144.5679
160.000000	84.595032	145.2450
162.500000	84.520699	146.2958
165.000000	84.508568	147.1219
167.500000	84.459602	148.1429
170.000000	84.470505	148.7208
172.500000	84.384850	149.5161
175.000000	84.299995	150.7014
177.500000	84.373627	151.5775
180.000000	84.300713	151.5266
182.500000	84.212784	152.7158
185.000000	84.188889	153.3009
187.500000	84.180458	154.2486
190.000000	84.179817	154.8259
192.500000	84.150085	155.4427
195.000000	84.147766	155.9778
197.500000	84.159218	156.4557
200.000000	84.155045	156.9438
203.000000	84.087410	157.5315
206.000000	84.059830	158.3124
209.000000	84.091431	158.9459
212.000000	84.060944	159.4088
214.000000	84.070274	159.9460
218.000000	84.096954	160.8842
220.000000	84.096741	161.6332
224.000000	84.048965	161.9256
227.000000	84.070473	162.6262
230.000000	84.045204	163.1038
233.000000	83.988396	163.7312
236.000000	84.014404	164.2498
240.000000	84.007523	164.2655
243.000000	84.003922	165.0202
247.000000	84.045532	165.4469
250.000000	84.032730	166.0209
254.000000	83.999008	166.7620
258.000000	84.033134	167.1812
262.000000	83.998405	167.6829
265.000000	83.985237	168.1204
269.000000	83.983398	168.4224
272.000000	83.980751	168.9646
276.000000	83.954910	169.1569
280.000000	83.968430	169.7194
285.000000	83.967247	170.1926
290.000000	83.950043	170.7705
295.000000	83.935333	171.2803
300.000000	83.922394	171.8284
304.000000	83.916931	172.2767
307.000000	83.897751	172.5348
311.000000	83.894791	172.9201
315.000000	83.881004	173.2563
320.000000	83.870781	173.7007
325.000000	83.862648	174.1508
330.000000	83.836472	174.5815
335.000000	83.831863	175.0514
340.000000	83.811539	175.4833
345.000000	83.802567	175.8300
350.000000	83.785820	176.3251
355.000000	83.765442	176.7578
360.000000	83.743912	177.1390
365.000000	83.725754	177.6200
370.000000	83.709023	177.9459
375.000000	83.702087	178.2542
382.000000	83.677086	178.8184
387.000000	83.661751	179.2194
395.000000	83.640602	179.8155
400.000000	83.622528	-179.8466
406.000000	83.597099	-179.3823
412.000000	83.586365	-178.9152
418.000000	83.557564	-178.5293
425.000000	83.535172	-178.0289
431.000000	83.512352	-177.6042
437.000000	83.494217	-177.1964
444.000000	83.465790	-176.6450
450.000000	83.453247	-176.1211
455.000000	83.433502	-175.8278
462.000000	83.411591	-175.3763
468.000000	83.380493	-174.9214
475.000000	83.348869	-174.4137
482.000000	83.331451	-173.8601
487.000000	83.318581	-173.5095
494.000000	83.305939	-173.0671
500.000000	83.302673	-172.5177
508.000000	83.285904	-171.8506
515.000000	83.275276	-171.3050
522.000000	83.262955	-170.8025
530.000000	83.250580	-170.2063
538.000000	83.230453	-169.6686
545.000000	83.228523	-169.1297
552.000000	83.207954	-168.5837
560.000000	83.207695	-168.0441
570.000000	83.189240	-167.3007
580.000000	83.168373	-166.5323
590.000000	83.158340	-165.8662
600.000000	83.150276	-165.1302
608.000000	83.139915	-164.5380
615.000000	83.144409	-164.0194
622.000000	83.134811	-163.5808
630.000000	83.141396	-162.9435
640.000000	83.131073	-162.3358
650.000000	83.129250	-161.6938
660.000000	83.126999	-160.9540
670.000000	83.122269	-160.2626
680.000000	83.114029	-159.6023
690.000000	83.113373	-158.8571
700.000000	83.101517	-158.1185
710.000000	83.100601	-157.3649
720.000000	83.087067	-156.5958
730.000000	83.099678	-155.8815
740.000000	83.098534	-155.1201
750.000000	83.108452	-154.3754
762.000000	83.111855	-153.5009
775.000000	83.120659	-152.4521
788.000000	83.129333	-151.4556
800.000000	83.145676	-150.5152
812.000000	83.153458	-149.5797
825.000000	83.175095	-148.5332
838.000000	83.212006	-147.5571
850.000000	83.246635	-146.5748
862.000000	83.282684	-145.6500
875.000000	83.326859	-144.6615
885.000000	83.361389	-143.8589
900.000000	83.418983	-142.7274
912.000000	83.478943	-141.8353
925.000000	83.548836	-140.8313
938.000000	83.614197	-139.8540
950.000000	83.691734	-139.0180
962.000000	83.767067	-138.1267
975.000000	83.846443	-137.2590
988.000000	83.959976	-136.3395
1000.000000	84.109413	-135.4127
1015.000000	84.140068	-134.7473
1030.000000	84.239891	-133.8379
1044.000000	84.353035	-133.1298
1060.000000	84.482010	-132.3355
1075.000000	84.602600	-131.6285
1090.000000	84.745499	-130.9712
1106.000000	84.889374	-130.3353
1120.000000	85.025467	-129.8740
1138.000000	85.190903	-129.2952
1150.000000	85.300964	-128.9395
1172.000000	85.499039	-128.4281
1180.000000	85.569595	-128.2876
1206.000000	85.798172	-127.8078
1220.000000	85.926521	-127.5937
1241.000000	86.100838	-127.3319
1250.000000	86.181290	-127.2437
1265.000000	86.303543	-127.1350
1280.000000	86.425148	-127.0083
1315.000000	86.690422	-126.8000
1320.000000	86.724022	-126.8005
1340.000000	86.873291	-126.7364
1360.000000	87.003616	-126.6789
1380.000000	87.142830	-126.6073
1400.000000	87.270126	-126.5782
1430.000000	87.456329	-126.5033
1450.000000	87.572861	-126.4947
1475.000000	87.720726	-126.4788
1500.000000	87.869011	-126.4600
1525.000000	88.008156	-126.4622
1550.000000	88.153473	-126.4604
1575.000000	88.294693	-126.5240
1600.000000	88.438248	-126.5244
1625.000000	88.579529	-126.5840
1650.000000	88.718910	-126.6536
1675.000000	88.858765	-126.7241
1700.000000	88.999123	-126.8322
1725.000000	89.140617	-126.9505
1750.000000	89.279053	-127.1428
1775.000000	89.419601	-127.3228
1800.000000	89.554550	-127.5333
1825.000000	89.690964	-127.8024
1850.000000	89.826538	-128.0782
1875.000000	89.961281	-128.4165
1900.000000	90.088623	-128.7563
1925.000000	90.219879	-129.1511
1950.000000	90.340332	-129.6217
1975.000000	90.440033	-130.1636
2000.000000	90.497032	-130.9685
2030.000000	90.696396	-131.3307
2060.000000	90.832573	-131.9955
2090.000000	90.951927	-132.7825
2120.000000	91.060577	-133.6121
2140.000000	91.129951	-134.1970
2180.000000	91.247131	-135.3893
2200.000000	91.305984	-136.0197
2240.000000	91.397232	-137.5049
2270.000000	91.440842	-138.8916
2300.000000	91.471558	-140.4731
2330.000000	91.500885	-142.0331
2360.000000	91.507477	-143.6381
2400.000000	91.499985	-145.5134
2430.000000	91.490929	-146.6809
2470.000000	91.444160	-148.0531
2500.000000	91.395119	-149.0367
2540.000000	91.311546	-150.3554
2580.000000	91.207741	-151.6246
2620.000000	91.088028	-152.7955
2650.000000	90.992302	-153.6626
2690.000000	90.843681	-154.7199
2720.000000	90.718834	-155.4559
2760.000000	90.531334	-156.3413
2800.000000	90.322021	-157.0455
2850.000000	90.046043	-157.6663
2900.000000	89.783333	-157.9960
2950.000000	89.539909	-158.0724
3000.000000	89.322136	-157.6844
3040.000000	89.162872	-157.8184
3070.000000	89.048973	-157.7439
3110.000000	88.906586	-157.5506
3150.000000	88.782822	-157.3207
3200.000000	88.632149	-157.0125
3250.000000	88.506004	-156.7072
3300.000000	88.389999	-156.4211
3350.000000	88.284210	-156.1306
3400.000000	88.194427	-155.7851
3450.000000	88.122131	-155.5668
3500.000000	88.067825	-155.2886
3550.000000	88.030045	-155.0717
3600.000000	87.991257	-154.8783
3650.000000	87.958359	-154.7224
3700.000000	87.926353	-154.5520
3750.000000	87.901085	-154.4510
3820.000000	87.894409	-154.3241
3870.000000	87.884903	-154.3109
3950.000000	87.856117	-154.5455
4000.000000	87.811630	-154.9523
4060.000000	87.799484	-155.1357
4120.000000	87.735504	-155.6028
4180.000000	87.631142	-156.1833
4250.000000	87.476364	-156.3718
4310.000000	87.321342	-156.3440
4370.000000	87.163864	-156.0395
4440.000000	87.004745	-155.1995
4500.000000	86.924721	-154.0509
4550.000000	86.923798	-153.0422
4620.000000	86.974304	-151.5978
4680.000000	87.092957	-150.4903
4750.000000	87.308838	-149.5397
4820.000000	87.588753	-149.0566
4870.000000	87.819901	-149.0527
4940.000000	88.167755	-149.6097
5000.000000	88.459602	-150.7758
5080.000000	88.822556	-152.7159
5150.000000	89.073936	-155.1814
5220.000000	89.239967	-158.1718
5300.000000	89.304771	-161.8831
5380.000000	89.232758	-165.6880
5450.000000	89.046165	-168.8410
5520.000000	88.746460	-171.5685
5600.000000	88.321579	-174.1509
5700.000000	87.725655	-176.4458
5800.000000	87.117355	-177.7204
5900.000000	86.539185	-178.1411
6000.000000	86.002075	-177.7588
6080.000000	85.642708	-176.9893
6150.000000	85.373604	-176.1377
6220.000000	85.156052	-175.1005
6300.000000	84.945503	-173.7184
6400.000000	84.765282	-171.8494
6500.000000	84.662109	-169.8448
6600.000000	84.661621	-167.8583
6700.000000	84.732956	-165.7604
6800.000000	84.906906	-163.7734
6900.000000	85.199738	-161.9995
7000.000000	85.619797	-160.4022
7100.000000	86.140678	-159.3114
7200.000000	86.764854	-158.7612
7300.000000	87.485100	-158.9335
7400.000000	88.302834	-160.1714
7500.000000	89.156639	-162.7434
7620.000000	90.172752	-167.7897
7750.000000	91.065109	-175.7827
7880.000000	91.567444	174.4519
8000.000000	91.660461	165.0224
8120.000000	91.499298	156.3393
8250.000000	91.176895	147.6001
8380.000000	90.731117	139.0226
8500.000000	90.187485	130.9716
8620.000000	89.409409	122.9497
8750.000000	88.237000	115.3462
8850.000000	87.171288	110.7547
9000.000000	85.460396	106.4956
9120.000000	84.158699	104.9670
9250.000000	82.850449	104.9504
9380.000000	81.691040	106.1620
9500.000000	80.805374	107.7613
9620.000000	80.018814	109.8226
9750.000000	79.344620	112.4525
9880.000000	78.802994	115.0230
10000.000000	78.462982	117.2657
10150.000000	78.143402	119.5486
10300.000000	77.886322	121.0423
10440.000000	77.781532	122.3704
10600.000000	77.689346	123.1158
10750.000000	77.667099	122.6747
10900.000000	77.544266	121.4290
11060.000000	77.204491	120.0013
11200.000000	76.905434	120.2523
11380.000000	76.559517	120.9008
11500.000000	76.513512	121.4805
11720.000000	76.518784	121.9083
11800.000000	76.621384	121.8394
12060.000000	76.815796	119.3252
12200.000000	76.798019	117.5358
12410.000000	76.774361	115.5960
12500.000000	76.738640	114.9409
12650.000000	76.699852	114.3219
12800.000000	76.765381	114.2487
13150.000000	77.349373	114.9451
13200.000000	77.489426	114.9909
13400.000000	78.289680	114.7275
13600.000000	79.348015	112.7961
13800.000000	80.637970	108.2933
14000.000000	81.977249	99.9491
14300.000000	83.138191	80.0087
14500.000000	82.970245	66.2213
14750.000000	82.219429	53.1269
15000.000000	81.561058	44.0126
15250.000000	81.302612	35.7252
15500.000000	81.189850	25.3024
15750.000000	80.828217	12.6497
16000.000000	80.007042	0.4937
16250.000000	79.050331	-9.4476
16500.000000	78.158081	-18.2356
16750.000000	77.343613	-26.1786
17000.000000	76.645050	-33.6373
17250.000000	76.157501	-40.3312
17500.000000	75.860611	-47.1661
17750.000000	75.953583	-57.1974
18000.000000	76.120728	-72.0817
18250.000000	76.340691	-91.1292
18500.000000	76.175804	-111.9279
18750.000000	75.846748	-130.5430
19000.000000	75.531799	-148.3760
19250.000000	75.331398	-168.5955
19500.000000	74.912170	167.4343
19750.000000	73.988983	138.9159
