* Measurement data measured by REW V5.20 Beta 47
* Source: Headset (USB-C to 3.5mm Headphone Jack Adapter), MICROPHONE (Master Volume), L, volume: 0.000
* Format: 256k Log Swept Sine, 1 sweep at -3.0 dBFS with no timing reference
* Dated: Jun 28, 2020 10:47:07 PM
* REW Settings:
*  C-weighting compensation: Off
*  Target level: 75.0 dB
* Note: ; 
* Measurement: 00 R
* Smoothing: None
* Frequency Step: 1/48 octave
* Start Frequency: 20.000 Hz
*
* Freq(Hz)	SPL(dB)	Phase(degrees)
20.0000	90.4214	-147.08
20.3000	90.4833	-147.75
20.6000	90.5321	-148.40
20.9000	90.5701	-148.98
21.2000	90.6081	-149.49
21.4000	90.6341	-149.81
21.8000	90.6872	-150.41
22.0000	90.7140	-150.70
22.4000	90.7663	-151.31
22.7000	90.7980	-151.74
23.0000	90.8264	-152.10
23.3000	90.8599	-152.41
23.6000	90.9001	-152.69
24.0000	90.9624	-153.11
24.3000	91.0092	-153.50
24.7000	91.0568	-154.09
25.0000	91.0758	-154.52
25.4000	91.0873	-154.98
25.8000	91.1010	-155.24
26.2000	91.1399	-155.42
26.5000	91.1874	-155.61
26.9000	91.2584	-156.02
27.2000	91.3034	-156.45
27.6000	91.3393	-157.10
28.0000	91.3457	-157.67
28.5000	91.3421	-158.16
29.0000	91.3603	-158.46
29.5000	91.4113	-158.78
30.0000	91.4707	-159.26
30.4000	91.5103	-159.76
30.7000	91.5299	-160.16
31.1000	91.5415	-160.68
31.5000	91.5382	-161.17
32.0000	91.5181	-161.61
32.5000	91.5015	-161.84
33.0000	91.5132	-161.91
33.5000	91.5628	-162.02
34.0000	91.6316	-162.35
34.5000	91.6917	-162.95
35.0000	91.7161	-163.66
35.5000	91.7064	-164.29
36.0000	91.6848	-164.68
36.5000	91.6819	-164.89
37.0000	91.7154	-165.08
37.5000	91.7729	-165.49
38.2000	91.8162	-166.42
38.7000	91.7912	-167.04
39.5000	91.7381	-167.32
40.0000	91.7576	-167.26
40.6000	91.8233	-167.42
41.2000	91.8728	-167.87
41.8000	91.8869	-168.31
42.5000	91.8942	-168.64
43.1000	91.9105	-168.92
43.7000	91.9211	-169.25
44.4000	91.9260	-169.58
45.0000	91.9398	-169.86
45.5000	91.9522	-170.16
46.2000	91.9509	-170.56
46.8000	91.9542	-170.75
47.5000	91.9982	-171.04
48.2000	92.0257	-171.63
48.7000	92.0068	-171.97
49.4000	91.9943	-171.97
50.0000	92.0586	-171.97
50.8000	92.1423	-172.81
51.5000	92.0956	-173.52
52.2000	92.0421	-173.57
53.0000	92.0609	-173.63
53.8000	92.0592	-173.90
54.5000	92.0733	-173.94
55.2000	92.1293	-174.33
56.0000	92.1033	-175.15
57.0000	92.0215	-175.16
58.0000	92.0980	-175.35
59.0000	92.0687	-176.10
60.0000	92.0475	-176.04
60.8000	92.0925	-176.27
61.5000	92.0989	-176.68
62.2000	92.0847	-176.95
63.0000	92.0839	-177.18
64.0000	92.0750	-177.59
65.0000	92.0687	-177.84
66.0000	92.0786	-178.24
67.0000	92.0651	-178.58
68.0000	92.0766	-178.85
69.0000	92.0753	-179.22
70.0000	92.0751	-179.39
71.0000	92.0917	-179.70
72.0000	92.0840	-179.97
73.0000	92.0856	179.83
74.0000	92.0859	179.56
75.0000	92.0771	179.29
76.2000	92.0713	179.13
77.5000	92.0999	178.70
78.8000	92.0707	178.28
80.0000	92.0746	178.09
81.2000	92.0795	177.73
82.5000	92.0665	177.42
83.8000	92.0710	177.16
85.0000	92.0641	176.89
86.2000	92.0691	176.67
87.5000	92.0643	176.35
88.5000	92.0592	176.16
90.0000	92.0502	175.91
91.2000	92.0593	175.67
92.5000	92.0470	175.25
93.8000	92.0149	175.02
95.0000	92.0216	174.83
96.2000	92.0090	174.46
97.5000	92.0040	174.24
98.8000	92.0013	173.85
100.0000	91.9750	173.60
101.5000	91.9788	173.37
103.0000	91.9379	173.05
104.4000	91.9583	172.95
106.0000	91.9400	172.45
107.5000	91.9299	172.20
109.0000	91.9247	172.11
110.6000	91.9472	171.80
112.0000	91.9494	171.61
113.8000	91.9138	171.25
115.0000	91.8992	171.20
117.2000	91.9002	170.72
118.0000	91.8792	170.53
120.6000	91.8554	170.08
122.0000	91.8537	169.81
124.1000	91.8332	169.55
125.0000	91.8255	169.36
126.5000	91.8072	169.14
128.0000	91.7889	168.94
131.5000	91.7741	168.39
132.0000	91.7685	168.33
134.0000	91.7493	168.10
136.0000	91.7318	167.77
138.0000	91.7116	167.46
140.0000	91.6815	167.18
143.0000	91.6688	166.74
145.0000	91.6564	166.53
147.5000	91.6283	166.23
150.0000	91.5960	165.87
152.5000	91.5801	165.51
155.0000	91.5675	165.27
157.5000	91.5520	164.98
160.0000	91.5427	164.69
162.5000	91.5245	164.43
165.0000	91.5034	164.10
167.5000	91.4927	163.81
170.0000	91.4697	163.52
172.5000	91.4231	163.17
175.0000	91.4105	162.97
177.5000	91.3718	162.70
180.0000	91.3489	162.44
182.5000	91.3033	162.15
185.0000	91.2622	161.90
187.5000	91.2393	161.67
190.0000	91.2244	161.46
192.5000	91.1811	161.22
195.0000	91.1496	161.00
197.5000	91.1116	160.71
200.0000	91.0838	160.50
203.0000	91.0431	160.22
206.0000	91.0018	159.96
209.0000	90.9670	159.65
212.0000	90.9284	159.45
214.0000	90.9016	159.26
218.0000	90.8697	158.86
220.0000	90.8566	158.72
224.0000	90.8204	158.42
227.0000	90.7939	158.20
230.0000	90.7604	157.93
233.0000	90.7423	157.66
236.0000	90.7198	157.47
240.0000	90.6713	157.22
243.0000	90.6338	156.92
247.0000	90.5928	156.68
250.0000	90.5650	156.49
254.0000	90.5187	156.20
258.0000	90.4725	155.94
262.0000	90.4290	155.67
265.0000	90.3929	155.46
269.0000	90.3426	155.21
272.0000	90.3092	155.04
276.0000	90.2690	154.78
280.0000	90.2259	154.60
285.0000	90.1740	154.26
290.0000	90.1260	153.98
295.0000	90.0694	153.73
300.0000	90.0158	153.47
304.0000	89.9746	153.29
307.0000	89.9408	153.10
311.0000	89.8973	152.88
315.0000	89.8547	152.72
320.0000	89.7918	152.47
325.0000	89.7424	152.25
330.0000	89.6829	152.04
335.0000	89.6286	151.83
340.0000	89.5731	151.62
345.0000	89.5202	151.40
350.0000	89.4669	151.20
355.0000	89.4045	151.04
360.0000	89.3513	150.82
365.0000	89.2914	150.73
370.0000	89.2429	150.52
375.0000	89.1900	150.31
382.0000	89.1196	150.08
387.0000	89.0662	149.94
395.0000	88.9906	149.69
400.0000	88.9372	149.60
406.0000	88.8765	149.39
412.0000	88.8199	149.25
418.0000	88.7602	149.11
425.0000	88.6945	148.92
431.0000	88.6353	148.78
437.0000	88.5779	148.67
444.0000	88.5164	148.53
450.0000	88.4723	148.43
455.0000	88.4281	148.29
462.0000	88.3625	148.08
468.0000	88.3047	147.91
475.0000	88.2291	147.71
482.0000	88.1612	147.54
487.0000	88.1154	147.37
494.0000	88.0525	147.26
500.0000	88.0045	147.17
508.0000	87.9289	147.08
515.0000	87.8630	147.04
522.0000	87.7966	146.96
530.0000	87.7215	146.88
538.0000	87.6415	146.80
545.0000	87.5793	146.82
552.0000	87.5166	146.79
560.0000	87.4459	146.77
570.0000	87.3550	146.76
580.0000	87.2671	146.75
590.0000	87.1797	146.78
600.0000	87.0906	146.80
608.0000	87.0292	146.88
615.0000	86.9725	146.90
622.0000	86.9203	146.91
630.0000	86.8624	147.01
640.0000	86.7838	147.05
650.0000	86.7114	147.14
660.0000	86.6403	147.27
670.0000	86.5694	147.39
680.0000	86.5045	147.49
690.0000	86.4336	147.66
700.0000	86.3623	147.84
710.0000	86.2963	148.00
720.0000	86.2245	148.22
730.0000	86.1628	148.44
740.0000	86.1043	148.63
750.0000	86.0434	148.86
762.0000	85.9781	149.11
775.0000	85.8998	149.44
788.0000	85.8261	149.79
800.0000	85.7607	150.09
812.0000	85.6990	150.44
825.0000	85.6376	150.80
838.0000	85.5842	151.19
850.0000	85.5334	151.57
862.0000	85.4892	151.93
875.0000	85.4490	152.35
885.0000	85.4140	152.69
900.0000	85.3773	153.12
912.0000	85.3527	153.54
925.0000	85.3254	153.97
938.0000	85.3127	154.37
950.0000	85.2987	154.76
962.0000	85.2824	155.11
975.0000	85.2765	155.48
988.0000	85.2914	155.91
1000.0000	85.3584	156.40
1015.0000	85.2796	156.58
1030.0000	85.2671	156.93
1044.0000	85.2758	157.22
1060.0000	85.2908	157.51
1075.0000	85.2996	157.76
1090.0000	85.3261	158.03
1106.0000	85.3542	158.21
1120.0000	85.3848	158.32
1138.0000	85.4149	158.44
1150.0000	85.4409	158.53
1172.0000	85.4689	158.58
1180.0000	85.4828	158.61
1206.0000	85.5211	158.63
1220.0000	85.5351	158.64
1241.0000	85.5642	158.58
1250.0000	85.5761	158.55
1265.0000	85.5956	158.50
1280.0000	85.6068	158.43
1315.0000	85.6226	158.32
1320.0000	85.6233	158.30
1340.0000	85.6247	158.25
1360.0000	85.6209	158.19
1380.0000	85.6171	158.19
1400.0000	85.6103	158.22
1430.0000	85.5849	158.26
1450.0000	85.5770	158.36
1475.0000	85.5562	158.48
1500.0000	85.5437	158.67
1525.0000	85.5128	158.93
1550.0000	85.5016	159.21
1575.0000	85.4963	159.56
1600.0000	85.4863	159.93
1625.0000	85.4789	160.42
1650.0000	85.4877	160.89
1675.0000	85.5015	161.41
1700.0000	85.5074	161.97
1725.0000	85.5315	162.58
1750.0000	85.5615	163.16
1775.0000	85.6015	163.82
1800.0000	85.6397	164.51
1825.0000	85.6916	165.19
1850.0000	85.7584	165.91
1875.0000	85.8370	166.68
1900.0000	85.9293	167.39
1925.0000	86.0266	168.21
1950.0000	86.1390	168.93
1975.0000	86.2671	169.61
2000.0000	86.3628	169.98
2030.0000	86.6577	170.85
2060.0000	86.9094	171.26
2090.0000	87.1446	171.41
2120.0000	87.3857	171.38
2140.0000	87.5433	171.24
2180.0000	87.8515	170.60
2200.0000	87.9931	170.16
2240.0000	88.2464	168.80
2270.0000	88.3871	167.39
2300.0000	88.4933	165.73
2330.0000	88.5780	164.04
2360.0000	88.6042	162.28
2400.0000	88.5986	160.40
2430.0000	88.5775	159.33
2470.0000	88.4889	158.31
2500.0000	88.4176	157.80
2540.0000	88.3215	157.25
2580.0000	88.2021	156.96
2620.0000	88.1127	156.79
2650.0000	88.0333	156.87
2690.0000	87.9486	157.02
2720.0000	87.9180	157.19
2760.0000	87.8569	157.66
2800.0000	87.8320	157.88
2850.0000	87.8290	158.41
2900.0000	87.8046	158.65
2950.0000	87.8112	159.07
3000.0000	87.8386	159.75
3040.0000	87.9103	159.55
3070.0000	87.9062	159.58
3110.0000	87.9691	159.85
3150.0000	88.0425	159.67
3200.0000	88.0985	159.33
3250.0000	88.1224	159.08
3300.0000	88.1269	158.19
3350.0000	88.1561	157.79
3400.0000	88.1412	156.85
3450.0000	88.0817	155.98
3500.0000	87.9739	155.34
3550.0000	87.8056	154.26
3600.0000	87.6837	153.96
3650.0000	87.4712	153.26
3700.0000	87.2065	153.16
3750.0000	86.9571	153.55
3820.0000	86.5680	154.95
3870.0000	86.2323	156.02
3950.0000	85.9412	158.95
4000.0000	85.7487	160.77
4060.0000	85.5990	163.83
4120.0000	85.5527	166.50
4180.0000	85.5300	168.80
4250.0000	85.5719	171.71
4310.0000	85.6818	174.84
4370.0000	85.8292	177.05
4440.0000	85.9880	179.64
4500.0000	86.2661	-177.72
4550.0000	86.3629	-175.60
4620.0000	86.7950	-173.82
4680.0000	87.0135	-172.17
4750.0000	87.4035	-170.27
4820.0000	87.8690	-169.29
4870.0000	88.2883	-168.65
4940.0000	88.6591	-167.68
5000.0000	89.2011	-168.20
5080.0000	89.6697	-168.52
5150.0000	90.0085	-169.46
5220.0000	90.2670	-172.12
5300.0000	90.4770	-173.54
5380.0000	90.5960	-176.02
5450.0000	90.6396	-177.82
5520.0000	90.6457	-179.99
5600.0000	90.3973	179.37
5700.0000	90.2682	178.51
5800.0000	89.8927	178.31
5900.0000	89.6332	177.11
6000.0000	89.2360	178.35
6080.0000	89.0613	179.50
6150.0000	88.9517	-177.97
6220.0000	88.9181	-175.47
6300.0000	89.0405	-175.38
6400.0000	89.0602	-172.47
6500.0000	88.9256	-167.81
6600.0000	89.3370	-166.52
6700.0000	89.5146	-163.58
6800.0000	89.8714	-160.26
6900.0000	90.0124	-158.63
7000.0000	90.8682	-154.02
7100.0000	91.9237	-155.57
7200.0000	90.8961	-157.38
7300.0000	92.2169	-152.16
7400.0000	92.7714	-153.71
7500.0000	93.5002	-152.24
7620.0000	94.9619	-154.67
7750.0000	96.3000	-158.17
7880.0000	96.7526	-168.19
8000.0000	96.9799	-177.42
8120.0000	97.0882	175.48
8250.0000	95.8851	167.88
8380.0000	94.9117	164.11
8500.0000	94.4804	163.15
8620.0000	93.1158	167.30
8750.0000	92.4677	169.94
8850.0000	92.5644	168.68
9000.0000	92.0531	171.89
9120.0000	92.4746	-178.40
9250.0000	93.1328	-179.38
9380.0000	93.2503	171.38
9500.0000	93.5016	164.98
9620.0000	92.9831	169.94
9750.0000	92.6613	170.19
9880.0000	92.3248	166.51
10000.0000	92.9855	162.80
10150.0000	94.2014	164.38
10300.0000	94.8926	153.78
10440.0000	94.3850	143.66
10600.0000	94.1024	131.05
10750.0000	93.4134	111.57
10900.0000	91.2686	100.23
11060.0000	87.8130	96.75
11200.0000	85.5752	96.76
11380.0000	84.5513	95.96
11500.0000	83.2134	108.62
11720.0000	80.3023	110.59
11800.0000	81.0700	107.79
12060.0000	79.3425	120.88
12200.0000	77.1725	117.86
12410.0000	76.3707	120.85
12500.0000	75.1616	133.08
12650.0000	76.2190	142.74
12800.0000	75.9270	146.04
13150.0000	75.5462	160.64
13200.0000	73.9999	146.66
13400.0000	75.5495	160.11
13600.0000	73.2788	162.56
13800.0000	73.0758	171.53
14000.0000	75.3661	171.30
14300.0000	75.3124	-162.96
14500.0000	76.1277	-159.20
14750.0000	77.8027	176.08
15000.0000	78.5958	175.96
15250.0000	83.5299	174.65
15500.0000	83.2530	141.54
15750.0000	86.1648	118.07
16000.0000	82.5670	104.65
16250.0000	81.3657	71.80
16500.0000	76.6521	8.22
16750.0000	74.7784	20.20
17000.0000	69.6516	8.20
17250.0000	64.7564	-34.73
17500.0000	62.8299	3.34
17750.0000	59.7632	5.13
18000.0000	57.0770	-46.13
18250.0000	56.0993	6.87
18500.0000	57.3834	5.95
18750.0000	51.8304	-12.54
19000.0000	60.9911	-20.49
19250.0000	60.4796	-53.56
19500.0000	62.9086	-58.49
19750.0000	63.4032	-42.95
