* Measurement data measured by REW V5.20 Beta 47
* Source: Headset (USB-C to 3.5mm Headphone Jack Adapter), MICROPHONE (Master Volume), R, volume: 0.000
* Format: 256k Log Swept Sine, 1 sweep at 0.0 dBFS with no timing reference
* Dated: May 3, 2020 3:59:34 PM
* REW Settings:
*  C-weighting compensation: Off
*  Target level: 75.0 dB
* Note: ; 
* Measurement: Tin Hifi P1 L
* Smoothing: None
* Frequency Step: 1/48 octave
* Start Frequency: 20.300 Hz
*
* Freq(Hz)	SPL(dB)	Phase(degrees)
20.3000	82.6207	-125.52
20.6000	82.6880	-126.50
20.9000	82.7115	-127.16
21.2000	82.7495	-127.48
21.4000	82.8013	-127.58
21.8000	82.9655	-127.83
22.0000	83.0645	-128.14
22.4000	83.2396	-129.33
22.7000	83.2979	-130.54
23.0000	83.2738	-131.71
23.3000	83.1987	-132.48
23.6000	83.1276	-132.68
24.0000	83.1428	-132.13
24.3000	83.2849	-131.57
24.7000	83.6033	-131.35
25.0000	83.8423	-131.81
25.4000	84.0317	-133.00
25.8000	83.9966	-134.02
26.2000	83.7921	-134.07
26.5000	83.6318	-133.33
26.9000	83.5492	-131.82
27.2000	83.6350	-131.04
27.6000	83.9011	-131.30
28.0000	84.2016	-133.14
28.5000	84.4677	-136.39
29.0000	84.5843	-138.78
29.5000	84.6591	-139.34
30.0000	84.7961	-138.64
30.4000	84.9378	-138.08
30.7000	85.0249	-137.93
31.1000	85.0849	-138.15
31.5000	85.0934	-138.68
32.0000	85.1045	-139.53
32.5000	85.1942	-140.53
33.0000	85.3483	-141.61
33.5000	85.4909	-142.46
34.0000	85.5754	-142.65
34.5000	85.6324	-142.24
35.0000	85.6890	-141.83
35.5000	85.7231	-142.12
36.0000	85.6894	-143.16
36.5000	85.5972	-144.39
37.0000	85.5238	-145.18
37.5000	85.5422	-145.46
38.2000	85.6867	-145.68
38.7000	85.7781	-145.99
39.5000	85.8456	-146.48
40.0000	85.8927	-146.78
40.6000	85.9799	-147.30
41.2000	86.0721	-147.84
41.8000	86.1493	-148.21
42.5000	86.2020	-148.62
43.1000	86.1923	-149.11
43.7000	86.1596	-149.45
44.4000	86.2000	-149.52
45.0000	86.3293	-149.71
45.5000	86.4268	-150.20
46.2000	86.4374	-150.97
46.8000	86.3753	-151.16
47.5000	86.4062	-151.13
48.2000	86.5545	-151.90
48.7000	86.6300	-152.91
49.4000	86.6281	-153.87
50.0000	86.6073	-153.83
50.8000	86.6364	-153.45
51.5000	86.6331	-153.26
52.2000	86.6223	-153.19
53.0000	86.6462	-154.09
53.8000	86.5810	-155.71
54.5000	86.5486	-156.04
55.2000	86.7359	-155.69
56.0000	86.9849	-156.16
57.0000	86.9359	-156.87
58.0000	86.8445	-157.12
59.0000	86.8508	-158.10
60.0000	86.9109	-158.66
60.8000	86.9497	-158.85
61.5000	86.9728	-158.89
62.2000	87.0262	-159.18
63.0000	87.0645	-159.98
64.0000	87.0519	-160.60
65.0000	87.0881	-160.91
66.0000	87.0931	-161.37
67.0000	87.1234	-161.70
68.0000	87.1378	-162.19
69.0000	87.1458	-162.30
70.0000	87.1863	-162.84
71.0000	87.1431	-163.42
72.0000	87.1581	-163.37
73.0000	87.2206	-163.58
74.0000	87.2490	-163.95
75.0000	87.2745	-164.56
76.2000	87.2758	-164.99
77.5000	87.3018	-165.01
78.8000	87.2595	-165.67
80.0000	87.2785	-166.02
81.2000	87.3241	-166.49
82.5000	87.2776	-166.78
83.8000	87.3361	-167.82
85.0000	87.3402	-167.32
86.2000	87.3966	-167.64
87.5000	87.3244	-168.76
88.5000	87.3667	-168.75
90.0000	87.3302	-168.13
91.2000	87.2504	-169.03
92.5000	87.3209	-169.99
93.8000	87.2881	-170.42
95.0000	87.2979	-169.88
96.2000	87.3447	-170.40
97.5000	87.2984	-170.87
98.8000	87.2676	-171.20
100.0000	87.2970	-171.71
101.5000	87.3043	-171.88
103.0000	87.2841	-172.11
104.4000	87.2850	-172.56
106.0000	87.2951	-172.91
107.5000	87.2657	-173.09
109.0000	87.2649	-173.31
110.6000	87.2665	-173.72
112.0000	87.2608	-173.92
113.8000	87.2931	-174.56
115.0000	87.2461	-174.23
117.2000	87.2420	-174.60
118.0000	87.2021	-175.00
120.6000	87.2270	-175.22
122.0000	87.1786	-175.33
124.1000	87.1628	-175.88
125.0000	87.1749	-175.93
126.5000	87.1764	-176.39
128.0000	87.1437	-176.47
131.5000	87.0828	-177.00
132.0000	87.0694	-176.95
134.0000	87.0927	-177.04
136.0000	87.0499	-177.52
138.0000	87.0745	-177.37
140.0000	86.9416	-177.80
143.0000	86.9296	-178.09
145.0000	86.9581	-178.50
147.5000	86.8377	-178.08
150.0000	86.8471	-178.43
152.5000	86.8042	-178.65
155.0000	86.7689	-178.45
157.5000	86.7515	-178.33
160.0000	86.7374	-178.19
162.5000	86.7906	-178.13
165.0000	86.8192	-178.21
167.5000	86.9011	-178.47
170.0000	86.8911	-178.79
172.5000	86.8616	-179.09
175.0000	86.8591	-179.48
177.5000	86.8300	-179.70
180.0000	86.8133	179.92
182.5000	86.7614	179.84
185.0000	86.7344	179.66
187.5000	86.6777	179.54
190.0000	86.6704	179.48
192.5000	86.6290	179.27
195.0000	86.6180	179.15
197.5000	86.5717	179.06
200.0000	86.5378	178.86
203.0000	86.4987	178.83
206.0000	86.4629	178.74
209.0000	86.4421	178.55
212.0000	86.3949	178.60
214.0000	86.3680	178.38
218.0000	86.3295	178.54
220.0000	86.2986	178.32
224.0000	86.2660	178.31
227.0000	86.2464	178.28
230.0000	86.2158	178.35
233.0000	86.1797	178.42
236.0000	86.1808	178.39
240.0000	86.1265	178.65
243.0000	86.1107	178.64
247.0000	86.1157	179.34
250.0000	86.0764	179.05
254.0000	86.0883	179.35
258.0000	86.1370	179.28
262.0000	86.1316	179.25
265.0000	86.1289	178.94
269.0000	86.0970	178.79
272.0000	86.0795	178.67
276.0000	86.0468	178.69
280.0000	86.0202	178.62
285.0000	85.9792	178.62
290.0000	85.8889	178.80
295.0000	85.8961	178.67
300.0000	85.8491	178.64
304.0000	85.8386	178.84
307.0000	85.8287	178.76
311.0000	85.7850	178.77
315.0000	85.7804	178.83
320.0000	85.7341	178.92
325.0000	85.6888	179.02
330.0000	85.6789	179.19
335.0000	85.6407	179.41
340.0000	85.6001	179.55
345.0000	85.6093	179.62
350.0000	85.5745	179.82
355.0000	85.5549	-180.00
360.0000	85.5256	179.99
365.0000	85.5015	-179.77
370.0000	85.4835	-179.82
375.0000	85.4677	-179.66
382.0000	85.4338	-179.48
387.0000	85.4181	-179.39
395.0000	85.3865	-179.11
400.0000	85.3631	-178.94
406.0000	85.3377	-178.79
412.0000	85.3248	-178.65
418.0000	85.3103	-178.39
425.0000	85.2849	-178.21
431.0000	85.2679	-178.02
437.0000	85.2537	-177.82
444.0000	85.2446	-177.68
450.0000	85.2315	-177.37
455.0000	85.2248	-177.27
462.0000	85.2252	-177.08
468.0000	85.1983	-176.98
475.0000	85.1789	-176.79
482.0000	85.1626	-176.61
487.0000	85.1528	-176.50
494.0000	85.1563	-176.35
500.0000	85.1381	-176.21
508.0000	85.0611	-175.92
515.0000	85.1068	-175.49
522.0000	85.0915	-175.36
530.0000	85.0896	-175.09
538.0000	85.0621	-174.84
545.0000	85.0550	-174.55
552.0000	85.0507	-174.32
560.0000	85.0434	-173.97
570.0000	85.0259	-173.65
580.0000	85.0177	-173.25
590.0000	85.0124	-172.90
600.0000	85.0016	-172.52
608.0000	84.9943	-172.20
615.0000	85.0023	-171.93
622.0000	85.0007	-171.68
630.0000	85.0075	-171.36
640.0000	85.0017	-171.01
650.0000	85.0136	-170.62
660.0000	85.0215	-170.22
670.0000	85.0184	-169.89
680.0000	85.0275	-169.40
690.0000	85.0330	-169.07
700.0000	85.0316	-168.64
710.0000	85.0424	-168.25
720.0000	85.0503	-167.83
730.0000	85.0621	-167.43
740.0000	85.0817	-167.02
750.0000	85.0915	-166.63
762.0000	85.1099	-166.16
775.0000	85.1214	-165.62
788.0000	85.1444	-165.04
800.0000	85.1673	-164.61
812.0000	85.1873	-164.10
825.0000	85.2210	-163.57
838.0000	85.2470	-163.03
850.0000	85.2767	-162.56
862.0000	85.3186	-162.04
875.0000	85.3608	-161.58
885.0000	85.3900	-161.18
900.0000	85.4518	-160.62
912.0000	85.4995	-160.11
925.0000	85.5568	-159.70
938.0000	85.6199	-159.19
950.0000	85.6689	-158.86
962.0000	85.7274	-158.48
975.0000	85.7975	-158.04
988.0000	85.8852	-157.57
1000.0000	85.9969	-157.15
1015.0000	86.0145	-156.96
1030.0000	86.0693	-156.62
1044.0000	86.1437	-156.37
1060.0000	86.2346	-156.12
1075.0000	86.3170	-155.82
1090.0000	86.4083	-155.62
1106.0000	86.5046	-155.53
1120.0000	86.5962	-155.38
1138.0000	86.7008	-155.29
1150.0000	86.7686	-155.28
1172.0000	86.8940	-155.26
1180.0000	86.9395	-155.24
1206.0000	87.0780	-155.32
1220.0000	87.1471	-155.34
1241.0000	87.2644	-155.50
1250.0000	87.3064	-155.57
1265.0000	87.3904	-155.66
1280.0000	87.4561	-155.81
1315.0000	87.6076	-156.13
1320.0000	87.6192	-156.17
1340.0000	87.7000	-156.28
1360.0000	87.7784	-156.61
1380.0000	87.8503	-156.75
1400.0000	87.9170	-156.91
1430.0000	88.0021	-157.17
1450.0000	88.0720	-157.39
1475.0000	88.1340	-157.71
1500.0000	88.2031	-157.82
1525.0000	88.2494	-158.05
1550.0000	88.3181	-158.30
1575.0000	88.3755	-158.49
1600.0000	88.4296	-158.65
1625.0000	88.4785	-158.84
1650.0000	88.5275	-159.07
1675.0000	88.5797	-159.20
1700.0000	88.6223	-159.35
1725.0000	88.6693	-159.49
1750.0000	88.7114	-159.64
1775.0000	88.7445	-159.83
1800.0000	88.7918	-159.91
1825.0000	88.8370	-160.13
1850.0000	88.8789	-160.26
1875.0000	88.9058	-160.35
1900.0000	88.9339	-160.47
1925.0000	88.9783	-160.59
1950.0000	88.9965	-160.81
1975.0000	89.0211	-160.97
2000.0000	88.9809	-161.35
2030.0000	89.0756	-161.17
2060.0000	89.1116	-161.21
2090.0000	89.1510	-161.39
2120.0000	89.1766	-161.55
2140.0000	89.1822	-161.64
2180.0000	89.2198	-161.79
2200.0000	89.2346	-161.90
2240.0000	89.2605	-162.25
2270.0000	89.2664	-162.73
2300.0000	89.2728	-163.44
2330.0000	89.2946	-164.11
2360.0000	89.2929	-164.78
2400.0000	89.2936	-165.41
2430.0000	89.3043	-165.69
2470.0000	89.3110	-165.93
2500.0000	89.3058	-166.04
2540.0000	89.2904	-166.26
2580.0000	89.2757	-166.50
2620.0000	89.2574	-166.73
2650.0000	89.2477	-166.86
2690.0000	89.2185	-167.07
2720.0000	89.1969	-167.24
2760.0000	89.1597	-167.42
2800.0000	89.1123	-167.59
2850.0000	89.0445	-167.77
2900.0000	88.9781	-167.86
2950.0000	88.8962	-167.95
3000.0000	88.8165	-167.68
3040.0000	88.7437	-167.98
3070.0000	88.6940	-167.97
3110.0000	88.6211	-167.90
3150.0000	88.5488	-167.70
3200.0000	88.4592	-167.42
3250.0000	88.3889	-167.04
3300.0000	88.3161	-166.63
3350.0000	88.2694	-166.12
3400.0000	88.2185	-165.60
3450.0000	88.2142	-164.93
3500.0000	88.2001	-164.46
3550.0000	88.2501	-163.78
3600.0000	88.2909	-163.26
3650.0000	88.3390	-162.73
3700.0000	88.3877	-162.39
3750.0000	88.4839	-162.03
3820.0000	88.5626	-161.44
3870.0000	88.6391	-161.24
3950.0000	88.7592	-161.10
4000.0000	88.7394	-161.25
4060.0000	88.9063	-160.67
4120.0000	88.9955	-160.75
4180.0000	89.0712	-160.54
4250.0000	89.1361	-160.98
4310.0000	89.2216	-160.39
4370.0000	89.3469	-160.41
4440.0000	89.4443	-160.92
4500.0000	89.7049	-160.50
4550.0000	89.7599	-160.59
4620.0000	90.0064	-161.83
4680.0000	90.1754	-163.21
4750.0000	90.3042	-163.86
4820.0000	90.4119	-165.16
4870.0000	90.4145	-166.76
4940.0000	90.6242	-168.17
5000.0000	90.6384	-169.31
5080.0000	90.5377	-171.80
5150.0000	90.5433	-173.82
5220.0000	90.3254	-174.20
5300.0000	90.0331	-176.48
5380.0000	89.7094	-174.04
5450.0000	89.7709	-172.39
5520.0000	90.3389	-173.00
5600.0000	90.3423	-175.04
5700.0000	90.4514	-178.43
5800.0000	90.2998	178.42
5900.0000	89.9273	177.63
6000.0000	89.6824	175.39
6080.0000	89.4252	175.24
6150.0000	89.0148	175.17
6220.0000	89.0286	173.23
6300.0000	88.6760	172.69
6400.0000	88.6449	172.28
6500.0000	88.1617	172.94
6600.0000	87.9570	173.08
6700.0000	88.0070	172.00
6800.0000	87.7595	173.99
6900.0000	87.8613	174.28
7000.0000	88.0517	172.00
7100.0000	88.4674	171.98
7200.0000	89.0044	165.68
7300.0000	88.1168	153.43
7400.0000	84.9909	148.23
7500.0000	83.5667	165.92
7620.0000	84.2379	174.77
7750.0000	84.3369	178.59
7880.0000	85.1860	-177.45
8000.0000	85.6686	-173.48
8120.0000	85.8536	-175.30
8250.0000	86.3358	-171.73
8380.0000	86.7646	-172.98
8500.0000	87.8815	-176.27
8620.0000	88.5395	179.13
8750.0000	89.1339	173.84
8850.0000	89.2706	166.62
9000.0000	87.9989	154.45
9120.0000	84.7336	150.69
9250.0000	88.4071	161.22
9380.0000	87.8850	138.69
9500.0000	86.3939	128.87
9620.0000	84.6356	129.24
9750.0000	82.8662	122.73
9880.0000	81.2914	124.94
10000.0000	80.4848	129.42
10150.0000	78.6969	135.67
10300.0000	78.2662	140.33
10440.0000	77.8894	132.93
10600.0000	75.6426	144.29
10750.0000	75.8234	153.37
10900.0000	74.9782	154.19
11060.0000	74.0936	162.24
11200.0000	75.8839	172.38
11380.0000	77.0609	179.01
11500.0000	78.7210	174.19
11720.0000	79.9772	152.79
11800.0000	80.0662	148.76
12060.0000	76.9389	137.77
12200.0000	73.8729	152.78
12410.0000	74.6723	151.90
12500.0000	75.9084	163.48
12650.0000	75.6176	156.71
12800.0000	75.5768	159.03
13150.0000	77.1667	171.33
13200.0000	78.5507	162.43
13400.0000	81.9659	145.62
13600.0000	76.6883	121.84
13800.0000	71.3552	172.53
14000.0000	74.9206	179.09
14300.0000	81.5094	-178.62
14500.0000	84.7162	-174.99
14750.0000	81.7850	169.93
15000.0000	88.4431	158.87
15250.0000	91.8273	153.39
15500.0000	91.5902	100.39
15750.0000	89.2569	89.01
16000.0000	90.2869	80.14
16250.0000	85.3744	71.17
16500.0000	86.7420	58.33
16750.0000	88.3866	24.41
17000.0000	84.9345	-1.62
17250.0000	89.0534	16.12
17500.0000	85.4334	6.10
17750.0000	87.3736	-23.66
18000.0000	96.4262	-77.99
18250.0000	90.8219	-149.98
18500.0000	91.6006	164.86
18750.0000	82.1158	-169.04
19000.0000	86.6617	179.86
19250.0000	85.4707	159.09
19500.0000	86.3369	48.05
19750.0000	74.2239	12.25
