* Measurement data measured by REW V5.20 Beta 60
* Source: Headset (USB-C to 3.5mm Headphone Jack Adapter), MICROPHONE (Master Volume), R, volume: 0.000
* Format: 256k Log Swept Sine, 1 sweep at -12.0 dBFS with no timing reference
* Dated: Dec 12, 2020 5:48:29 PM
* REW Settings:
*  C-weighting compensation: Off
*  Target level: 75.0 dB
* Note: ; 
* Measurement: Tin Hifi P2 R
* Smoothing: None
* Frequency Step: 1/48 octave
* Start Frequency: 20.000 Hz
*
* Freq(Hz)	SPL(dB)	Phase(degrees)
20.000000	90.365936	-158.9788
20.299999	90.395485	-159.3186
20.600000	90.423828	-159.6193
20.900000	90.455696	-159.8562
21.200001	90.504036	-160.0710
21.400000	90.545364	-160.2441
21.799999	90.639938	-160.7405
22.000000	90.685867	-161.0961
22.400000	90.755341	-162.0332
22.700001	90.769028	-162.7982
23.000000	90.746994	-163.4721
23.299999	90.703903	-163.9541
23.600000	90.655609	-164.1956
24.000000	90.611801	-164.1938
24.299999	90.610649	-164.0847
24.700001	90.649536	-163.9826
25.000000	90.695923	-164.0301
25.400000	90.762619	-164.2970
25.799999	90.814346	-164.7135
26.200001	90.846115	-165.2036
26.500000	90.857956	-165.5769
26.900000	90.858963	-166.0191
27.200001	90.854889	-166.2916
27.600000	90.853500	-166.5697
28.000000	90.864479	-166.7984
28.500000	90.901421	-167.1772
29.000000	90.941170	-167.7567
29.500000	90.958435	-168.4775
30.000000	90.946114	-169.1222
30.400000	90.933647	-169.5225
30.700001	90.930084	-169.7725
31.100000	90.934006	-170.1244
31.500000	90.938087	-170.5463
32.000000	90.922592	-171.0880
32.500000	90.887962	-171.4834
33.000000	90.860664	-171.6488
33.500000	90.861084	-171.7411
34.000000	90.876633	-171.9338
34.500000	90.886177	-172.2347
35.000000	90.879456	-172.4926
35.500000	90.875916	-172.6525
36.000000	90.887756	-172.8235
36.500000	90.900787	-173.1432
37.000000	90.891266	-173.5338
37.500000	90.862679	-173.8145
38.200001	90.843475	-173.9418
38.700001	90.865494	-174.1051
39.500000	90.888748	-174.8087
40.000000	90.857788	-175.2367
40.599998	90.807938	-175.4314
41.200001	90.803162	-175.4316
41.799999	90.832092	-175.6106
42.500000	90.842010	-176.0218
43.099998	90.833847	-176.2726
43.700001	90.839935	-176.4989
44.400002	90.838768	-176.9283
45.000000	90.805565	-177.2477
45.500000	90.779449	-177.3440
46.200001	90.776711	-177.4458
46.799999	90.776657	-177.7467
47.500000	90.735718	-178.0882
48.200001	90.694313	-178.1084
48.700001	90.695831	-178.0953
49.400002	90.713951	-178.3204
50.000000	90.701355	-178.6414
50.799999	90.661270	-178.9514
51.500000	90.635605	-179.0810
52.200001	90.617096	-179.2458
53.000000	90.593437	-179.4702
53.799999	90.570282	-179.7105
54.500000	90.546059	-179.9523
55.200001	90.520622	179.8086
56.000000	90.490395	179.5334
57.000000	90.444016	179.2643
58.000000	90.420036	179.1238
59.000000	90.404305	178.8691
60.000000	90.377342	178.6830
60.799999	90.355629	178.5436
61.500000	90.332573	178.4114
62.200001	90.305840	178.3066
63.000000	90.278862	178.2007
64.000000	90.246033	177.9851
65.000000	90.201767	177.7701
66.000000	90.163544	177.6185
67.000000	90.132584	177.4479
68.000000	90.109665	177.3026
69.000000	90.081406	177.0532
70.000000	90.029510	177.0317
71.000000	90.027565	177.0035
72.000000	89.987579	176.6755
73.000000	89.928795	176.6707
74.000000	89.908699	176.5924
75.000000	89.868256	176.4445
76.199997	89.839531	176.4024
77.500000	89.810104	176.2286
78.800003	89.770233	176.1734
80.000000	89.741783	176.0761
81.199997	89.691704	175.9889
82.500000	89.645210	175.9274
83.800003	89.598434	175.8738
85.000000	89.559036	175.7782
86.199997	89.514954	175.8520
87.500000	89.503860	175.7917
88.500000	89.458954	175.6320
90.000000	89.381111	175.6962
91.199997	89.327225	175.7150
92.500000	89.291672	175.7893
93.800003	89.248009	175.5246
95.000000	89.201797	175.6601
96.199997	89.190575	175.4554
97.500000	89.115807	175.6197
98.800003	89.115326	175.7000
100.000000	89.062019	175.5096
101.500000	88.945816	175.5848
103.000000	88.934258	175.6827
104.400002	88.850517	175.3382
106.000000	88.820816	175.5287
107.500000	88.788177	175.5706
109.000000	88.770554	175.7437
110.599998	88.728683	175.9456
112.000000	88.648895	176.1452
113.800003	88.598030	176.2485
115.000000	88.563225	176.2507
117.199997	88.501419	176.3170
118.000000	88.486679	176.0538
120.599998	88.397682	176.4152
122.000000	88.399727	176.9457
124.099998	88.341553	176.7471
125.000000	88.266563	176.3447
126.500000	88.150146	177.2606
128.000000	88.124191	176.9444
131.500000	87.996948	177.4888
132.000000	88.030197	177.6947
134.000000	87.941551	177.4979
136.000000	87.945244	177.5829
138.000000	87.857681	178.1817
140.000000	87.764145	178.0905
143.000000	87.712006	178.4483
145.000000	87.649788	178.5980
147.500000	87.586037	178.9804
150.000000	87.528282	179.0699
152.500000	87.474686	179.5881
155.000000	87.412743	179.9156
157.500000	87.350151	-179.9349
160.000000	87.294518	-179.5033
162.500000	87.235016	-179.1553
165.000000	87.170540	-178.7729
167.500000	87.123474	-178.3585
170.000000	87.057838	-178.0204
172.500000	86.970894	-177.7081
175.000000	86.952911	-177.3102
177.500000	86.869164	-177.0676
180.000000	86.830795	-176.6303
182.500000	86.773476	-176.3402
185.000000	86.692825	-176.0753
187.500000	86.653297	-175.5630
190.000000	86.572533	-174.9778
192.500000	86.484428	-174.3070
195.000000	86.444855	-174.1835
197.500000	86.381149	-173.8996
200.000000	86.308563	-173.5959
203.000000	86.267776	-173.0878
206.000000	86.197723	-172.4429
209.000000	86.112701	-171.9924
212.000000	86.052460	-171.4502
214.000000	86.031502	-171.1151
218.000000	85.972893	-170.3869
220.000000	85.928078	-170.0059
224.000000	85.841202	-169.5109
227.000000	85.818825	-168.7788
230.000000	85.808098	-168.0733
233.000000	85.723206	-167.7006
236.000000	85.763626	-167.6561
240.000000	85.571671	-166.9165
243.000000	85.368881	-165.1547
247.000000	85.480690	-164.2920
250.000000	85.375229	-165.5472
254.000000	85.437943	-164.3841
258.000000	85.347855	-163.8292
262.000000	85.239929	-162.7458
265.000000	85.186356	-162.2576
269.000000	85.147560	-160.7049
272.000000	85.191544	-160.4855
276.000000	85.069595	-160.3418
280.000000	85.060608	-159.4845
285.000000	85.028915	-158.5411
290.000000	84.931419	-157.4223
295.000000	84.910049	-156.6767
300.000000	84.815742	-155.0641
304.000000	84.770576	-154.8133
307.000000	84.715530	-154.0977
311.000000	84.707802	-153.3309
315.000000	84.644478	-152.6309
320.000000	84.562515	-151.7654
325.000000	84.528946	-150.7046
330.000000	84.472702	-149.8096
335.000000	84.415718	-148.9791
340.000000	84.380615	-148.0901
345.000000	84.345894	-146.9320
350.000000	84.306244	-145.9135
355.000000	84.267128	-144.7006
360.000000	84.188370	-143.8700
365.000000	84.173805	-142.9538
370.000000	84.123428	-141.1076
375.000000	84.092636	-141.0524
382.000000	84.077080	-140.5321
387.000000	84.123932	-139.1089
395.000000	83.825829	-137.1233
400.000000	83.887360	-135.0636
406.000000	84.044113	-134.3608
412.000000	83.817131	-134.7473
418.000000	83.742126	-133.8079
425.000000	83.788788	-131.4953
431.000000	83.794815	-130.4536
437.000000	83.721664	-129.5139
444.000000	83.671715	-128.1339
450.000000	83.662338	-127.0412
455.000000	83.719788	-126.2988
462.000000	83.622383	-125.2411
468.000000	83.520439	-123.9093
475.000000	83.507492	-122.8008
482.000000	83.311241	-121.8097
487.000000	83.567184	-121.1391
494.000000	83.549118	-118.3799
500.000000	83.715652	-117.9629
508.000000	83.465012	-114.5154
515.000000	83.607506	-117.4468
522.000000	83.113480	-112.7003
530.000000	83.445343	-113.3135
538.000000	83.398117	-112.1292
545.000000	83.189415	-109.4995
552.000000	83.475296	-108.3914
560.000000	83.214432	-106.9737
570.000000	83.328354	-105.2143
580.000000	83.269867	-103.5483
590.000000	83.284843	-101.5811
600.000000	83.219994	-100.0464
608.000000	83.181396	-98.3802
615.000000	83.218208	-97.2569
622.000000	83.221756	-96.0380
630.000000	83.223511	-94.3014
640.000000	83.243011	-93.0382
650.000000	83.171692	-90.8845
660.000000	83.155144	-88.6396
670.000000	83.285431	-87.0606
680.000000	83.234879	-85.7742
690.000000	83.219803	-83.8311
700.000000	83.200409	-81.7546
710.000000	83.223000	-80.0232
720.000000	83.229134	-78.3298
730.000000	83.245926	-76.4553
740.000000	83.259773	-74.8552
750.000000	83.234169	-72.9823
762.000000	83.259552	-70.8915
775.000000	83.297928	-68.6564
788.000000	83.322083	-66.2659
800.000000	83.327957	-64.1212
812.000000	83.366623	-62.1238
825.000000	83.358711	-59.7957
838.000000	83.412811	-57.6659
850.000000	83.475983	-55.3661
862.000000	83.494781	-53.3463
875.000000	83.546761	-51.1019
885.000000	83.584511	-49.4200
900.000000	83.644478	-46.8386
912.000000	83.680000	-44.6757
925.000000	83.745216	-42.5295
938.000000	83.811768	-40.3805
950.000000	83.876205	-38.4002
962.000000	83.944336	-36.5055
975.000000	84.012329	-34.3417
988.000000	84.105286	-32.2891
1000.000000	84.234741	-30.2971
1015.000000	84.245316	-28.1012
1030.000000	84.327324	-25.8256
1044.000000	84.417282	-23.7939
1060.000000	84.521469	-21.6078
1075.000000	84.613304	-19.3832
1090.000000	84.725937	-17.2888
1106.000000	84.858513	-15.1988
1120.000000	84.947510	-13.3719
1138.000000	85.092484	-11.1076
1150.000000	85.157928	-9.6853
1172.000000	85.326469	-6.9935
1180.000000	85.378189	-6.1228
1206.000000	85.531967	-3.1554
1220.000000	85.624619	-1.5448
1241.000000	85.780907	0.6684
1250.000000	85.822250	1.5592
1265.000000	85.892227	3.1780
1280.000000	85.973839	4.7415
1315.000000	86.136879	8.2584
1320.000000	86.147842	8.7552
1340.000000	86.252281	10.7864
1360.000000	86.301636	12.6275
1380.000000	86.362343	14.6789
1400.000000	86.411255	16.5894
1430.000000	86.478928	19.5439
1450.000000	86.508759	21.4862
1475.000000	86.518974	23.9559
1500.000000	86.530800	26.4356
1525.000000	86.520798	29.0427
1550.000000	86.513000	31.6585
1575.000000	86.485817	34.2762
1600.000000	86.470039	37.0875
1625.000000	86.438065	39.9210
1650.000000	86.401588	42.9219
1675.000000	86.370697	45.9051
1700.000000	86.341217	49.0308
1725.000000	86.310593	52.2332
1750.000000	86.297058	55.4902
1775.000000	86.288162	58.7997
1800.000000	86.292175	62.1780
1825.000000	86.309418	65.5079
1850.000000	86.331764	68.8336
1875.000000	86.370293	72.2337
1900.000000	86.418777	75.5915
1925.000000	86.469612	78.8650
1950.000000	86.529976	82.1258
1975.000000	86.579727	85.3038
2000.000000	86.585709	88.1782
2030.000000	86.747528	92.2360
2060.000000	86.845955	95.9580
2090.000000	86.932564	99.5409
2120.000000	87.023293	103.0233
2140.000000	87.078751	105.3719
2180.000000	87.184151	109.9103
2200.000000	87.236542	112.1488
2240.000000	87.336136	116.3512
2270.000000	87.389191	119.2419
2300.000000	87.436676	121.9535
2330.000000	87.481781	124.6068
2360.000000	87.512749	127.2682
2400.000000	87.543594	130.9964
2430.000000	87.575500	134.0661
2470.000000	87.588966	138.2642
2500.000000	87.593460	141.4417
2540.000000	87.583794	145.6549
2580.000000	87.564140	149.8944
2620.000000	87.541908	154.1677
2650.000000	87.533127	157.3883
2690.000000	87.496429	161.7396
2720.000000	87.473068	164.9807
2760.000000	87.436615	169.3830
2800.000000	87.381721	173.8030
2850.000000	87.318237	179.3499
2900.000000	87.257210	-175.0708
2950.000000	87.199310	-169.4464
3000.000000	87.131538	-163.3672
3040.000000	87.088684	-159.1175
3070.000000	87.059448	-155.6910
3110.000000	87.018791	-151.0994
3150.000000	86.978760	-146.5044
3200.000000	86.943481	-140.7021
3250.000000	86.908295	-134.9250
3300.000000	86.884178	-129.1875
3350.000000	86.869293	-123.4204
3400.000000	86.856857	-117.6845
3450.000000	86.871468	-111.9977
3500.000000	86.894501	-106.2953
3550.000000	86.938919	-100.7099
3600.000000	86.988327	-95.1778
3650.000000	87.043159	-89.7364
3700.000000	87.110992	-84.4384
3750.000000	87.185234	-79.3474
3820.000000	87.286049	-72.5725
3870.000000	87.334648	-68.2812
3950.000000	87.254395	-62.2478
4000.000000	87.005661	-58.7512
4060.000000	86.568619	-53.2551
4120.000000	86.067741	-46.2219
4180.000000	85.700333	-37.8766
4250.000000	85.499863	-27.5764
4310.000000	85.458107	-19.1205
4370.000000	85.497581	-11.0082
4440.000000	85.600388	-2.0422
4500.000000	85.718758	5.1638
4550.000000	85.809677	10.8778
4620.000000	85.906029	18.4351
4680.000000	85.960533	24.6718
4750.000000	85.959656	31.7761
4820.000000	85.884438	38.9249
4870.000000	85.794937	44.2987
4940.000000	85.647377	52.5239
5000.000000	85.658150	59.8876
5080.000000	85.804077	69.1582
5150.000000	85.878456	76.3151
5220.000000	85.862686	83.1292
5300.000000	85.754166	91.0493
5380.000000	85.570221	99.4885
5450.000000	85.394241	107.2434
5520.000000	85.175201	115.4832
5600.000000	84.973167	125.2454
5700.000000	84.838562	137.6195
5800.000000	84.740189	149.7584
5900.000000	84.653908	161.8304
6000.000000	84.545486	173.9091
6080.000000	84.455750	-176.2478
6150.000000	84.401176	-167.4060
6220.000000	84.345642	-158.3467
6300.000000	84.320122	-147.6558
6400.000000	84.336479	-133.5986
6500.000000	84.455261	-118.9537
6600.000000	84.769821	-103.4580
6700.000000	85.380783	-87.3364
6800.000000	86.394699	-71.3588
6900.000000	87.966171	-56.1501
7000.000000	90.427864	-44.9618
7100.000000	93.252739	-44.9465
7200.000000	94.271492	-57.1851
7300.000000	92.942657	-62.5285
7400.000000	91.628952	-57.4673
7500.000000	90.892677	-48.5109
7620.000000	90.566002	-37.2622
7750.000000	90.590958	-26.7380
7880.000000	90.620461	-19.0781
8000.000000	90.396965	-14.5839
8120.000000	89.667816	-11.0546
8250.000000	88.153267	-6.8317
8380.000000	85.832054	2.7812
8500.000000	83.940132	15.2219
8620.000000	81.384155	37.8010
8750.000000	81.763344	59.1392
8850.000000	80.719620	67.7070
9000.000000	77.594955	104.6868
9120.000000	80.050674	127.9508
9250.000000	80.342743	141.2374
9380.000000	80.210342	157.9326
9500.000000	80.202026	174.7583
9620.000000	80.414421	-167.9119
9750.000000	80.918945	-149.8201
9880.000000	81.852753	-134.5170
10000.000000	81.583122	-126.9700
10150.000000	82.123825	-96.0455
10300.000000	85.319382	-87.6659
10440.000000	83.330338	-92.3909
10600.000000	81.942886	-62.0396
10750.000000	83.227562	-38.7454
10900.000000	84.719749	-24.8990
11060.000000	85.500023	-16.1896
11200.000000	85.411484	-5.7035
11380.000000	85.413757	10.0861
11500.000000	85.566681	21.1960
11720.000000	86.133362	38.9210
11800.000000	86.199562	44.4789
12060.000000	86.087830	62.0721
12200.000000	85.699234	72.5732
12410.000000	85.122589	91.2057
12500.000000	84.941124	100.1479
12650.000000	84.844139	115.7617
12800.000000	85.245224	132.1414
13150.000000	84.876900	136.4568
13200.000000	83.248215	146.3672
13400.000000	84.879936	-179.9871
13600.000000	86.399010	172.2601
13800.000000	76.040474	-166.9260
14000.000000	77.044785	-101.7688
14300.000000	80.223724	-55.6326
14500.000000	82.026855	-31.5020
14750.000000	84.265564	-4.4786
15000.000000	86.702522	18.6859
15250.000000	89.415955	35.8984
15500.000000	91.363686	41.3655
15750.000000	92.889305	53.4872
16000.000000	95.399101	58.0150
16250.000000	91.516991	29.2482
16500.000000	85.442520	64.1340
16750.000000	87.699554	108.2540
17000.000000	87.879753	111.1587
17250.000000	87.992599	140.6306
17500.000000	89.319328	161.1996
17750.000000	91.071594	170.9633
18000.000000	92.349991	166.8810
18250.000000	92.844528	155.6735
18500.000000	90.635239	127.8604
18750.000000	80.582886	162.1637
19000.000000	84.054047	-164.1681
19250.000000	86.322571	-154.2227
19500.000000	87.964996	-167.8499
19750.000000	82.923668	170.7288
