* Measurement data measured by REW V5.20 Beta 47
* Source: Headset (USB-C to 3.5mm Headphone Jack Adapter), MICROPHONE (Master Volume), L, volume: 0.000
* Format: 256k Log Swept Sine, 1 sweep at -3.0 dBFS with no timing reference
* Dated: Jul 1, 2020 1:14:02 PM
* REW Settings:
*  C-weighting compensation: Off
*  Target level: 75.0 dB
* Note: ; 
* Measurement: Tin Hifi T2+ L
* Smoothing: None
* Frequency Step: 1/48 octave
* Start Frequency: 20.000 Hz
*
* Freq(Hz)	SPL(dB)	Phase(degrees)
20.0000	87.8091	-153.07
20.3000	87.8812	-153.73
20.6000	87.9311	-154.46
20.9000	87.9569	-155.17
21.2000	87.9694	-155.79
21.4000	87.9748	-156.15
21.8000	87.9885	-156.74
22.0000	88.0011	-157.01
22.4000	88.0413	-157.61
22.7000	88.0721	-158.10
23.0000	88.0948	-158.63
23.3000	88.1087	-159.15
23.6000	88.1143	-159.60
24.0000	88.1190	-160.05
24.3000	88.1323	-160.30
24.7000	88.1693	-160.60
25.0000	88.2072	-160.87
25.4000	88.2605	-161.32
25.8000	88.2980	-161.81
26.2000	88.3177	-162.26
26.5000	88.3282	-162.51
26.9000	88.3459	-162.73
27.2000	88.3689	-162.86
27.6000	88.4123	-163.07
28.0000	88.4552	-163.38
28.5000	88.4905	-163.89
29.0000	88.4990	-164.37
29.5000	88.4993	-164.74
30.0000	88.5054	-165.04
30.4000	88.5177	-165.31
30.7000	88.5270	-165.54
31.1000	88.5374	-165.86
31.5000	88.5479	-166.18
32.0000	88.5670	-166.57
32.5000	88.6008	-167.01
33.0000	88.6389	-167.56
33.5000	88.6640	-168.21
34.0000	88.6662	-168.84
34.5000	88.6609	-169.31
35.0000	88.6620	-169.62
35.5000	88.6808	-169.86
36.0000	88.7111	-170.11
36.5000	88.7411	-170.41
37.0000	88.7609	-170.74
37.5000	88.7688	-171.05
38.2000	88.7638	-171.33
38.7000	88.7670	-171.43
39.5000	88.8072	-171.72
40.0000	88.8236	-172.12
40.6000	88.8022	-172.65
41.2000	88.7671	-172.94
41.8000	88.7669	-173.15
42.5000	88.7885	-173.64
43.1000	88.7834	-174.16
43.7000	88.7784	-174.56
44.4000	88.7880	-175.09
45.0000	88.7625	-175.59
45.5000	88.7235	-175.68
46.2000	88.7505	-175.33
46.8000	88.8683	-175.49
47.5000	88.9239	-176.56
48.2000	88.8087	-177.19
48.7000	88.7375	-176.89
49.4000	88.7888	-176.36
50.0000	88.8728	-176.66
50.8000	88.8647	-177.57
51.5000	88.8045	-177.89
52.2000	88.7878	-178.06
53.0000	88.7740	-178.48
53.8000	88.7443	-178.78
54.5000	88.7447	-178.97
55.2000	88.7558	-179.29
56.0000	88.7487	-179.66
57.0000	88.7471	-179.94
58.0000	88.7526	179.67
59.0000	88.7236	179.36
60.0000	88.7159	179.17
60.8000	88.6963	178.89
61.5000	88.6739	178.77
62.2000	88.6796	178.64
63.0000	88.6792	178.20
64.0000	88.6225	177.83
65.0000	88.6250	177.76
66.0000	88.6389	177.31
67.0000	88.6182	176.95
68.0000	88.6093	176.71
69.0000	88.6104	176.42
70.0000	88.5854	176.07
71.0000	88.5535	175.98
72.0000	88.5654	175.83
73.0000	88.5546	175.46
74.0000	88.5340	175.26
75.0000	88.5270	174.98
76.2000	88.4953	174.70
77.5000	88.4936	174.45
78.8000	88.4657	174.09
80.0000	88.4569	173.86
81.2000	88.4274	173.56
82.5000	88.4221	173.41
83.8000	88.4055	173.05
85.0000	88.3931	172.86
86.2000	88.3656	172.57
87.5000	88.3473	172.39
88.5000	88.3190	172.17
90.0000	88.3165	172.08
91.2000	88.3016	171.62
92.5000	88.2596	171.46
93.8000	88.2573	171.32
95.0000	88.2533	170.93
96.2000	88.1924	170.66
97.5000	88.1734	170.65
98.8000	88.1455	170.39
100.0000	88.1411	170.32
101.5000	88.1060	169.77
103.0000	88.0648	169.76
104.4000	88.0399	169.45
106.0000	88.0090	169.20
107.5000	87.9635	168.98
109.0000	87.9255	168.70
110.6000	87.9233	168.64
112.0000	87.8998	168.30
113.8000	87.8924	168.04
115.0000	87.8806	167.92
117.2000	87.8138	167.76
118.0000	87.8242	167.70
120.6000	87.7733	167.33
122.0000	87.7264	167.15
124.1000	87.7072	167.07
125.0000	87.7080	166.88
126.5000	87.6531	166.67
128.0000	87.6508	166.54
131.5000	87.5525	166.26
132.0000	87.5368	166.19
134.0000	87.5005	166.11
136.0000	87.4574	165.82
138.0000	87.4197	165.56
140.0000	87.3815	165.45
143.0000	87.3214	165.23
145.0000	87.2692	165.19
147.5000	87.2290	164.85
150.0000	87.1868	164.48
152.5000	87.1379	164.58
155.0000	87.1069	164.39
157.5000	87.0628	164.27
160.0000	87.0138	164.10
162.5000	86.9985	163.98
165.0000	86.9249	163.49
167.5000	86.9107	163.67
170.0000	86.8826	163.88
172.5000	86.8250	163.59
175.0000	86.7399	163.52
177.5000	86.6666	163.25
180.0000	86.6517	163.14
182.5000	86.5914	162.94
185.0000	86.5207	162.87
187.5000	86.4801	163.09
190.0000	86.4234	162.81
192.5000	86.3394	162.72
195.0000	86.3128	162.63
197.5000	86.2841	162.70
200.0000	86.2002	162.60
203.0000	86.1600	162.42
206.0000	86.0999	162.47
209.0000	86.0414	162.53
212.0000	85.9860	162.36
214.0000	85.9749	162.42
218.0000	85.8844	162.42
220.0000	85.8586	162.53
224.0000	85.8031	162.36
227.0000	85.7645	162.46
230.0000	85.7190	162.35
233.0000	85.6984	162.44
236.0000	85.6306	162.39
240.0000	85.5710	162.48
243.0000	85.5148	162.41
247.0000	85.4571	162.44
250.0000	85.4111	162.53
254.0000	85.3599	162.66
258.0000	85.2911	162.49
262.0000	85.2361	162.69
265.0000	85.1771	162.77
269.0000	85.1083	162.74
272.0000	85.0730	162.92
276.0000	85.0262	163.03
280.0000	84.9503	163.03
285.0000	84.8883	163.17
290.0000	84.8143	163.42
295.0000	84.7506	163.52
300.0000	84.6981	163.69
304.0000	84.6377	163.83
307.0000	84.6230	163.96
311.0000	84.5522	163.98
315.0000	84.5090	164.18
320.0000	84.4282	164.49
325.0000	84.3628	164.63
330.0000	84.3148	164.78
335.0000	84.2430	164.95
340.0000	84.1783	165.21
345.0000	84.1191	165.41
350.0000	84.0523	165.63
355.0000	84.0138	165.94
360.0000	83.9464	166.08
365.0000	83.8856	166.41
370.0000	83.8398	166.58
375.0000	83.8036	166.83
382.0000	83.7265	167.16
387.0000	83.6708	167.41
395.0000	83.6030	167.91
400.0000	83.5406	168.17
406.0000	83.4950	168.41
412.0000	83.4414	168.78
418.0000	83.3920	169.09
425.0000	83.3276	169.43
431.0000	83.2958	169.91
437.0000	83.2432	170.24
444.0000	83.1770	170.52
450.0000	83.1615	171.07
455.0000	83.1274	171.19
462.0000	83.0783	171.60
468.0000	83.0316	171.91
475.0000	82.9729	172.16
482.0000	82.9190	172.63
487.0000	82.8940	172.98
494.0000	82.8107	173.25
500.0000	82.7998	173.85
508.0000	82.7252	174.31
515.0000	82.6923	175.33
522.0000	82.7001	176.13
530.0000	82.7750	176.38
538.0000	82.7373	176.40
545.0000	82.6924	176.55
552.0000	82.6688	177.01
560.0000	82.5983	177.46
570.0000	82.5519	178.04
580.0000	82.5033	178.70
590.0000	82.4526	179.27
600.0000	82.4184	179.93
608.0000	82.3823	-179.58
615.0000	82.3678	-179.09
622.0000	82.3609	-178.69
630.0000	82.3438	-178.26
640.0000	82.3073	-177.74
650.0000	82.2598	-177.15
660.0000	82.1752	-176.62
670.0000	82.1273	-175.66
680.0000	82.1127	-174.66
690.0000	82.1002	-173.78
700.0000	82.0847	-172.94
710.0000	82.0850	-172.14
720.0000	82.0792	-171.50
730.0000	82.0866	-170.53
740.0000	82.0892	-169.99
750.0000	82.0862	-169.22
762.0000	82.0972	-168.27
775.0000	82.1033	-167.28
788.0000	82.1040	-166.25
800.0000	82.1051	-165.38
812.0000	82.1241	-164.55
825.0000	82.1358	-163.50
838.0000	82.1643	-162.45
850.0000	82.1947	-161.63
862.0000	82.2095	-160.61
875.0000	82.2651	-159.53
885.0000	82.2919	-158.77
900.0000	82.3544	-157.60
912.0000	82.4040	-156.72
925.0000	82.4615	-155.62
938.0000	82.5330	-154.74
950.0000	82.6081	-153.81
962.0000	82.6843	-152.88
975.0000	82.7588	-151.90
988.0000	82.8671	-151.01
1000.0000	83.0290	-149.93
1015.0000	83.0522	-149.06
1030.0000	83.1528	-148.08
1044.0000	83.2720	-147.18
1060.0000	83.4210	-146.20
1075.0000	83.5679	-145.36
1090.0000	83.7281	-144.46
1106.0000	83.9146	-143.70
1120.0000	84.0780	-143.00
1138.0000	84.2964	-142.26
1150.0000	84.4452	-141.75
1172.0000	84.7306	-141.08
1180.0000	84.8441	-140.88
1206.0000	85.1899	-140.28
1220.0000	85.3809	-140.09
1241.0000	85.6811	-140.08
1250.0000	85.8072	-140.05
1265.0000	86.0022	-140.17
1280.0000	86.2022	-140.35
1315.0000	86.6260	-141.07
1320.0000	86.6812	-141.22
1340.0000	86.8925	-141.82
1360.0000	87.0855	-142.47
1380.0000	87.2563	-143.11
1400.0000	87.4043	-143.82
1430.0000	87.6056	-144.84
1450.0000	87.7208	-145.55
1475.0000	87.8466	-146.34
1500.0000	87.9532	-147.09
1525.0000	88.0513	-147.74
1550.0000	88.1470	-148.33
1575.0000	88.2466	-148.91
1600.0000	88.3358	-149.44
1625.0000	88.4279	-150.02
1650.0000	88.5018	-150.57
1675.0000	88.5755	-151.09
1700.0000	88.6345	-151.54
1725.0000	88.6997	-152.01
1750.0000	88.7589	-152.44
1775.0000	88.8194	-152.83
1800.0000	88.8737	-153.24
1825.0000	88.9254	-153.64
1850.0000	88.9821	-154.01
1875.0000	89.0277	-154.40
1900.0000	89.0701	-154.74
1925.0000	89.1160	-155.10
1950.0000	89.1516	-155.44
1975.0000	89.1693	-155.92
2000.0000	89.1367	-156.53
2030.0000	89.2455	-156.61
2060.0000	89.2840	-156.98
2090.0000	89.3061	-157.39
2120.0000	89.3323	-157.77
2140.0000	89.3507	-158.04
2180.0000	89.3639	-158.52
2200.0000	89.3733	-158.73
2240.0000	89.3855	-159.38
2270.0000	89.3795	-160.06
2300.0000	89.3653	-160.93
2330.0000	89.3644	-161.77
2360.0000	89.3377	-162.57
2400.0000	89.3189	-163.42
2430.0000	89.3019	-163.80
2470.0000	89.2609	-164.08
2500.0000	89.2265	-164.29
2540.0000	89.1730	-164.52
2580.0000	89.1172	-164.70
2620.0000	89.0497	-164.83
2650.0000	89.0060	-164.86
2690.0000	88.9381	-164.79
2720.0000	88.8947	-164.72
2760.0000	88.8350	-164.49
2800.0000	88.7896	-164.30
2850.0000	88.7341	-164.03
2900.0000	88.6803	-163.79
2950.0000	88.6243	-163.46
3000.0000	88.5841	-162.72
3040.0000	88.5602	-162.67
3070.0000	88.5543	-162.49
3110.0000	88.5391	-162.16
3150.0000	88.5478	-161.85
3200.0000	88.5543	-161.57
3250.0000	88.5626	-161.26
3300.0000	88.5857	-160.95
3350.0000	88.6227	-160.82
3400.0000	88.6682	-160.79
3450.0000	88.7150	-160.82
3500.0000	88.7525	-161.02
3550.0000	88.7786	-161.20
3600.0000	88.7930	-161.34
3650.0000	88.7928	-161.48
3700.0000	88.7881	-161.52
3750.0000	88.7918	-161.53
3820.0000	88.7893	-161.51
3870.0000	88.7847	-161.48
3950.0000	88.7574	-161.60
4000.0000	88.7107	-161.75
4060.0000	88.6814	-161.50
4120.0000	88.6259	-161.26
4180.0000	88.5743	-160.75
4250.0000	88.5789	-159.79
4310.0000	88.6140	-159.09
4370.0000	88.6824	-158.40
4440.0000	88.7956	-157.78
4500.0000	88.9067	-157.37
4550.0000	89.0121	-157.09
4620.0000	89.1665	-156.78
4680.0000	89.3112	-156.63
4750.0000	89.4927	-156.57
4820.0000	89.6877	-156.59
4870.0000	89.8365	-156.72
4940.0000	90.0749	-157.14
5000.0000	90.2910	-157.73
5080.0000	90.6250	-158.62
5150.0000	90.9219	-160.11
5220.0000	91.2131	-162.26
5300.0000	91.4531	-165.37
5380.0000	91.5564	-168.90
5450.0000	91.5822	-172.21
5520.0000	91.4134	-175.94
5600.0000	91.0075	-179.55
5700.0000	90.3540	177.47
5800.0000	89.6772	176.11
5900.0000	89.0597	175.99
6000.0000	88.5310	176.71
6080.0000	88.1901	177.65
6150.0000	87.9566	178.71
6220.0000	87.7478	179.77
6300.0000	87.5730	-178.91
6400.0000	87.4200	-177.13
6500.0000	87.3354	-175.38
6600.0000	87.3128	-173.54
6700.0000	87.3637	-171.88
6800.0000	87.4769	-170.27
6900.0000	87.6686	-168.80
7000.0000	87.9532	-167.56
7100.0000	88.3087	-166.55
7200.0000	88.7193	-165.95
7300.0000	89.2088	-165.76
7400.0000	89.7631	-166.13
7500.0000	90.3786	-167.27
7620.0000	91.1412	-170.01
7750.0000	91.9396	-174.89
7880.0000	92.5620	177.92
8000.0000	92.8624	169.46
8120.0000	92.7591	160.22
8250.0000	92.1700	150.77
8380.0000	91.2227	143.12
8500.0000	90.1834	138.10
8620.0000	89.1082	134.82
8750.0000	87.9419	132.83
8850.0000	87.0888	132.19
9000.0000	85.9283	132.45
9120.0000	85.0785	133.24
9250.0000	84.2772	134.66
9380.0000	83.5585	136.42
9500.0000	82.9964	138.29
9620.0000	82.5103	140.21
9750.0000	82.0411	142.53
9880.0000	81.6895	144.75
10000.0000	81.4142	146.77
10150.0000	81.2048	149.30
10300.0000	81.0964	151.51
10440.0000	81.0772	152.92
10600.0000	81.1565	154.41
10750.0000	81.3534	154.97
10900.0000	81.5818	154.60
11060.0000	81.8702	152.95
11200.0000	82.0925	150.15
11380.0000	82.1736	145.10
11500.0000	82.0402	141.17
11720.0000	81.3829	135.18
11800.0000	81.0660	133.93
12060.0000	80.4107	132.35
12200.0000	80.3317	131.04
12410.0000	80.3035	126.51
12500.0000	80.1882	123.92
12650.0000	79.8358	120.21
12800.0000	79.3835	116.93
13150.0000	78.2774	112.75
13200.0000	78.1322	112.51
13400.0000	77.7074	111.64
13600.0000	77.4766	110.94
13800.0000	77.4489	110.17
14000.0000	77.5810	108.37
14300.0000	78.0697	102.69
14500.0000	78.3843	96.52
14750.0000	78.6253	85.32
15000.0000	78.3667	72.46
15250.0000	77.6942	58.83
15500.0000	76.5369	46.23
15750.0000	75.0822	35.89
16000.0000	73.6574	28.16
16250.0000	72.6819	21.77
16500.0000	72.0661	14.23
16750.0000	71.8173	4.50
17000.0000	71.8098	-11.13
17250.0000	71.0712	-34.40
17500.0000	68.6490	-59.26
17750.0000	65.2506	-78.87
18000.0000	61.5348	-95.45
18250.0000	58.4833	-108.50
18500.0000	54.9607	-113.59
18750.0000	52.6233	-119.25
19000.0000	49.2815	-115.08
19250.0000	48.0931	-111.68
19500.0000	46.4920	-95.90
19750.0000	50.6930	-89.85
