* Measurement data measured by REW V5.20 Beta 47
* Source: Headset (USB-C to 3.5mm Headphone Jack Adapter), MICROPHONE (Master Volume), L, volume: 0.000
* Format: 256k Log Swept Sine, 1 sweep at -3.0 dBFS with no timing reference
* Dated: Jun 28, 2020 11:12:07 PM
* REW Settings:
*  C-weighting compensation: Off
*  Target level: 75.0 dB
* Note: ; 
* Measurement: Tipsy Dunmer R
* Smoothing: None
* Frequency Step: 1/48 octave
* Start Frequency: 20.000 Hz
*
* Freq(Hz)	SPL(dB)	Phase(degrees)
20.0000	95.8913	-167.30
20.3000	95.9153	-167.77
20.6000	95.9355	-168.24
20.9000	95.9505	-168.67
21.2000	95.9653	-169.09
21.4000	95.9746	-169.35
21.8000	95.9950	-169.83
22.0000	96.0083	-170.06
22.4000	96.0455	-170.57
22.7000	96.0745	-171.00
23.0000	96.0995	-171.47
23.3000	96.1179	-171.98
23.6000	96.1254	-172.48
24.0000	96.1199	-173.08
24.3000	96.1132	-173.44
24.7000	96.1127	-173.81
25.0000	96.1243	-174.06
25.4000	96.1558	-174.47
25.8000	96.1853	-175.00
26.2000	96.1945	-175.62
26.5000	96.1850	-176.04
26.9000	96.1592	-176.43
27.2000	96.1470	-176.59
27.6000	96.1604	-176.71
28.0000	96.2058	-176.95
28.5000	96.2689	-177.63
29.0000	96.2760	-178.57
29.5000	96.2176	-179.36
30.0000	96.1437	-179.69
30.4000	96.1181	-179.73
30.7000	96.1235	-179.77
31.1000	96.1486	-179.97
31.5000	96.1716	179.65
32.0000	96.1723	179.07
32.5000	96.1515	178.58
33.0000	96.1316	178.25
33.5000	96.1246	177.98
34.0000	96.1309	177.73
34.5000	96.1577	177.44
35.0000	96.1993	177.06
35.5000	96.2408	176.49
36.0000	96.2595	175.79
36.5000	96.2454	175.08
37.0000	96.2060	174.49
37.5000	96.1577	174.08
38.2000	96.0990	173.82
38.7000	96.0856	173.78
39.5000	96.1320	173.54
40.0000	96.1622	173.08
40.6000	96.1482	172.38
41.2000	96.0943	171.93
41.8000	96.0612	171.77
42.5000	96.0706	171.52
43.1000	96.0739	171.06
43.7000	96.0509	170.62
44.4000	96.0217	170.27
45.0000	96.0157	169.99
45.5000	96.0143	169.68
46.2000	95.9991	169.21
46.8000	95.9790	168.85
47.5000	95.9587	168.45
48.2000	95.9361	168.08
48.7000	95.9208	167.82
49.4000	95.9058	167.48
50.0000	95.8922	167.17
50.8000	95.8720	166.71
51.5000	95.8513	166.36
52.2000	95.8286	166.04
53.0000	95.8080	165.73
53.8000	95.7982	165.34
54.5000	95.7599	164.90
55.2000	95.6987	164.72
56.0000	95.6892	164.76
57.0000	95.7193	164.05
58.0000	95.6132	163.27
59.0000	95.5499	163.27
60.0000	95.5648	162.83
60.8000	95.5288	162.39
61.5000	95.5149	162.18
62.2000	95.5243	161.80
63.0000	95.4914	161.18
64.0000	95.4192	160.81
65.0000	95.3892	160.47
66.0000	95.3388	160.08
67.0000	95.3119	159.74
68.0000	95.2701	159.24
69.0000	95.2283	158.92
70.0000	95.1992	158.55
71.0000	95.1524	158.23
72.0000	95.1184	158.04
73.0000	95.0947	157.80
74.0000	95.0831	157.43
75.0000	95.0427	156.86
76.2000	94.9700	156.43
77.5000	94.9377	156.11
78.8000	94.9168	155.58
80.0000	94.8580	155.29
81.2000	94.8322	155.01
82.5000	94.7189	154.49
83.8000	94.6683	154.58
85.0000	94.6290	153.57
86.2000	94.5828	153.63
87.5000	94.5917	152.35
88.5000	94.6228	153.47
90.0000	94.9100	149.55
91.2000	94.2850	150.49
92.5000	94.4682	151.75
93.8000	94.2972	151.80
95.0000	94.2852	151.68
96.2000	94.1906	151.35
97.5000	94.1317	150.81
98.8000	94.0880	150.41
100.0000	94.0519	150.09
101.5000	94.0102	149.79
103.0000	93.9579	149.57
104.4000	93.8883	149.35
106.0000	93.8223	148.82
107.5000	93.7635	148.66
109.0000	93.7162	148.21
110.6000	93.6579	148.03
112.0000	93.5928	147.89
113.8000	93.5371	147.56
115.0000	93.4690	147.34
117.2000	93.4048	146.94
118.0000	93.3764	146.78
120.6000	93.2700	146.49
122.0000	93.2199	146.22
124.1000	93.0756	145.92
125.0000	93.0652	146.12
126.5000	93.0432	145.41
128.0000	92.9581	145.38
131.5000	92.8530	144.80
132.0000	92.8246	144.76
134.0000	92.7462	144.69
136.0000	92.6741	144.40
138.0000	92.5822	144.10
140.0000	92.5234	143.86
143.0000	92.4168	143.28
145.0000	92.3537	143.24
147.5000	92.2437	142.97
150.0000	92.1644	142.80
152.5000	92.0827	142.53
155.0000	91.9741	142.37
157.5000	91.8920	142.22
160.0000	91.8502	141.92
162.5000	91.7669	141.76
165.0000	91.6942	141.80
167.5000	91.5741	141.86
170.0000	91.5385	141.33
172.5000	91.4256	141.28
175.0000	91.3351	141.18
177.5000	91.2614	140.99
180.0000	91.1453	140.93
182.5000	91.0754	140.81
185.0000	90.9739	140.64
187.5000	90.8926	140.55
190.0000	90.8223	140.37
192.5000	90.7394	140.37
195.0000	90.6386	140.28
197.5000	90.5690	140.28
200.0000	90.4793	140.24
203.0000	90.3927	140.14
206.0000	90.2852	140.02
209.0000	90.1756	139.98
212.0000	90.0963	139.98
214.0000	90.0527	140.02
218.0000	89.9438	139.98
220.0000	89.8876	139.87
224.0000	89.7880	139.85
227.0000	89.7088	139.82
230.0000	89.6220	139.81
233.0000	89.5574	139.88
236.0000	89.4712	139.81
240.0000	89.3641	139.86
243.0000	89.2923	139.87
247.0000	89.1739	140.00
250.0000	89.1111	139.94
254.0000	88.9960	139.96
258.0000	88.9058	140.00
262.0000	88.8096	140.14
265.0000	88.7167	140.09
269.0000	88.6168	140.25
272.0000	88.5455	140.26
276.0000	88.4736	140.44
280.0000	88.3783	140.47
285.0000	88.2595	140.64
290.0000	88.1630	140.75
295.0000	88.0340	140.85
300.0000	87.9336	141.14
304.0000	87.8501	141.08
307.0000	87.7909	141.21
311.0000	87.6819	141.44
315.0000	87.6248	141.55
320.0000	87.5098	141.86
325.0000	87.4298	142.10
330.0000	87.2906	142.58
335.0000	87.2002	142.21
340.0000	87.1145	142.73
345.0000	87.0145	142.72
350.0000	86.9296	142.99
355.0000	86.8230	143.32
360.0000	86.7392	143.44
365.0000	86.6562	143.80
370.0000	86.5538	143.92
375.0000	86.4788	144.22
382.0000	86.3596	144.60
387.0000	86.2774	144.80
395.0000	86.1616	145.23
400.0000	86.0670	145.47
406.0000	85.9802	145.92
412.0000	85.9317	146.04
418.0000	85.8186	145.94
425.0000	85.7310	147.03
431.0000	85.6112	147.19
437.0000	85.5336	147.64
444.0000	85.4616	148.09
450.0000	85.3707	148.42
455.0000	85.3289	148.77
462.0000	85.2245	149.07
468.0000	85.1603	149.35
475.0000	85.0602	149.69
482.0000	84.9674	150.06
487.0000	84.9140	150.38
494.0000	84.8400	150.83
500.0000	84.7669	151.20
508.0000	84.6823	151.76
515.0000	84.5857	152.32
522.0000	84.5251	152.69
530.0000	84.4438	153.12
538.0000	84.3599	153.68
545.0000	84.2868	154.17
552.0000	84.2063	154.65
560.0000	84.1397	155.22
570.0000	84.0419	155.98
580.0000	83.9452	156.65
590.0000	83.8601	157.27
600.0000	83.7790	158.06
608.0000	83.7111	158.75
615.0000	83.6446	159.23
622.0000	83.6050	159.61
630.0000	83.5500	160.29
640.0000	83.4784	161.04
650.0000	83.4171	161.74
660.0000	83.3427	162.54
670.0000	83.2892	163.24
680.0000	83.2236	164.02
690.0000	83.1838	164.74
700.0000	83.1280	165.63
710.0000	83.0583	166.35
720.0000	83.0030	167.13
730.0000	82.9647	167.96
740.0000	82.9330	168.71
750.0000	82.8811	169.45
762.0000	82.8375	170.43
775.0000	82.7836	171.56
788.0000	82.7382	172.60
800.0000	82.7003	173.49
812.0000	82.6627	174.48
825.0000	82.6311	175.57
838.0000	82.6116	176.62
850.0000	82.6043	177.63
862.0000	82.5764	178.66
875.0000	82.5629	179.52
885.0000	82.5529	-179.55
900.0000	82.5442	-178.44
912.0000	82.5599	-177.49
925.0000	82.5402	-176.43
938.0000	82.4847	-175.18
950.0000	82.5555	-173.40
962.0000	82.6975	-172.58
975.0000	82.7706	-172.03
988.0000	82.8051	-171.33
1000.0000	82.9288	-170.38
1015.0000	82.8729	-169.66
1030.0000	82.9223	-168.76
1044.0000	82.9743	-167.94
1060.0000	83.0292	-167.03
1075.0000	83.1005	-166.28
1090.0000	83.1676	-165.37
1106.0000	83.2719	-164.68
1120.0000	83.3357	-163.98
1138.0000	83.4355	-163.33
1150.0000	83.5066	-162.77
1172.0000	83.6258	-162.06
1180.0000	83.6876	-161.80
1206.0000	83.8263	-161.06
1220.0000	83.8899	-160.77
1241.0000	84.0287	-160.42
1250.0000	84.0677	-160.41
1265.0000	84.1384	-160.36
1280.0000	84.1584	-160.46
1315.0000	84.0705	-160.57
1320.0000	84.0353	-160.31
1340.0000	83.9205	-159.16
1360.0000	83.8853	-157.47
1380.0000	83.9669	-155.87
1400.0000	84.0846	-154.64
1430.0000	84.2476	-153.04
1450.0000	84.3739	-152.25
1475.0000	84.5079	-151.25
1500.0000	84.6341	-150.20
1525.0000	84.7678	-149.06
1550.0000	84.9057	-148.16
1575.0000	85.0553	-147.04
1600.0000	85.2157	-145.96
1625.0000	85.3829	-144.87
1650.0000	85.5802	-143.91
1675.0000	85.7724	-142.80
1700.0000	86.0040	-141.92
1725.0000	86.2617	-141.09
1750.0000	86.5248	-140.54
1775.0000	86.7861	-140.16
1800.0000	87.0499	-139.89
1825.0000	87.2993	-139.98
1850.0000	87.5163	-140.11
1875.0000	87.7325	-140.32
1900.0000	87.9299	-140.65
1925.0000	88.0966	-140.98
1950.0000	88.2686	-141.34
1975.0000	88.3836	-141.76
2000.0000	88.4441	-142.29
2030.0000	88.6689	-142.31
2060.0000	88.8099	-142.61
2090.0000	88.9591	-142.86
2120.0000	89.0878	-143.15
2140.0000	89.1717	-143.34
2180.0000	89.3290	-143.65
2200.0000	89.4151	-143.86
2240.0000	89.5690	-144.45
2270.0000	89.6776	-145.14
2300.0000	89.7711	-146.03
2330.0000	89.8757	-146.92
2360.0000	89.9712	-147.90
2400.0000	90.0836	-148.93
2430.0000	90.1678	-149.42
2470.0000	90.2732	-150.12
2500.0000	90.3394	-150.56
2540.0000	90.4039	-151.27
2580.0000	90.4661	-151.94
2620.0000	90.5028	-152.64
2650.0000	90.5389	-153.15
2690.0000	90.5711	-153.83
2720.0000	90.5709	-154.31
2760.0000	90.5688	-154.99
2800.0000	90.5595	-155.47
2850.0000	90.5125	-156.22
2900.0000	90.4916	-156.75
2950.0000	90.4436	-157.31
3000.0000	90.3826	-157.38
3040.0000	90.2996	-157.94
3070.0000	90.2828	-158.17
3110.0000	90.2088	-158.62
3150.0000	90.1196	-158.68
3200.0000	90.0359	-158.80
3250.0000	89.9634	-158.91
3300.0000	89.8951	-158.61
3350.0000	89.7912	-158.76
3400.0000	89.6737	-158.40
3450.0000	89.5910	-158.02
3500.0000	89.5582	-157.71
3550.0000	89.5592	-156.84
3600.0000	89.4662	-156.40
3650.0000	89.4484	-154.99
3700.0000	89.5079	-154.06
3750.0000	89.5778	-153.19
3820.0000	89.7303	-152.58
3870.0000	89.8942	-151.97
3950.0000	89.9610	-151.64
4000.0000	90.0369	-151.53
4060.0000	90.1920	-151.31
4120.0000	90.2684	-151.19
4180.0000	90.3496	-150.72
4250.0000	90.4592	-150.13
4310.0000	90.4876	-150.36
4370.0000	90.5819	-149.56
4440.0000	90.7837	-148.91
4500.0000	90.8851	-148.86
4550.0000	91.1417	-149.03
4620.0000	91.2707	-148.37
4680.0000	91.5864	-148.49
4750.0000	91.8491	-149.15
4820.0000	92.1095	-149.43
4870.0000	92.1947	-150.06
4940.0000	92.5397	-152.02
5000.0000	92.5898	-153.11
5080.0000	92.7731	-155.12
5150.0000	92.8758	-157.39
5220.0000	92.8292	-156.70
5300.0000	93.1984	-156.91
5380.0000	93.5640	-158.79
5450.0000	93.7803	-160.96
5520.0000	93.7814	-162.82
5600.0000	93.8519	-166.53
5700.0000	93.6286	-170.71
5800.0000	93.5237	-173.69
5900.0000	93.1278	-175.14
6000.0000	92.9452	-177.81
6080.0000	92.6153	-178.66
6150.0000	92.4646	179.14
6220.0000	92.1472	178.89
6300.0000	91.8339	179.23
6400.0000	91.5188	178.60
6500.0000	91.4810	178.08
6600.0000	91.1604	179.22
6700.0000	91.0565	-179.45
6800.0000	90.9407	179.11
6900.0000	91.2882	-179.48
7000.0000	91.3033	-179.67
7100.0000	91.4862	-179.77
7200.0000	91.9842	-178.08
7300.0000	91.8176	-177.43
7400.0000	92.6199	-176.61
7500.0000	93.1761	-178.48
7620.0000	94.0894	178.54
7750.0000	94.4557	172.35
7880.0000	95.4687	164.31
8000.0000	95.7339	153.83
8120.0000	95.0174	138.79
8250.0000	94.3058	130.20
8380.0000	92.8526	122.66
8500.0000	91.0967	117.04
8620.0000	90.1679	112.21
8750.0000	88.4174	111.03
8850.0000	87.1715	113.50
9000.0000	86.1265	116.72
9120.0000	85.1533	114.41
9250.0000	84.2911	116.23
9380.0000	84.0748	120.88
9500.0000	82.8900	125.26
9620.0000	82.5029	122.14
9750.0000	81.8273	126.00
9880.0000	81.9466	131.81
10000.0000	81.6264	135.22
10150.0000	80.6245	133.52
10300.0000	80.6848	143.10
10440.0000	81.7168	140.59
10600.0000	81.3128	138.28
10750.0000	80.6265	145.91
10900.0000	81.3640	145.86
11060.0000	82.8969	141.57
11200.0000	83.3678	138.17
11380.0000	82.9487	137.10
11500.0000	83.1637	120.20
11720.0000	83.1934	106.40
11800.0000	81.7280	111.47
12060.0000	79.9118	88.21
12200.0000	80.2050	94.63
12410.0000	77.8417	93.67
12500.0000	77.9103	82.99
12650.0000	75.2139	80.39
12800.0000	74.1143	80.93
13150.0000	72.3288	84.72
13200.0000	73.6635	96.27
13400.0000	70.8156	96.78
13600.0000	73.1945	96.39
13800.0000	72.9274	95.28
14000.0000	71.3530	108.95
14300.0000	71.5643	89.27
14500.0000	72.6208	89.71
14750.0000	73.2242	105.68
15000.0000	75.7955	96.74
15250.0000	74.3512	77.80
15500.0000	78.2203	54.55
15750.0000	74.7938	24.02
16000.0000	73.9314	-16.75
16250.0000	69.8030	-34.08
16500.0000	68.0236	-19.24
16750.0000	64.9361	-48.76
17000.0000	62.7773	-52.63
17250.0000	63.5988	-26.16
17500.0000	61.6077	-55.73
17750.0000	61.1346	-59.11
18000.0000	60.6905	-38.75
18250.0000	59.5513	-89.11
18500.0000	58.4120	-101.89
18750.0000	62.4877	-97.29
19000.0000	53.3879	-112.76
19250.0000	60.7220	-95.24
19500.0000	58.7739	-122.71
19750.0000	61.8879	128.19
