* Measurement data measured by REW V5.20 Beta 47
* Source: Microphone (Realtek Audio), MICROPHONE (Master Volume), R, volume: 0.250
* Format: 256k Log Swept Sine, 1 sweep at -12.0 dBFS with no timing reference
* Dated: Aug 12, 2020 10:42:21 AM
* REW Settings:
*  C-weighting compensation: Off
*  Target level: 75.0 dB
* Note: ; 
* Measurement: TRN V90 R
* Smoothing: None
* Frequency Step: 1/48 octave
* Start Frequency: 20.000 Hz
*
* Freq(Hz)	SPL(dB)	Phase(degrees)
20.0000	89.6329	-170.90
20.3000	89.7475	-171.41
20.6000	89.8563	-172.37
20.9000	89.9188	-173.63
21.2000	89.9132	-174.96
21.4000	89.8741	-175.71
21.8000	89.7538	-176.65
22.0000	89.7036	-176.81
22.4000	89.6914	-176.68
22.7000	89.7576	-176.61
23.0000	89.8594	-176.86
23.3000	89.9537	-177.43
23.6000	90.0085	-178.19
24.0000	90.0075	-179.09
24.3000	89.9796	-179.46
24.7000	89.9608	-179.59
25.0000	89.9771	-179.65
25.4000	90.0141	-179.94
25.8000	90.0115	179.51
26.2000	89.9385	179.09
26.5000	89.8635	179.08
26.9000	89.7993	179.48
27.2000	89.8024	179.82
27.6000	89.8594	179.95
28.0000	89.9120	179.59
28.5000	89.9010	178.89
29.0000	89.8576	178.63
29.5000	89.8887	178.62
30.0000	89.9999	178.25
30.4000	90.0919	177.54
30.7000	90.1452	176.88
31.1000	90.2037	175.93
31.5000	90.2501	174.82
32.0000	90.2304	173.08
32.5000	90.0370	171.63
33.0000	89.7303	171.81
33.5000	89.6180	174.06
34.0000	89.9157	176.05
34.5000	90.3599	175.42
35.0000	90.5503	172.65
35.5000	90.3494	170.14
36.0000	89.9802	169.76
36.5000	89.7798	171.19
37.0000	89.8477	172.36
37.5000	89.9693	172.30
38.2000	90.0154	171.52
38.7000	90.0383	171.11
39.5000	90.1019	169.68
40.0000	90.0386	168.49
40.6000	89.8836	167.77
41.2000	89.8092	167.81
41.8000	89.8319	167.61
42.5000	89.8290	166.87
43.1000	89.7760	166.41
43.7000	89.7312	166.19
44.4000	89.6976	165.98
45.0000	89.6777	165.77
45.5000	89.6625	165.49
46.2000	89.5965	164.96
46.8000	89.4976	164.82
47.5000	89.4407	165.14
48.2000	89.4801	165.22
48.7000	89.5184	164.94
49.4000	89.5513	164.25
50.0000	89.5484	163.42
50.8000	89.4373	162.39
51.5000	89.3123	162.31
52.2000	89.2983	162.51
53.0000	89.3146	162.09
53.8000	89.2651	161.66
54.5000	89.2374	161.28
55.2000	89.1425	160.66
56.0000	88.9624	160.87
57.0000	88.9699	161.53
58.0000	88.9217	161.25
59.0000	89.0042	161.62
60.0000	89.0466	159.58
60.8000	88.7799	159.19
61.5000	88.7773	160.20
62.2000	88.9400	159.65
63.0000	88.8589	157.96
64.0000	88.6144	158.14
65.0000	88.6334	158.63
66.0000	88.6317	158.35
67.0000	88.6036	158.08
68.0000	88.5407	157.63
69.0000	88.4385	157.52
70.0000	88.4289	157.43
71.0000	88.3515	156.74
72.0000	88.3079	157.09
73.0000	88.3841	156.20
74.0000	88.2074	156.00
75.0000	88.3540	156.48
76.2000	88.1545	154.76
77.5000	88.1185	157.17
78.8000	88.1930	155.59
80.0000	88.0523	155.10
81.2000	87.8322	154.77
82.5000	87.9171	155.15
83.8000	87.7985	153.62
85.0000	87.7699	154.22
86.2000	87.8035	153.05
87.5000	87.6149	153.17
88.5000	87.6678	152.99
90.0000	87.3977	152.25
91.2000	87.3261	153.61
92.5000	87.4264	153.38
93.8000	87.2940	153.38
95.0000	87.3528	152.86
96.2000	87.0727	152.28
97.5000	87.0547	152.82
98.8000	87.0526	152.80
100.0000	87.0790	151.14
101.5000	86.8614	154.30
103.0000	87.4579	152.47
104.4000	87.0899	152.02
106.0000	86.8756	153.05
107.5000	86.8265	152.82
109.0000	86.4987	152.87
110.6000	86.4455	151.02
112.0000	86.2811	152.07
113.8000	86.3791	150.32
115.0000	86.2383	149.80
117.2000	86.4124	152.58
118.0000	86.3797	150.17
120.6000	86.1285	149.53
122.0000	86.0312	152.15
124.1000	85.8822	152.63
125.0000	86.2350	151.04
126.5000	85.4002	149.62
128.0000	85.7734	152.81
131.5000	85.5647	150.74
132.0000	85.5558	150.84
134.0000	85.4686	150.80
136.0000	85.4944	150.74
138.0000	85.3354	151.57
140.0000	85.3763	151.17
143.0000	85.1699	150.80
145.0000	85.1227	151.09
147.5000	85.0286	151.36
150.0000	84.8594	151.55
152.5000	84.8376	151.50
155.0000	84.6849	151.79
157.5000	84.5806	151.89
160.0000	84.5148	151.26
162.5000	84.4575	151.52
165.0000	84.3774	151.58
167.5000	84.2813	151.59
170.0000	84.2946	152.05
172.5000	84.1634	152.46
175.0000	84.0627	150.66
177.5000	83.9909	151.85
180.0000	83.8316	152.62
182.5000	83.8569	152.29
185.0000	83.8379	153.23
187.5000	83.6706	152.82
190.0000	83.5692	152.45
192.5000	83.4696	152.35
195.0000	83.4309	152.76
197.5000	83.3556	153.42
200.0000	83.3459	153.21
203.0000	83.2957	153.70
206.0000	83.1412	153.89
209.0000	83.0315	154.20
212.0000	82.9290	154.21
214.0000	82.8185	154.53
218.0000	82.7697	154.95
220.0000	82.6342	155.06
224.0000	82.6233	155.38
227.0000	82.5892	155.33
230.0000	82.4859	155.45
233.0000	82.4416	155.90
236.0000	82.3465	155.96
240.0000	82.3271	156.65
243.0000	82.2309	156.76
247.0000	82.0780	157.09
250.0000	82.0352	157.39
254.0000	82.0200	157.60
258.0000	81.8600	157.81
262.0000	81.8130	158.05
265.0000	81.7142	158.23
269.0000	81.6418	159.11
272.0000	81.5757	159.18
276.0000	81.4969	159.33
280.0000	81.3768	159.92
285.0000	81.3364	160.48
290.0000	81.1988	160.84
295.0000	81.1754	160.92
300.0000	81.0663	161.94
304.0000	80.9915	162.38
307.0000	80.9114	162.61
311.0000	80.8710	162.50
315.0000	80.8216	163.22
320.0000	80.7307	163.88
325.0000	80.6552	164.29
330.0000	80.6186	164.63
335.0000	80.5479	164.89
340.0000	80.4906	165.80
345.0000	80.4031	166.69
350.0000	80.3737	166.47
355.0000	80.2962	167.07
360.0000	80.2127	167.63
365.0000	80.1008	168.19
370.0000	80.0560	168.76
375.0000	79.8902	168.95
382.0000	79.8549	169.67
387.0000	79.8111	170.44
395.0000	79.6637	171.63
400.0000	79.6585	171.81
406.0000	79.5877	172.20
412.0000	79.4862	172.87
418.0000	79.4708	173.33
425.0000	79.4048	174.02
431.0000	79.3276	175.04
437.0000	79.2439	175.21
444.0000	79.1880	176.07
450.0000	79.1704	176.39
455.0000	79.1119	177.37
462.0000	79.0416	177.78
468.0000	79.0246	178.73
475.0000	78.9749	179.56
482.0000	78.8749	179.89
487.0000	78.8742	-179.35
494.0000	78.7963	-178.45
500.0000	78.7804	-177.82
508.0000	78.7268	-177.12
515.0000	78.6548	-176.66
522.0000	78.6270	-175.46
530.0000	78.5767	-175.06
538.0000	78.5033	-174.31
545.0000	78.4245	-173.31
552.0000	78.3897	-172.49
560.0000	78.3692	-171.72
570.0000	78.2836	-170.73
580.0000	78.2078	-169.59
590.0000	78.2032	-168.81
600.0000	78.1148	-167.45
608.0000	78.1273	-166.77
615.0000	78.1054	-166.13
622.0000	78.0239	-165.41
630.0000	78.0687	-164.32
640.0000	78.0015	-163.32
650.0000	77.9308	-162.32
660.0000	77.8968	-161.58
670.0000	77.9282	-160.53
680.0000	77.8370	-158.82
690.0000	77.8950	-157.90
700.0000	77.7981	-156.83
710.0000	77.8726	-155.81
720.0000	77.8857	-154.59
730.0000	77.8845	-154.10
740.0000	77.8441	-152.59
750.0000	77.7930	-151.86
762.0000	77.8108	-150.19
775.0000	77.8819	-148.41
788.0000	77.8444	-147.41
800.0000	77.8775	-146.03
812.0000	77.9572	-144.87
825.0000	77.9399	-143.55
838.0000	77.9719	-142.10
850.0000	78.0557	-141.58
862.0000	78.0535	-140.02
875.0000	78.1346	-139.45
885.0000	78.1206	-138.54
900.0000	78.1438	-137.43
912.0000	77.9784	-136.35
925.0000	78.0053	-134.53
938.0000	77.8887	-132.69
950.0000	77.8851	-130.85
962.0000	77.9878	-129.59
975.0000	78.1776	-127.81
988.0000	78.2131	-126.39
1000.0000	78.3345	-124.53
1015.0000	78.4332	-122.94
1030.0000	78.6400	-121.53
1044.0000	78.7321	-120.51
1060.0000	78.9394	-118.70
1075.0000	79.0611	-117.78
1090.0000	79.2464	-116.64
1106.0000	79.4827	-115.21
1120.0000	79.6336	-114.14
1138.0000	79.7756	-113.16
1150.0000	79.9845	-112.56
1172.0000	80.1756	-110.53
1180.0000	80.2519	-110.54
1206.0000	80.5852	-108.87
1220.0000	80.6987	-108.21
1241.0000	81.0134	-107.16
1250.0000	81.0549	-106.45
1265.0000	81.2262	-105.92
1280.0000	81.4057	-105.37
1315.0000	81.8174	-103.70
1320.0000	81.8781	-103.70
1340.0000	82.1434	-102.98
1360.0000	82.3151	-101.94
1380.0000	82.5656	-101.19
1400.0000	82.7583	-100.29
1430.0000	83.1456	-99.38
1450.0000	83.3850	-98.62
1475.0000	83.6435	-98.02
1500.0000	83.9517	-97.28
1525.0000	84.2925	-96.07
1550.0000	84.5550	-95.80
1575.0000	84.8560	-95.46
1600.0000	85.1918	-94.82
1625.0000	85.5033	-94.35
1650.0000	85.8638	-93.90
1675.0000	86.1518	-93.61
1700.0000	86.5051	-93.43
1725.0000	86.8379	-93.17
1750.0000	87.1639	-93.15
1775.0000	87.5389	-93.05
1800.0000	87.8788	-93.15
1825.0000	88.2243	-93.30
1850.0000	88.5873	-93.78
1875.0000	88.8866	-94.10
1900.0000	89.2180	-94.58
1925.0000	89.5357	-95.13
1950.0000	89.9013	-96.07
1975.0000	90.2189	-96.80
2000.0000	90.5335	-97.93
2030.0000	90.9176	-99.27
2060.0000	91.2357	-100.89
2090.0000	91.5673	-102.57
2120.0000	91.8695	-104.47
2140.0000	92.0357	-105.68
2180.0000	92.3803	-108.59
2200.0000	92.5117	-109.90
2240.0000	92.7491	-112.95
2270.0000	92.8756	-115.23
2300.0000	92.9834	-117.42
2330.0000	93.0560	-119.46
2360.0000	93.0792	-121.61
2400.0000	93.1069	-124.16
2430.0000	93.0787	-125.93
2470.0000	93.0111	-128.09
2500.0000	92.9404	-129.68
2540.0000	92.8449	-131.28
2580.0000	92.7108	-132.80
2620.0000	92.6070	-134.00
2650.0000	92.5125	-134.73
2690.0000	92.4102	-135.37
2720.0000	92.3355	-135.90
2760.0000	92.2272	-136.26
2800.0000	92.1401	-136.53
2850.0000	92.0611	-136.74
2900.0000	92.0579	-136.81
2950.0000	92.0691	-136.92
3000.0000	92.0938	-136.90
3040.0000	92.1756	-137.01
3070.0000	92.2380	-137.17
3110.0000	92.3051	-137.43
3150.0000	92.3667	-137.81
3200.0000	92.4781	-138.34
3250.0000	92.5277	-138.48
3300.0000	92.6556	-138.46
3350.0000	92.8761	-138.52
3400.0000	93.1332	-138.63
3450.0000	93.4789	-139.63
3500.0000	93.8496	-140.93
3550.0000	94.1970	-142.83
3600.0000	94.5366	-145.16
3650.0000	94.8174	-147.99
3700.0000	95.0666	-151.08
3750.0000	95.2803	-154.63
3820.0000	95.4685	-160.09
3870.0000	95.5175	-164.30
3950.0000	95.3339	-171.62
4000.0000	95.0524	-175.96
4060.0000	94.5728	179.36
4120.0000	93.9618	175.08
4180.0000	93.2520	172.12
4250.0000	92.3342	169.99
4310.0000	91.5689	169.41
4370.0000	90.8584	170.11
4440.0000	90.1575	172.23
4500.0000	89.7213	174.65
4550.0000	89.4505	177.37
4620.0000	89.4056	-179.12
4680.0000	89.5236	-176.43
4750.0000	89.8411	-174.39
4820.0000	90.2499	-173.86
4870.0000	90.5592	-174.58
4940.0000	90.8897	-176.90
5000.0000	91.0358	-179.37
5080.0000	91.0036	176.56
5150.0000	90.7822	173.20
5220.0000	90.4425	170.64
5300.0000	90.0234	168.49
5380.0000	89.4886	167.05
5450.0000	89.0124	166.69
5520.0000	88.5401	166.51
5600.0000	88.0603	167.00
5700.0000	87.4980	168.00
5800.0000	86.9842	169.56
5900.0000	86.5590	171.57
6000.0000	86.1885	173.73
6080.0000	85.9108	175.29
6150.0000	85.7217	177.17
6220.0000	85.6100	178.66
6300.0000	85.5376	-178.97
6400.0000	85.4306	-176.32
6500.0000	85.3889	-174.19
6600.0000	85.4586	-171.12
6700.0000	85.6428	-168.93
6800.0000	85.7824	-166.56
6900.0000	86.1739	-164.22
7000.0000	86.5104	-162.21
7100.0000	87.0476	-160.39
7200.0000	87.6010	-159.45
7300.0000	88.3714	-158.61
7400.0000	89.1664	-158.27
7500.0000	90.0740	-159.47
7620.0000	91.3365	-162.89
7750.0000	92.6631	-170.37
7880.0000	93.6992	176.67
8000.0000	93.7846	161.76
8120.0000	92.9637	147.29
8250.0000	91.3302	136.44
8380.0000	89.5849	130.16
8500.0000	88.0041	127.70
8620.0000	86.6118	127.51
8750.0000	85.2714	127.55
8850.0000	84.2313	129.27
9000.0000	83.0189	132.51
9120.0000	82.1261	135.33
9250.0000	81.3832	138.14
9380.0000	80.6478	141.97
9500.0000	80.1143	144.86
9620.0000	79.3989	148.93
9750.0000	79.1871	152.48
9880.0000	78.7755	156.23
10000.0000	78.4502	160.46
10150.0000	78.2852	164.60
10300.0000	78.3221	169.63
10440.0000	78.2049	172.38
10600.0000	78.2660	177.95
10750.0000	78.3546	-179.52
10900.0000	78.5797	-175.26
11060.0000	78.8694	-173.19
11200.0000	79.1378	-171.55
11380.0000	79.5823	-169.32
11500.0000	79.6449	-168.63
11720.0000	80.1051	-169.02
11800.0000	80.2014	-168.13
12060.0000	81.1796	-163.62
12200.0000	81.8266	-163.64
12410.0000	82.8305	-167.48
12500.0000	83.2611	-170.20
12650.0000	83.7357	-174.54
12800.0000	84.1127	-179.68
13150.0000	84.0781	168.39
13200.0000	84.0156	166.82
13400.0000	83.6468	161.42
13600.0000	83.1902	158.07
13800.0000	82.7429	156.07
14000.0000	82.4422	154.12
14300.0000	82.2245	151.87
14500.0000	82.2475	149.72
14750.0000	82.1002	148.03
15000.0000	82.1983	144.62
15250.0000	82.4104	140.49
15500.0000	82.6599	134.39
15750.0000	82.4431	123.45
16000.0000	81.2233	112.64
16250.0000	79.8008	107.01
16500.0000	78.2931	103.75
16750.0000	76.7301	104.95
17000.0000	75.4783	106.77
17250.0000	74.3031	109.85
17500.0000	73.5951	117.16
17750.0000	72.7639	115.72
18000.0000	71.6547	118.79
18250.0000	70.6317	139.96
18500.0000	74.7728	143.21
18750.0000	74.2046	123.91
19000.0000	72.2790	131.36
19250.0000	74.1903	130.68
19500.0000	72.9713	119.95
19750.0000	71.2773	121.84
