* Measurement data measured by REW V5.20 Beta 47
* Source: Headset (USB-C to 3.5mm Headphone Jack Adapter), MICROPHONE (Master Volume), L, volume: 0.000
* Format: 256k Log Swept Sine, 1 sweep at -3.0 dBFS with no timing reference
* Dated: Aug 11, 2020 4:44:56 AM
* REW Settings:
*  C-weighting compensation: Off
*  Target level: 75.0 dB
* Note: ; 
* Measurement: TXN Ref5 L
* Smoothing: None
* Frequency Step: 1/48 octave
* Start Frequency: 20.000 Hz
*
* Freq(Hz)	SPL(dB)	Phase(degrees)
20.0000	88.5328	11.01
20.3000	88.5060	10.91
20.6000	88.4803	10.96
20.9000	88.4659	11.13
21.2000	88.4770	11.34
21.4000	88.4969	11.45
21.8000	88.5555	11.52
22.0000	88.5870	11.45
22.4000	88.6376	11.09
22.7000	88.6489	10.74
23.0000	88.6354	10.43
23.3000	88.6084	10.24
23.6000	88.5785	10.20
24.0000	88.5556	10.35
24.3000	88.5640	10.52
24.7000	88.6078	10.66
25.0000	88.6514	10.61
25.4000	88.7016	10.33
25.8000	88.7183	9.97
26.2000	88.7059	9.73
26.5000	88.6949	9.68
26.9000	88.7006	9.79
27.2000	88.7288	9.86
27.6000	88.7866	9.77
28.0000	88.8283	9.45
28.5000	88.8230	9.00
29.0000	88.7911	9.01
29.5000	88.8259	9.36
30.0000	88.9426	9.37
30.4000	89.0284	8.82
30.7000	89.0456	8.21
31.1000	88.9917	7.53
31.5000	88.8897	7.37
32.0000	88.8110	8.01
32.5000	88.8756	8.82
33.0000	89.0192	8.95
33.5000	89.1163	8.38
34.0000	89.1163	7.77
34.5000	89.0784	7.58
35.0000	89.0656	7.72
35.5000	89.0908	7.84
36.0000	89.1189	7.81
36.5000	89.1296	7.74
37.0000	89.1359	7.76
37.5000	89.1587	7.82
38.2000	89.2030	7.72
38.7000	89.2127	7.50
39.5000	89.1865	7.42
40.0000	89.1894	7.62
40.6000	89.2420	7.76
41.2000	89.2978	7.49
41.8000	89.2930	7.10
42.5000	89.2464	7.14
43.1000	89.2655	7.43
43.7000	89.3227	7.39
44.4000	89.3322	7.01
45.0000	89.2939	6.96
45.5000	89.2849	7.14
46.2000	89.3202	7.31
46.8000	89.3577	7.22
47.5000	89.3969	6.92
48.2000	89.4046	6.36
48.7000	89.3623	5.97
49.4000	89.2817	6.01
50.0000	89.2908	6.39
50.8000	89.3856	6.21
51.5000	89.3869	5.76
52.2000	89.3678	5.92
53.0000	89.4536	6.15
53.8000	89.5042	5.79
54.5000	89.4758	5.86
55.2000	89.5081	6.33
56.0000	89.5915	6.39
57.0000	89.6137	6.23
58.0000	89.6472	6.15
59.0000	89.6523	5.63
60.0000	89.5823	5.26
60.8000	89.5346	5.51
61.5000	89.5924	5.78
62.2000	89.6708	5.37
63.0000	89.6240	4.82
64.0000	89.6076	5.47
65.0000	89.7248	5.14
66.0000	89.6369	4.88
67.0000	89.6841	5.29
68.0000	89.6749	4.48
69.0000	89.5755	4.56
70.0000	89.6121	4.41
71.0000	89.5547	4.02
72.0000	89.5980	4.34
73.0000	89.6898	3.67
74.0000	89.6196	3.28
75.0000	89.6210	3.80
76.2000	89.6806	3.94
77.5000	89.7069	4.02
78.8000	89.6976	3.92
80.0000	89.7094	3.83
81.2000	89.6775	3.49
82.5000	89.6737	3.61
83.8000	89.7441	3.60
85.0000	89.7806	3.07
86.2000	89.7288	3.21
87.5000	89.7694	3.30
88.5000	89.7446	3.21
90.0000	89.7374	3.21
91.2000	89.7007	2.54
92.5000	89.5594	3.03
93.8000	89.7283	2.95
95.0000	89.6844	2.26
96.2000	89.7091	2.15
97.5000	89.6868	2.11
98.8000	89.7129	2.12
100.0000	89.7044	2.23
101.5000	89.7037	2.18
103.0000	89.6648	2.02
104.4000	89.6555	2.20
106.0000	89.6028	1.91
107.5000	89.7168	2.11
109.0000	89.6827	1.54
110.6000	89.7653	1.50
112.0000	89.7371	0.74
113.8000	89.5975	1.29
115.0000	89.6642	1.38
117.2000	89.6530	1.40
118.0000	89.6796	1.28
120.6000	89.6555	1.21
122.0000	89.6519	1.39
124.1000	89.7516	1.41
125.0000	89.6870	0.74
126.5000	89.5795	1.05
128.0000	89.6086	0.93
131.5000	89.5516	0.42
132.0000	89.5550	0.52
134.0000	89.5567	0.60
136.0000	89.5536	0.48
138.0000	89.5330	0.63
140.0000	89.5336	0.55
143.0000	89.4760	0.46
145.0000	89.4759	0.41
147.5000	89.4795	0.28
150.0000	89.4363	-0.01
152.5000	89.4322	0.23
155.0000	89.4047	-0.04
157.5000	89.3985	-0.05
160.0000	89.3649	-0.04
162.5000	89.3946	-0.35
165.0000	89.3861	-0.33
167.5000	89.3716	-0.41
170.0000	89.3568	-0.45
172.5000	89.3120	-0.55
175.0000	89.2915	-0.59
177.5000	89.2622	-0.62
180.0000	89.2313	-0.73
182.5000	89.1983	-0.69
185.0000	89.1649	-0.80
187.5000	89.1387	-0.67
190.0000	89.1196	-0.76
192.5000	89.1060	-0.84
195.0000	89.0625	-0.70
197.5000	89.0267	-0.81
200.0000	89.0039	-0.72
203.0000	88.9951	-0.76
206.0000	88.9196	-0.97
209.0000	88.8789	-0.84
212.0000	88.8531	-0.89
214.0000	88.8067	-0.85
218.0000	88.7955	-0.90
220.0000	88.7685	-0.78
224.0000	88.7729	-1.01
227.0000	88.7294	-0.95
230.0000	88.6709	-0.84
233.0000	88.6653	-0.87
236.0000	88.6465	-0.83
240.0000	88.6039	-0.81
243.0000	88.5681	-0.90
247.0000	88.5115	-0.80
250.0000	88.5095	-0.82
254.0000	88.4626	-0.66
258.0000	88.4045	-0.54
262.0000	88.3438	-0.56
265.0000	88.3120	-0.49
269.0000	88.2785	-0.41
272.0000	88.2235	-0.32
276.0000	88.2010	-0.20
280.0000	88.1609	-0.14
285.0000	88.1164	-0.16
290.0000	88.0535	-0.01
295.0000	87.9774	0.13
300.0000	87.9321	0.30
304.0000	87.8643	0.60
307.0000	87.8537	0.66
311.0000	87.7903	0.66
315.0000	87.7517	0.92
320.0000	87.6924	1.08
325.0000	87.6304	1.13
330.0000	87.5576	1.31
335.0000	87.5188	1.57
340.0000	87.4471	1.68
345.0000	87.4025	1.93
350.0000	87.3324	2.18
355.0000	87.2776	2.35
360.0000	87.2119	2.49
365.0000	87.1423	2.83
370.0000	87.0909	3.08
375.0000	87.0226	3.24
382.0000	86.9604	3.67
387.0000	86.8988	3.87
395.0000	86.8139	4.31
400.0000	86.7605	4.57
406.0000	86.6849	4.94
412.0000	86.6206	5.33
418.0000	86.5674	5.61
425.0000	86.4870	5.97
431.0000	86.4263	6.39
437.0000	86.3589	6.69
444.0000	86.2894	7.21
450.0000	86.2494	7.63
455.0000	86.1824	7.78
462.0000	86.1085	8.20
468.0000	86.0567	8.48
475.0000	85.9708	8.94
482.0000	85.9129	9.36
487.0000	85.8548	9.62
494.0000	85.7881	10.08
500.0000	85.7364	10.46
508.0000	85.6393	11.06
515.0000	85.5857	11.57
522.0000	85.5030	12.11
530.0000	85.4375	12.67
538.0000	85.3456	13.31
545.0000	85.2618	13.81
552.0000	85.2249	14.55
560.0000	85.1279	15.09
570.0000	85.0294	16.05
580.0000	84.9395	16.85
590.0000	84.8425	17.68
600.0000	84.7747	18.40
608.0000	84.6878	19.14
615.0000	84.6375	20.03
622.0000	84.5797	20.36
630.0000	84.5359	21.18
640.0000	84.4498	22.02
650.0000	84.3791	22.95
660.0000	84.2907	23.84
670.0000	84.2195	24.80
680.0000	84.1480	25.73
690.0000	84.0839	26.69
700.0000	84.0208	27.78
710.0000	83.9420	28.91
720.0000	83.8536	29.91
730.0000	83.8243	30.84
740.0000	83.7553	31.87
750.0000	83.7055	32.86
762.0000	83.6383	34.24
775.0000	83.5499	35.58
788.0000	83.4945	37.27
800.0000	83.4640	38.50
812.0000	83.3719	39.80
825.0000	83.3144	41.38
838.0000	83.2631	42.75
850.0000	83.2279	43.97
862.0000	83.1963	45.34
875.0000	83.1675	46.92
885.0000	83.1457	48.04
900.0000	83.1064	49.70
912.0000	83.0843	51.09
925.0000	83.0817	52.62
938.0000	83.0731	54.04
950.0000	83.0731	55.48
962.0000	83.0743	56.77
975.0000	83.0746	58.25
988.0000	83.1057	59.75
1000.0000	83.1950	61.18
1015.0000	83.1385	62.68
1030.0000	83.1531	64.24
1044.0000	83.1758	65.70
1060.0000	83.2081	67.31
1075.0000	83.2567	68.84
1090.0000	83.2985	70.27
1106.0000	83.3666	71.71
1120.0000	83.4270	73.04
1138.0000	83.4925	74.66
1150.0000	83.5375	75.73
1172.0000	83.6384	77.57
1180.0000	83.6676	78.19
1206.0000	83.7944	80.27
1220.0000	83.8383	81.39
1241.0000	83.9492	83.07
1250.0000	83.9848	83.74
1265.0000	84.0511	84.83
1280.0000	84.1233	85.92
1315.0000	84.2714	88.52
1320.0000	84.2940	88.90
1340.0000	84.3730	90.28
1360.0000	84.4572	91.70
1380.0000	84.5506	93.17
1400.0000	84.6552	94.64
1430.0000	84.7818	96.84
1450.0000	84.8259	98.25
1475.0000	84.9771	99.96
1500.0000	85.1041	101.70
1525.0000	85.2034	103.61
1550.0000	85.3215	105.33
1575.0000	85.4789	107.09
1600.0000	85.6029	109.00
1625.0000	85.7824	110.63
1650.0000	85.9323	112.36
1675.0000	86.0854	114.07
1700.0000	86.2556	115.73
1725.0000	86.4445	117.30
1750.0000	86.6175	118.91
1775.0000	86.8117	120.51
1800.0000	87.0025	121.96
1825.0000	87.2106	123.38
1850.0000	87.4191	124.73
1875.0000	87.6376	126.02
1900.0000	87.8689	127.27
1925.0000	88.0945	128.46
1950.0000	88.3257	129.50
1975.0000	88.5435	130.39
2000.0000	88.7112	131.03
2030.0000	89.0682	132.25
2060.0000	89.3666	133.08
2090.0000	89.6498	133.69
2120.0000	89.9303	134.16
2140.0000	90.1156	134.38
2180.0000	90.4690	134.59
2200.0000	90.6336	134.61
2240.0000	90.9579	134.22
2270.0000	91.1562	133.53
2300.0000	91.3377	132.53
2330.0000	91.5034	131.41
2360.0000	91.6301	130.22
2400.0000	91.7600	128.76
2430.0000	91.8380	127.87
2470.0000	91.8744	126.77
2500.0000	91.8709	125.98
2540.0000	91.8179	124.99
2580.0000	91.7273	124.04
2620.0000	91.5906	123.33
2650.0000	91.4841	122.84
2690.0000	91.2988	122.31
2720.0000	91.1358	122.06
2760.0000	90.8975	121.81
2800.0000	90.6371	121.94
2850.0000	90.2739	122.19
2900.0000	89.9170	122.92
2950.0000	89.5360	123.91
3000.0000	89.1579	125.74
3040.0000	88.8471	126.97
3070.0000	88.6611	128.06
3110.0000	88.3643	129.68
3150.0000	88.1015	131.77
3200.0000	87.8132	134.44
3250.0000	87.5757	137.06
3300.0000	87.4008	140.24
3350.0000	87.1815	143.13
3400.0000	87.0242	146.35
3450.0000	86.9172	149.58
3500.0000	86.8865	152.57
3550.0000	86.9312	156.00
3600.0000	86.8887	159.21
3650.0000	86.9800	162.85
3700.0000	87.1503	166.01
3750.0000	87.3400	168.86
3820.0000	87.6561	171.81
3870.0000	87.9585	173.71
3950.0000	88.1748	176.15
4000.0000	88.3416	177.39
4060.0000	88.5843	178.47
4120.0000	88.7233	179.74
4180.0000	88.8603	-178.79
4250.0000	89.0054	-176.92
4310.0000	89.0438	-175.81
4370.0000	89.2152	-173.98
4440.0000	89.5182	-172.45
4500.0000	89.6920	-171.71
4550.0000	89.9719	-172.04
4620.0000	90.1820	-171.59
4680.0000	90.4283	-172.92
4750.0000	90.4786	-174.89
4820.0000	90.3282	-176.45
4870.0000	89.9989	-177.17
4940.0000	89.5337	-178.52
5000.0000	88.9281	-177.02
5080.0000	88.3242	-173.28
5150.0000	88.0941	-169.08
5220.0000	88.2309	-163.45
5300.0000	88.5805	-159.16
5380.0000	89.1818	-156.16
5450.0000	89.7442	-155.39
5520.0000	90.1799	-155.53
5600.0000	90.5275	-158.88
5700.0000	90.5602	-163.95
5800.0000	90.4030	-172.28
5900.0000	88.1327	178.53
6000.0000	85.2568	-164.85
6080.0000	85.9300	-151.85
6150.0000	86.4728	-149.76
6220.0000	86.7987	-147.20
6300.0000	86.9898	-144.35
6400.0000	87.0937	-142.26
6500.0000	87.4309	-141.10
6600.0000	87.5291	-137.52
6700.0000	87.8778	-134.62
6800.0000	87.9722	-134.15
6900.0000	88.7540	-132.93
7000.0000	89.1536	-132.38
7100.0000	89.6579	-132.76
7200.0000	90.5844	-132.82
7300.0000	90.8317	-132.03
7400.0000	91.9159	-134.64
7500.0000	92.4868	-139.14
7620.0000	93.1630	-146.38
7750.0000	93.0214	-154.14
7880.0000	93.2942	-163.40
8000.0000	92.9339	-171.36
8120.0000	91.7228	179.80
8250.0000	91.5080	174.63
8380.0000	90.7051	169.14
8500.0000	89.4969	164.70
8620.0000	88.9456	156.85
8750.0000	87.7104	153.63
8850.0000	86.8277	153.86
9000.0000	86.1458	150.82
9120.0000	84.9409	144.31
9250.0000	83.8751	141.48
9380.0000	83.4976	139.82
9500.0000	82.1719	143.22
9620.0000	80.9345	136.18
9750.0000	79.9614	137.33
9880.0000	79.7131	139.51
10000.0000	78.6582	141.95
10150.0000	76.2190	142.72
10300.0000	75.7570	154.56
10440.0000	75.2571	156.40
10600.0000	74.4557	170.23
10750.0000	75.7922	-169.80
10900.0000	77.6266	-169.73
11060.0000	79.5909	179.36
11200.0000	79.5382	175.68
11380.0000	79.4874	-175.47
11500.0000	78.9872	173.87
11720.0000	80.1471	171.03
11800.0000	80.1837	-177.62
12060.0000	79.7403	167.17
12200.0000	82.0117	167.97
12410.0000	81.3255	169.08
12500.0000	81.0413	157.32
12650.0000	79.2370	160.76
12800.0000	78.8838	161.90
13150.0000	79.3069	165.75
13200.0000	81.4854	171.70
13400.0000	79.9997	178.43
13600.0000	82.7191	168.27
13800.0000	83.2428	165.57
14000.0000	83.6487	178.65
14300.0000	82.4707	153.83
14500.0000	85.0996	153.61
14750.0000	86.9398	174.73
15000.0000	90.2648	144.88
15250.0000	87.1125	126.06
15500.0000	88.0761	103.37
15750.0000	84.8174	96.13
16000.0000	83.6956	61.75
16250.0000	80.3629	52.97
16500.0000	80.9879	65.76
16750.0000	76.7998	40.27
17000.0000	75.1687	39.22
17250.0000	77.8826	59.90
17500.0000	74.5259	32.50
17750.0000	74.1062	27.81
18000.0000	75.8995	48.31
18250.0000	73.1959	-1.03
18500.0000	71.6918	-8.23
18750.0000	76.9409	-18.29
19000.0000	69.1799	2.14
19250.0000	76.2450	-20.90
19500.0000	72.5413	-43.55
19750.0000	65.0941	-145.67
