* Measurement data measured by REW V5.20 Beta 60
* Source: Headset (USB-C to 3.5mm Headphone Jack Adapter), MICROPHONE (Master Volume), R, volume: 0.258
* Format: 256k Log Swept Sine, 1 sweep at -12.0 dBFS with no timing reference
* Dated: Apr 6, 2021 5:38:38 PM
* REW Settings:
*  C-weighting compensation: Off
*  Target level: 75.0 dB
* Note: ; 
* Measurement: UE18+Pro To-Go L
* Smoothing: None
* Frequency Step: 1/48 octave
* Start Frequency: 20.000 Hz
*
* Freq(Hz)	SPL(dB)	Phase(degrees)
20.000000	88.899353	-148.3776
20.299999	88.898865	-148.6689
20.600000	88.908127	-148.7536
20.900000	88.943542	-148.7061
21.200001	89.016708	-148.6933
21.400000	89.078461	-148.7823
21.799999	89.209869	-149.2338
22.000000	89.268425	-149.5926
22.400000	89.355202	-150.4884
22.700001	89.388321	-151.1543
23.000000	89.404190	-151.7163
23.299999	89.419281	-152.1728
23.600000	89.440231	-152.5524
24.000000	89.480835	-153.0305
24.299999	89.516968	-153.4317
24.700001	89.560547	-154.0220
25.000000	89.584229	-154.4670
25.400000	89.606796	-155.0116
25.799999	89.623672	-155.4325
26.200001	89.647270	-155.7456
26.500000	89.674942	-155.9444
26.900000	89.724411	-156.2062
27.200001	89.768356	-156.4562
27.600000	89.825333	-156.9020
28.000000	89.858917	-157.4406
28.500000	89.856163	-158.0430
29.000000	89.832123	-158.2609
29.500000	89.851013	-158.1414
30.000000	89.934921	-158.1131
30.400000	90.018806	-158.4126
30.700001	90.066658	-158.7979
31.100000	90.097801	-159.3625
31.500000	90.104111	-159.8304
32.000000	90.113319	-160.2200
32.500000	90.145203	-160.6169
33.000000	90.171860	-161.1472
33.500000	90.170898	-161.6647
34.000000	90.162918	-161.9726
34.500000	90.186096	-162.1837
35.000000	90.228111	-162.5033
35.500000	90.255798	-162.9245
36.000000	90.265335	-163.2186
36.500000	90.291077	-163.3456
37.000000	90.351173	-163.5368
37.500000	90.413849	-164.0052
38.200001	90.423492	-164.7901
38.700001	90.393959	-165.0169
39.500000	90.428886	-164.9920
40.000000	90.485344	-165.3062
40.599998	90.488930	-166.0378
41.200001	90.410309	-166.4011
41.799999	90.366470	-166.1173
42.500000	90.449165	-165.8911
43.099998	90.536865	-166.4242
43.700001	90.556160	-167.1960
44.400002	90.534248	-167.8438
45.000000	90.521431	-168.2318
45.500000	90.514671	-168.4479
46.200001	90.541199	-168.5159
46.799999	90.615364	-168.7035
47.500000	90.671799	-169.2158
48.200001	90.693176	-169.2678
48.700001	90.769455	-169.1383
49.400002	90.911484	-169.6989
50.000000	90.896042	-170.5113
50.799999	90.790329	-170.2442
51.500000	90.888748	-169.6538
52.200001	90.985840	-170.3820
53.000000	90.883423	-171.1536
53.799999	90.841881	-171.1622
54.500000	90.819016	-172.0063
55.200001	90.632896	-172.6308
56.000000	90.509071	-171.7247
57.000000	90.723755	-171.7273
58.000000	90.748871	-173.3696
59.000000	90.708748	-173.5613
60.000000	90.847351	-174.1101
60.799999	90.814339	-175.1566
61.500000	90.685165	-175.1356
62.200001	90.663628	-174.2630
63.000000	90.795151	-173.8909
64.000000	90.842896	-174.8296
65.000000	90.709473	-175.0685
66.000000	90.701660	-174.6097
67.000000	90.755966	-175.0435
68.000000	90.729431	-175.5167
69.000000	90.736649	-175.8477
70.000000	90.713020	-176.1442
71.000000	90.755013	-176.1194
72.000000	90.795609	-176.7533
73.000000	90.752647	-176.9534
74.000000	90.796532	-177.0998
75.000000	90.767517	-177.5078
76.199997	90.792404	-177.4865
77.500000	90.728622	-177.5137
78.800003	90.945557	-177.0883
80.000000	90.918991	-178.6542
81.199997	90.857475	-178.4434
82.500000	90.828247	-179.1257
83.800003	90.755135	-178.9196
85.000000	90.809120	-178.9911
86.199997	90.840324	-179.4652
87.500000	90.841324	179.8601
88.500000	90.784698	179.6462
90.000000	90.792152	179.5587
91.199997	90.777138	179.3676
92.500000	90.776955	178.9401
93.800003	90.746155	178.6746
95.000000	90.731537	178.2853
96.199997	90.707138	178.1250
97.500000	90.697624	178.0090
98.800003	90.741524	177.9484
100.000000	90.736328	177.4686
101.500000	90.716354	177.4030
103.000000	90.701920	177.1102
104.400002	90.698502	176.8563
106.000000	90.668701	176.4833
107.500000	90.659515	176.2725
109.000000	90.662254	175.9984
110.599998	90.652885	175.7572
112.000000	90.663765	175.4957
113.800003	90.641190	175.2435
115.000000	90.612450	174.9470
117.199997	90.611641	174.7753
118.000000	90.607101	174.8036
120.599998	90.652725	174.3790
122.000000	90.617676	174.0186
124.099998	90.575401	174.1568
125.000000	90.584396	174.3233
126.500000	90.594025	173.5628
128.000000	90.536438	173.4619
131.500000	90.498329	172.8951
132.000000	90.489845	172.8335
134.000000	90.483299	172.5119
136.000000	90.459030	172.2461
138.000000	90.422806	172.1317
140.000000	90.416092	171.7440
143.000000	90.399918	171.5859
145.000000	90.362160	171.2763
147.500000	90.347404	171.0723
150.000000	90.329651	170.8022
152.500000	90.299339	170.5027
155.000000	90.298119	170.2170
157.500000	90.265144	169.8387
160.000000	90.231087	169.7711
162.500000	90.305260	169.3718
165.000000	90.321930	169.3305
167.500000	90.319183	169.4016
170.000000	90.251961	168.8174
172.500000	90.239357	168.3776
175.000000	90.189888	168.0336
177.500000	90.150314	167.4907
180.000000	90.087280	167.1979
182.500000	90.111351	166.8918
185.000000	90.048233	166.9604
187.500000	90.003380	166.5222
190.000000	89.986343	166.3671
192.500000	89.945015	166.0894
195.000000	89.921181	165.9418
197.500000	89.883080	165.7596
200.000000	89.840775	165.5151
203.000000	89.796143	165.2988
206.000000	89.768005	164.9191
209.000000	89.720772	164.7510
212.000000	89.686371	164.5342
214.000000	89.670197	164.4193
218.000000	89.613098	164.1630
220.000000	89.611748	163.9067
224.000000	89.581314	163.7310
227.000000	89.569107	163.4834
230.000000	89.543678	163.3759
233.000000	89.497383	163.2053
236.000000	89.453781	163.0526
240.000000	89.453690	162.7686
243.000000	89.411972	162.5948
247.000000	89.372749	162.3734
250.000000	89.348877	162.1931
254.000000	89.318878	161.9619
258.000000	89.219154	161.8593
262.000000	89.222198	161.6155
265.000000	89.178757	161.5908
269.000000	89.144562	161.2233
272.000000	89.113625	161.1590
276.000000	89.110649	160.7577
280.000000	89.073647	160.6166
285.000000	89.032341	160.3916
290.000000	88.994522	160.2200
295.000000	88.939545	159.8550
300.000000	88.895515	159.7361
304.000000	88.899719	159.5436
307.000000	88.896851	159.4088
311.000000	88.832031	159.3158
315.000000	88.784019	159.1244
320.000000	88.768585	158.7213
325.000000	88.727432	158.5664
330.000000	88.701530	158.2181
335.000000	88.642708	158.1747
340.000000	88.607635	157.7734
345.000000	88.579254	157.5987
350.000000	88.524178	157.2988
355.000000	88.490524	157.0980
360.000000	88.446655	156.9227
365.000000	88.396393	156.8048
370.000000	88.383308	156.4936
375.000000	88.338898	156.3640
382.000000	88.291077	155.9288
387.000000	88.246140	155.7599
395.000000	88.196869	155.4843
400.000000	88.147820	155.2438
406.000000	88.116768	154.9961
412.000000	88.090744	154.8248
418.000000	88.043747	154.5422
425.000000	87.993362	154.2167
431.000000	87.941132	154.0099
437.000000	87.916046	153.7752
444.000000	87.873672	153.5278
450.000000	87.858170	153.4648
455.000000	87.823303	153.0848
462.000000	87.782028	152.7012
468.000000	87.737839	152.4422
475.000000	87.701439	152.0232
482.000000	87.645111	151.7527
487.000000	87.628334	151.4368
494.000000	87.575233	151.1245
500.000000	87.566917	150.9056
508.000000	87.488182	150.5471
515.000000	87.432671	150.2615
522.000000	87.392448	149.9177
530.000000	87.337692	149.7267
538.000000	87.275024	149.3035
545.000000	87.223572	149.0417
552.000000	87.181267	148.8737
560.000000	87.119537	148.5331
570.000000	87.047783	148.1637
580.000000	86.987495	147.8950
590.000000	86.917793	147.4276
600.000000	86.828705	146.9155
608.000000	86.781548	146.8647
615.000000	86.734444	146.5988
622.000000	86.695076	146.2717
630.000000	86.624138	146.0931
640.000000	86.562202	145.7636
650.000000	86.459282	145.3239
660.000000	86.407143	145.2498
670.000000	86.336578	144.9089
680.000000	86.255569	144.5907
690.000000	86.175293	144.3580
700.000000	86.075012	144.2153
710.000000	86.003952	144.0856
720.000000	85.921188	143.9145
730.000000	85.855400	143.7784
740.000000	85.788918	143.7252
750.000000	85.713562	143.7558
762.000000	85.617500	143.6419
775.000000	85.529678	143.5668
788.000000	85.428238	143.6494
800.000000	85.335815	143.6006
812.000000	85.271835	143.7695
825.000000	85.178322	143.8796
838.000000	85.115677	144.0324
850.000000	85.047295	144.2790
862.000000	84.998665	144.4863
875.000000	84.954666	144.6823
885.000000	84.914902	144.9277
900.000000	84.879379	145.2363
912.000000	84.856697	145.4855
925.000000	84.831192	145.8599
938.000000	84.833633	146.1935
950.000000	84.828751	146.4272
962.000000	84.842461	146.7713
975.000000	84.852951	147.0611
988.000000	84.902985	147.3731
1000.000000	85.005096	147.8290
1015.000000	84.968552	147.8157
1030.000000	85.006554	148.0359
1044.000000	85.075821	148.1889
1060.000000	85.153076	148.2890
1075.000000	85.236496	148.3500
1090.000000	85.333008	148.2739
1106.000000	85.446404	148.2183
1120.000000	85.547783	148.0290
1138.000000	85.683105	147.7523
1150.000000	85.777931	147.4257
1172.000000	85.943954	146.8531
1180.000000	86.002853	146.6292
1206.000000	86.198296	145.6890
1220.000000	86.300705	145.0969
1241.000000	86.455086	144.1487
1250.000000	86.519081	143.7316
1265.000000	86.621986	142.9401
1280.000000	86.714310	142.1165
1315.000000	86.901199	140.1622
1320.000000	86.934799	139.8452
1340.000000	87.021675	138.6202
1360.000000	87.105278	137.3961
1380.000000	87.179146	136.1625
1400.000000	87.247154	135.0453
1430.000000	87.299454	133.1191
1450.000000	87.332504	131.9874
1475.000000	87.364990	130.5273
1500.000000	87.377029	129.1658
1525.000000	87.385147	127.7646
1550.000000	87.381470	126.5192
1575.000000	87.374283	125.2960
1600.000000	87.369545	124.1271
1625.000000	87.342224	123.1786
1650.000000	87.318573	122.1584
1675.000000	87.298325	121.2888
1700.000000	87.260490	120.4569
1725.000000	87.242439	119.6815
1750.000000	87.221786	119.0259
1775.000000	87.201141	118.4188
1800.000000	87.181625	117.8770
1825.000000	87.156693	117.3231
1850.000000	87.137131	116.8708
1875.000000	87.118042	116.4763
1900.000000	87.107872	116.1714
1925.000000	87.108215	115.8260
1950.000000	87.093552	115.5327
1975.000000	87.073013	115.1903
2000.000000	87.009048	114.7664
2030.000000	87.084030	114.8127
2060.000000	87.103989	114.7583
2090.000000	87.104523	114.6473
2120.000000	87.117783	114.6291
2140.000000	87.128716	114.6867
2180.000000	87.139404	114.9284
2200.000000	87.151108	115.1413
2240.000000	87.224113	115.7248
2270.000000	87.328842	116.0368
2300.000000	87.496925	115.9438
2330.000000	87.687828	115.4729
2360.000000	87.855576	114.6368
2400.000000	88.030533	113.6501
2430.000000	88.148743	113.0601
2470.000000	88.275497	112.5906
2500.000000	88.360611	112.2035
2540.000000	88.469437	111.7139
2580.000000	88.562775	111.2304
2620.000000	88.652687	110.8178
2650.000000	88.710449	110.4820
2690.000000	88.789650	110.2383
2720.000000	88.858955	110.0911
2760.000000	88.949158	109.9730
2800.000000	89.076469	109.6956
2850.000000	89.237717	109.0317
2900.000000	89.350235	107.9551
2950.000000	89.401321	106.8864
3000.000000	89.394653	106.2160
3040.000000	89.360947	105.2097
3070.000000	89.325920	104.7347
3110.000000	89.247108	104.3314
3150.000000	89.159782	104.1475
3200.000000	89.050812	104.1211
3250.000000	88.938576	104.4906
3300.000000	88.851402	105.1245
3350.000000	88.780396	105.8401
3400.000000	88.744324	106.7473
3450.000000	88.754082	107.6684
3500.000000	88.788750	108.6356
3550.000000	88.852989	109.6621
3600.000000	88.935379	110.5377
3650.000000	89.020264	111.4413
3700.000000	89.120773	112.3289
3750.000000	89.222000	113.0973
3820.000000	89.380501	114.1879
3870.000000	89.501396	114.9074
3950.000000	89.680893	115.9151
4000.000000	89.776146	116.3115
4060.000000	89.942947	117.0238
4120.000000	90.066467	117.4089
4180.000000	90.178383	117.6949
4250.000000	90.295616	118.0486
4310.000000	90.363686	118.3123
4370.000000	90.430992	118.5574
4440.000000	90.477150	118.8570
4500.000000	90.492355	119.1420
4550.000000	90.492218	119.5224
4620.000000	90.462669	120.1721
4680.000000	90.427887	120.9434
4750.000000	90.384743	121.9978
4820.000000	90.345993	123.4583
4870.000000	90.339302	124.6198
4940.000000	90.363083	126.4044
5000.000000	90.421143	127.9481
5080.000000	90.560257	130.3315
5150.000000	90.725517	132.2222
5220.000000	90.941307	133.9343
5300.000000	91.218613	135.6402
5380.000000	91.520988	136.9158
5450.000000	91.781776	137.7091
5520.000000	92.002464	138.2079
5600.000000	92.227829	138.4775
5700.000000	92.462700	138.3775
5800.000000	92.630867	137.9755
5900.000000	92.738937	137.4081
6000.000000	92.789101	136.7187
6080.000000	92.806374	136.3250
6150.000000	92.805634	135.9606
6220.000000	92.801781	135.6579
6300.000000	92.789291	135.4131
6400.000000	92.767174	135.0450
6500.000000	92.740723	134.6293
6600.000000	92.708389	133.7875
6700.000000	92.611725	132.3254
6800.000000	92.216995	129.4340
6900.000000	90.719101	128.1309
7000.000000	89.930496	145.8312
7100.000000	91.898422	151.9197
7200.000000	93.105728	149.8682
7300.000000	93.912849	146.5264
7400.000000	94.562218	142.0080
7500.000000	95.050995	135.9029
7620.000000	95.235504	126.2169
7750.000000	94.628883	114.4370
7880.000000	93.173019	104.7518
8000.000000	91.437378	99.4399
8120.000000	89.596375	97.4325
8250.000000	87.678535	98.1960
8380.000000	85.901436	101.1964
8500.000000	84.382355	105.2638
8620.000000	83.005623	110.3423
8750.000000	81.580681	116.8118
8850.000000	80.629494	122.4325
9000.000000	79.359673	130.8292
9120.000000	78.456856	138.2226
9250.000000	77.655937	146.2768
9380.000000	76.896622	154.3986
9500.000000	76.283295	161.8608
9620.000000	75.849655	169.1488
9750.000000	75.404137	177.2597
9880.000000	75.057602	-175.5321
10000.000000	74.785660	-169.0535
10150.000000	74.449699	-161.0557
10300.000000	74.227623	-154.4530
10440.000000	73.923721	-147.4917
10600.000000	73.613029	-139.6667
10750.000000	73.348457	-132.6062
10900.000000	73.019371	-125.0516
11060.000000	72.796097	-117.5788
11200.000000	72.677948	-110.3771
11380.000000	72.516327	-101.3897
11500.000000	72.501610	-95.7826
11720.000000	72.175613	-82.9897
11800.000000	72.290543	-78.3568
12060.000000	72.797562	-63.9091
12200.000000	73.197029	-56.3558
12410.000000	73.935654	-45.4617
12500.000000	74.355957	-41.0710
12650.000000	75.101578	-33.8666
12800.000000	75.929031	-27.1256
13150.000000	78.288269	-13.3954
13200.000000	78.721756	-11.5224
13400.000000	80.434715	-5.4474
13600.000000	82.487480	-0.8041
13800.000000	84.961952	1.0478
14000.000000	87.832947	-2.9520
14300.000000	90.709824	-28.1547
14500.000000	91.122253	-35.0836
14750.000000	92.311958	-54.9022
15000.000000	91.570816	-72.8041
15250.000000	90.941551	-84.5001
15500.000000	90.236664	-97.3892
15750.000000	89.122932	-110.1752
16000.000000	87.643822	-121.4200
16250.000000	85.953232	-129.8188
16500.000000	84.300552	-135.6104
16750.000000	82.946503	-139.2055
17000.000000	81.925316	-142.1247
17250.000000	81.392685	-145.1109
17500.000000	81.430298	-150.2777
17750.000000	82.041595	-163.7293
18000.000000	82.202301	169.4177
18250.000000	80.366898	136.3087
18500.000000	76.936371	111.7421
18750.000000	73.537331	98.2251
19000.000000	70.725784	90.5727
19250.000000	68.649384	84.7199
19500.000000	67.275322	75.7975
19750.000000	66.084152	63.7232
