* Measurement data measured by REW V5.20 Beta 60
* Source: Headset (USB-C to 3.5mm Headphone Jack Adapter), MICROPHONE (Master Volume), R, volume: 0.258
* Format: 256k Log Swept Sine, 1 sweep at -12.0 dBFS with no timing reference
* Dated: Mar 3, 2021 4:36:01 PM
* REW Settings:
*  C-weighting compensation: Off
*  Target level: 75.0 dB
* Note: ; 
* Measurement: UM 3D Terminator R
* Smoothing: None
* Frequency Step: 1/48 octave
* Start Frequency: 20.000 Hz
*
* Freq(Hz)	SPL(dB)	Phase(degrees)
20.000000	90.307678	155.8649
20.299999	90.269119	155.9612
20.600000	90.259857	156.0983
20.900000	90.276558	156.1748
21.200001	90.311241	156.0922
21.400000	90.333145	155.9495
21.799999	90.362701	155.5270
22.000000	90.368423	155.2832
22.400000	90.368408	154.7893
22.700001	90.362129	154.4612
23.000000	90.356750	154.1444
23.299999	90.353203	153.7928
23.600000	90.344666	153.4095
24.000000	90.318497	152.8842
24.299999	90.290710	152.5220
24.700001	90.253296	152.1194
25.000000	90.232887	151.8418
25.400000	90.218834	151.3953
25.799999	90.199188	150.8214
26.200001	90.155960	150.1924
26.500000	90.109390	149.7933
26.900000	90.045731	149.4695
27.200001	90.017395	149.3418
27.600000	90.019638	149.1508
28.000000	90.046013	148.7149
28.500000	90.052147	147.7866
29.000000	89.987274	146.9130
29.500000	89.900940	146.5389
30.000000	89.876816	146.5483
30.400000	89.916229	146.4150
30.700001	89.955460	146.0945
31.100000	89.979996	145.4238
31.500000	89.953590	144.7142
32.000000	89.872696	144.2039
32.500000	89.818413	144.1722
33.000000	89.836243	144.1723
33.500000	89.883972	143.7466
34.000000	89.883575	142.9679
34.500000	89.819138	142.2859
35.000000	89.734909	142.0104
35.500000	89.690849	141.9787
36.000000	89.684982	141.8354
36.500000	89.674576	141.4886
37.000000	89.645134	141.1866
37.500000	89.633957	141.0330
38.200001	89.682510	140.5485
38.700001	89.703308	139.6808
39.500000	89.573029	138.1627
40.000000	89.425087	137.8514
40.599998	89.306602	138.2667
41.200001	89.354523	138.8073
41.799999	89.522873	138.3643
42.500000	89.611244	136.1296
43.099998	89.400223	134.0377
43.700001	89.030273	133.7484
44.400002	88.858337	135.7371
45.000000	89.074013	136.7077
45.500000	89.264435	135.9450
46.200001	89.279655	134.0763
46.799999	89.151039	133.3596
47.500000	89.088158	133.2958
48.200001	89.083862	132.8383
48.700001	89.037773	132.3324
49.400002	88.923584	131.9609
50.000000	88.836334	131.9700
50.799999	88.773956	132.0463
51.500000	88.758575	131.9815
52.200001	88.751022	131.6351
53.000000	88.723175	131.0704
53.799999	88.699196	130.4603
54.500000	88.668640	129.7917
55.200001	88.621017	129.2713
56.000000	88.624794	128.8677
57.000000	88.655251	127.5107
58.000000	88.505852	126.3565
59.000000	88.441139	126.1794
60.000000	88.399597	125.2869
60.799999	88.292953	124.9586
61.500000	88.264503	124.8875
62.200001	88.252884	124.4589
63.000000	88.197380	123.9324
64.000000	88.137932	123.4109
65.000000	88.081505	122.8677
66.000000	88.018280	122.1416
67.000000	87.877312	121.8961
68.000000	87.898689	122.0309
69.000000	87.858093	121.1152
70.000000	87.781967	121.2311
71.000000	87.820999	120.4923
72.000000	87.702911	119.8825
73.000000	87.679077	119.3995
74.000000	87.552155	118.6884
75.000000	87.521332	118.5367
76.199997	87.439529	117.4719
77.500000	87.395103	116.9472
78.800003	87.290855	116.2149
80.000000	87.298935	115.7634
81.199997	87.212860	115.2673
82.500000	87.205551	114.7933
83.800003	87.117035	114.3150
85.000000	87.078110	113.7150
86.199997	86.993988	113.2356
87.500000	86.960327	112.4766
88.500000	86.875145	111.9139
90.000000	86.838394	111.5756
91.199997	86.787788	110.7239
92.500000	86.685898	110.6071
93.800003	86.708000	109.8936
95.000000	86.556862	109.2256
96.199997	86.558670	109.2090
97.500000	86.478088	108.1278
98.800003	86.426521	108.1912
100.000000	86.416420	107.3743
101.500000	86.317108	106.9132
103.000000	86.244736	106.3694
104.400002	86.178940	105.9014
106.000000	86.117386	105.2827
107.500000	86.052917	104.8599
109.000000	86.024437	104.2641
110.599998	85.960396	103.7496
112.000000	85.900238	103.3474
113.800003	85.845299	102.6580
115.000000	85.796661	102.2560
117.199997	85.709381	101.5515
118.000000	85.695015	101.3271
120.599998	85.603828	100.5563
122.000000	85.529411	100.0445
124.099998	85.467865	99.5064
125.000000	85.410370	99.2015
126.500000	85.385300	98.8859
128.000000	85.334610	98.2805
131.500000	85.184059	97.2856
132.000000	85.163483	97.3083
134.000000	85.133156	97.0050
136.000000	85.048950	95.9768
138.000000	85.054245	95.4554
140.000000	84.942459	95.2637
143.000000	84.854012	94.4620
145.000000	84.791283	93.9207
147.500000	84.713287	93.4649
150.000000	84.651016	92.8012
152.500000	84.578384	92.0421
155.000000	84.524879	91.6244
157.500000	84.458580	91.1981
160.000000	84.403664	90.5422
162.500000	84.339310	90.0975
165.000000	84.276184	89.7131
167.500000	84.221664	89.2034
170.000000	84.158401	88.6232
172.500000	84.104889	88.2072
175.000000	84.054604	87.7706
177.500000	83.982681	87.2386
180.000000	83.896439	86.9020
182.500000	83.836639	86.6122
185.000000	83.767120	86.2629
187.500000	83.701286	86.0459
190.000000	83.640236	85.9428
192.500000	83.558296	85.4451
195.000000	83.527618	85.1790
197.500000	83.509254	85.1638
200.000000	83.538429	85.8247
203.000000	83.487602	84.7430
206.000000	83.416443	84.1479
209.000000	83.383041	83.8426
212.000000	83.345108	83.7054
214.000000	83.374458	82.8921
218.000000	83.458847	82.7187
220.000000	83.342117	82.7513
224.000000	83.411301	81.4951
227.000000	83.360535	80.7966
230.000000	83.309189	80.3661
233.000000	83.279114	79.9186
236.000000	83.250465	79.6046
240.000000	83.196533	79.1456
243.000000	83.132057	78.6103
247.000000	83.121994	78.0297
250.000000	83.086273	77.6074
254.000000	82.971680	77.1799
258.000000	82.941864	76.9709
262.000000	82.884277	76.5663
265.000000	82.832520	76.2331
269.000000	82.790665	75.7392
272.000000	82.797028	75.5031
276.000000	82.725098	75.5546
280.000000	82.593613	74.9928
285.000000	82.598099	74.2366
290.000000	82.600746	74.2944
295.000000	82.537155	74.0486
300.000000	82.496262	73.6755
304.000000	82.472191	73.6503
307.000000	82.440910	73.5139
311.000000	82.407318	73.2672
315.000000	82.361580	72.9751
320.000000	82.338669	72.7985
325.000000	82.310646	72.5260
330.000000	82.280159	72.3148
335.000000	82.231789	72.0513
340.000000	82.200363	71.9117
345.000000	82.161140	71.7545
350.000000	82.126595	71.5620
355.000000	82.085266	71.4229
360.000000	82.050026	71.2807
365.000000	82.021805	71.2377
370.000000	81.984070	71.1316
375.000000	81.950974	70.9131
382.000000	81.908966	70.8509
387.000000	81.885338	70.7780
395.000000	81.839752	70.7437
400.000000	81.802048	70.7531
406.000000	81.762894	70.6404
412.000000	81.748077	70.6398
418.000000	81.732506	70.8426
425.000000	81.689941	71.0387
431.000000	81.640213	71.0922
437.000000	81.653091	71.1632
444.000000	81.639053	71.2837
450.000000	81.638000	71.3811
455.000000	81.640587	71.3655
462.000000	81.623810	71.3548
468.000000	81.611198	71.2951
475.000000	81.588020	71.3329
482.000000	81.569702	71.4199
487.000000	81.550644	71.3743
494.000000	81.536179	71.4569
500.000000	81.522667	71.6412
508.000000	81.501526	71.7988
515.000000	81.486557	72.0234
522.000000	81.478119	72.1026
530.000000	81.460938	72.3494
538.000000	81.425446	72.5179
545.000000	81.412178	72.7366
552.000000	81.395264	72.9575
560.000000	81.364944	73.2849
570.000000	81.347870	73.6419
580.000000	81.313301	74.0886
590.000000	81.286263	74.5442
600.000000	81.274109	75.1375
608.000000	81.268402	75.5431
615.000000	81.267998	75.8117
622.000000	81.269485	76.1949
630.000000	81.259132	76.5954
640.000000	81.243958	77.1042
650.000000	81.234894	77.6867
660.000000	81.249191	78.3728
670.000000	81.248795	79.0468
680.000000	81.268951	79.7154
690.000000	81.307289	80.3977
700.000000	81.332794	80.9412
710.000000	81.357712	81.4650
720.000000	81.368874	81.9553
730.000000	81.386719	82.4229
740.000000	81.403877	82.9612
750.000000	81.413010	83.4941
762.000000	81.412827	84.2042
775.000000	81.411819	85.0526
788.000000	81.425186	85.8940
800.000000	81.436432	86.7011
812.000000	81.451897	87.5715
825.000000	81.473999	88.4836
838.000000	81.502441	89.4420
850.000000	81.536713	90.3478
862.000000	81.571693	91.2233
875.000000	81.614059	92.2233
885.000000	81.648125	92.9804
900.000000	81.708405	94.1237
912.000000	81.762436	95.1001
925.000000	81.827057	96.0654
938.000000	81.892723	97.0538
950.000000	81.968636	97.9415
962.000000	82.038589	98.8794
975.000000	82.113190	99.8397
988.000000	82.222939	100.7885
1000.000000	82.369026	101.7671
1015.000000	82.398788	102.6103
1030.000000	82.487282	103.5832
1044.000000	82.594788	104.4442
1060.000000	82.715622	105.3937
1075.000000	82.831543	106.2745
1090.000000	82.964096	107.0842
1106.000000	83.105827	107.9373
1120.000000	83.224045	108.5862
1138.000000	83.376511	109.4006
1150.000000	83.474342	109.9506
1172.000000	83.658623	110.8371
1180.000000	83.726166	111.1244
1206.000000	83.930367	112.1053
1220.000000	84.038269	112.6582
1241.000000	84.215675	113.3307
1250.000000	84.284355	113.6280
1265.000000	84.401550	114.1273
1280.000000	84.513885	114.6040
1315.000000	84.758514	115.6931
1320.000000	84.798126	115.8512
1340.000000	84.934074	116.4732
1360.000000	85.065712	117.1393
1380.000000	85.203079	117.7665
1400.000000	85.337082	118.4108
1430.000000	85.525894	119.3532
1450.000000	85.653152	120.0394
1475.000000	85.815849	120.8346
1500.000000	85.977310	121.6550
1525.000000	86.131325	122.4525
1550.000000	86.304367	123.2903
1575.000000	86.467918	124.0784
1600.000000	86.637207	124.9025
1625.000000	86.814575	125.7023
1650.000000	86.983459	126.4980
1675.000000	87.162247	127.2788
1700.000000	87.339447	128.0352
1725.000000	87.521889	128.7769
1750.000000	87.707008	129.4551
1775.000000	87.890388	130.1373
1800.000000	88.076500	130.8022
1825.000000	88.268684	131.3624
1850.000000	88.453461	131.9514
1875.000000	88.652367	132.4993
1900.000000	88.844482	132.9666
1925.000000	89.035309	133.4001
1950.000000	89.224808	133.8082
1975.000000	89.403854	134.0641
2000.000000	89.529427	134.0723
2030.000000	89.824097	134.6854
2060.000000	90.060799	134.9190
2090.000000	90.273529	135.0314
2120.000000	90.492348	135.0565
2140.000000	90.630646	135.0440
2180.000000	90.887939	134.8922
2200.000000	91.018990	134.7813
2240.000000	91.263550	134.2482
2270.000000	91.415489	133.5388
2300.000000	91.553970	132.5742
2330.000000	91.690659	131.5691
2360.000000	91.801178	130.5203
2400.000000	91.924133	129.3066
2430.000000	92.008621	128.5906
2470.000000	92.080139	127.8275
2500.000000	92.110916	127.2477
2540.000000	92.129448	126.5132
2580.000000	92.118118	125.8498
2620.000000	92.081161	125.2739
2650.000000	92.044006	124.9059
2690.000000	91.977631	124.5273
2720.000000	91.917053	124.3240
2760.000000	91.816559	124.1724
2800.000000	91.700691	124.1694
2850.000000	91.554779	124.3595
2900.000000	91.400627	124.7286
2950.000000	91.254166	125.2689
3000.000000	91.111649	126.2880
3040.000000	90.998421	126.6535
3070.000000	90.921669	127.1527
3110.000000	90.812645	127.9162
3150.000000	90.714951	128.7971
3200.000000	90.609818	130.0079
3250.000000	90.507782	131.2672
3300.000000	90.424110	132.5968
3350.000000	90.358711	133.9772
3400.000000	90.302330	135.3901
3450.000000	90.275749	136.8000
3500.000000	90.275558	138.2916
3550.000000	90.290024	139.7390
3600.000000	90.315216	141.1880
3650.000000	90.354805	142.6721
3700.000000	90.404778	144.0826
3750.000000	90.465889	145.5031
3820.000000	90.570366	147.4213
3870.000000	90.651459	148.7150
3950.000000	90.778732	150.7141
4000.000000	90.854912	151.7430
4060.000000	91.006805	153.3571
4120.000000	91.154381	154.8050
4180.000000	91.327377	156.0269
4250.000000	91.557487	157.3752
4310.000000	91.757904	158.3226
4370.000000	91.969254	159.1364
4440.000000	92.238724	159.8520
4500.000000	92.481880	160.3002
4550.000000	92.686005	160.5341
4620.000000	92.982269	160.5841
4680.000000	93.237045	160.3237
4750.000000	93.529480	159.6405
4820.000000	93.797844	158.4998
4870.000000	93.975655	157.4179
4940.000000	94.175842	155.4889
5000.000000	94.288864	153.4346
5080.000000	94.359161	150.7651
5150.000000	94.306831	148.1693
5220.000000	94.159828	145.6071
5300.000000	93.880669	142.9552
5380.000000	93.495186	140.7910
5450.000000	93.094009	139.4142
5520.000000	92.622604	138.5106
5600.000000	92.056938	138.1010
5700.000000	91.350914	138.3746
5800.000000	90.668449	139.4623
5900.000000	90.031502	141.2266
6000.000000	89.435211	143.5837
6080.000000	89.021530	145.9123
6150.000000	88.698997	148.0938
6220.000000	88.419029	150.4666
6300.000000	88.152863	153.3333
6400.000000	87.891174	157.0365
6500.000000	87.709381	160.8477
6600.000000	87.603424	164.6688
6700.000000	87.574760	168.4553
6800.000000	87.616669	172.1180
6900.000000	87.746552	175.7720
7000.000000	87.989594	179.1676
7100.000000	88.315010	-177.5792
7200.000000	88.717773	-174.6750
7300.000000	89.213676	-172.2044
7400.000000	89.791435	-170.1793
7500.000000	90.472702	-168.9383
7620.000000	91.423935	-168.7803
7750.000000	92.543213	-170.9880
7880.000000	93.631027	-176.7851
8000.000000	94.345543	174.0750
8120.000000	94.417427	162.3047
8250.000000	93.583344	149.9356
8380.000000	92.080727	141.2623
8500.000000	90.501587	136.9850
8620.000000	88.960991	135.6261
8750.000000	87.391098	136.2746
8850.000000	86.279778	137.9343
9000.000000	84.789146	141.6182
9120.000000	83.761620	145.1471
9250.000000	82.755753	149.4858
9380.000000	81.878670	154.2462
9500.000000	81.146629	158.7239
9620.000000	80.524857	163.5646
9750.000000	79.933037	168.6048
9880.000000	79.413452	173.9370
10000.000000	78.982552	178.7018
10150.000000	78.614044	-175.2282
10300.000000	78.263580	-169.2130
10440.000000	78.078827	-163.4657
10600.000000	77.995651	-157.4683
10750.000000	77.956078	-151.8634
10900.000000	78.083122	-146.5726
11060.000000	78.245842	-141.2028
11200.000000	78.513184	-137.1420
11380.000000	78.971306	-132.2713
11500.000000	79.387489	-129.5110
11720.000000	80.294067	-125.8179
11800.000000	80.673683	-125.0624
12060.000000	82.032059	-125.6267
12200.000000	82.768234	-128.1943
12410.000000	83.681610	-135.1478
12500.000000	83.899117	-139.1665
12650.000000	83.939880	-146.2574
12800.000000	83.596245	-152.9460
13150.000000	81.984489	-161.9958
13200.000000	81.718597	-162.4646
13400.000000	80.751762	-163.3227
13600.000000	79.949631	-161.9348
13800.000000	79.365852	-160.0196
14000.000000	78.973053	-157.2413
14300.000000	78.762436	-152.7958
14500.000000	78.962479	-150.0811
14750.000000	79.485222	-147.9604
15000.000000	80.425682	-147.5974
15250.000000	81.761108	-151.1746
15500.000000	83.258057	-161.3925
15750.000000	84.101929	179.4666
16000.000000	83.143234	157.8199
16250.000000	81.061798	143.0338
16500.000000	78.943634	135.1668
16750.000000	77.207291	131.6265
17000.000000	75.869980	129.5762
17250.000000	75.041359	128.1529
17500.000000	74.515968	126.3150
17750.000000	74.355087	121.8600
18000.000000	74.543648	112.7858
18250.000000	75.161942	100.2305
18500.000000	75.922684	83.1954
18750.000000	76.782402	63.2692
19000.000000	77.033791	38.8544
19250.000000	76.730148	11.8888
19500.000000	75.534767	-16.5881
19750.000000	73.807434	-46.3517
