* Measurement data measured by REW V5.20 Beta 60
* Source: Headset (USB-C to 3.5mm Headphone Jack Adapter), MICROPHONE (Master Volume), R, volume: 0.258
* Format: 256k Log Swept Sine, 1 sweep at -12.0 dBFS with no timing reference
* Dated: Mar 12, 2021 6:48:17 PM
* REW Settings:
*  C-weighting compensation: Off
*  Target level: 75.0 dB
* Note: ; 
* Measurement: Unique Melody Mason L
* Smoothing: None
* Frequency Step: 1/48 octave
* Start Frequency: 20.000 Hz
*
* Freq(Hz)	SPL(dB)	Phase(degrees)
20.000000	85.620796	-139.7005
20.299999	85.706200	-140.5915
20.600000	85.760376	-141.4985
20.900000	85.783577	-142.3039
21.200001	85.792114	-142.9293
21.400000	85.798691	-143.2313
21.799999	85.830215	-143.6287
22.000000	85.861557	-143.7891
22.400000	85.957787	-144.2109
22.700001	86.041267	-144.6668
23.000000	86.118950	-145.2562
23.299999	86.183563	-145.9386
23.600000	86.229965	-146.6441
24.000000	86.265244	-147.5316
24.299999	86.280167	-148.1210
24.700001	86.294327	-148.7835
25.000000	86.306496	-149.2001
25.400000	86.332733	-149.6940
25.799999	86.369537	-150.1448
26.200001	86.417252	-150.6175
26.500000	86.457535	-151.0115
26.900000	86.509636	-151.5772
27.200001	86.545860	-152.0268
27.600000	86.590248	-152.6386
28.000000	86.628311	-153.2485
28.500000	86.670784	-154.0199
29.000000	86.704857	-154.7636
29.500000	86.734482	-155.4481
30.000000	86.765335	-156.0393
30.400000	86.799377	-156.4921
30.700001	86.828949	-156.8417
31.100000	86.868736	-157.3533
31.500000	86.902596	-157.9084
32.000000	86.930176	-158.5678
32.500000	86.953331	-159.1271
33.000000	86.985641	-159.6007
33.500000	87.029327	-160.1014
34.000000	87.071220	-160.6816
34.500000	87.103828	-161.3185
35.000000	87.120163	-161.9244
35.500000	87.127609	-162.4498
36.000000	87.134911	-162.8811
36.500000	87.150078	-163.2703
37.000000	87.176186	-163.6730
37.500000	87.208717	-164.1590
38.200001	87.236198	-164.9610
38.700001	87.236259	-165.5112
39.500000	87.238609	-166.1879
40.000000	87.253288	-166.5803
40.599998	87.270332	-167.1364
41.200001	87.273041	-167.6880
41.799999	87.269348	-168.1236
42.500000	87.274582	-168.4683
43.099998	87.302383	-168.6897
43.700001	87.360794	-168.9835
44.400002	87.442932	-169.6681
45.000000	87.476730	-170.5370
45.500000	87.463593	-171.2348
46.200001	87.415573	-171.8899
46.799999	87.390488	-172.2341
47.500000	87.384262	-172.6521
48.200001	87.377739	-173.1058
48.700001	87.373032	-173.4227
49.400002	87.369308	-173.8325
50.000000	87.368683	-174.1385
50.799999	87.392151	-174.6011
51.500000	87.410973	-175.1548
52.200001	87.394196	-175.6915
53.000000	87.376221	-175.9753
53.799999	87.412048	-176.3047
54.500000	87.428253	-176.9084
55.200001	87.400925	-177.4558
56.000000	87.372597	-177.8179
57.000000	87.367699	-178.3391
58.000000	87.357918	-178.9404
59.000000	87.355347	-179.5729
60.000000	87.352203	179.7363
60.799999	87.335434	179.2029
61.500000	87.320274	178.8522
62.200001	87.319702	178.5743
63.000000	87.329735	178.2050
64.000000	87.329552	177.7188
65.000000	87.330994	177.2511
66.000000	87.302048	176.6988
67.000000	87.261414	176.4183
68.000000	87.262634	176.0451
69.000000	87.239166	175.4337
70.000000	87.198425	175.0016
71.000000	87.188927	174.5792
72.000000	87.178360	174.0068
73.000000	87.151100	173.5042
74.000000	87.136177	173.0947
75.000000	87.112511	172.6840
76.199997	87.107132	172.4111
77.500000	87.102898	171.7383
78.800003	87.061157	171.3500
80.000000	87.052887	170.8490
81.199997	87.015717	170.3434
82.500000	86.983673	169.9046
83.800003	86.964439	169.4680
85.000000	86.946953	169.0428
86.199997	86.915817	168.5892
87.500000	86.874474	168.2650
88.500000	86.857979	167.9959
90.000000	86.830833	167.5052
91.199997	86.802132	167.0041
92.500000	86.748322	166.5738
93.800003	86.719986	166.2878
95.000000	86.702744	165.8741
96.199997	86.655777	165.4774
97.500000	86.619202	165.2364
98.800003	86.588593	164.8698
100.000000	86.568169	164.5574
101.500000	86.533081	163.9419
103.000000	86.477936	163.5636
104.400002	86.448273	163.2359
106.000000	86.407974	162.9633
107.500000	86.390823	162.5906
109.000000	86.347672	162.1599
110.599998	86.263870	161.7518
112.000000	86.250671	161.6887
113.800003	86.212585	161.0868
115.000000	86.175827	160.8357
117.199997	86.137238	160.3206
118.000000	86.098755	160.1330
120.599998	86.011276	159.7435
122.000000	85.992783	159.5256
124.099998	85.936508	159.0895
125.000000	85.913818	158.9336
126.500000	85.873932	158.6239
128.000000	85.829178	158.4191
131.500000	85.741570	157.7617
132.000000	85.727394	157.6851
134.000000	85.677185	157.3750
136.000000	85.635773	157.1912
138.000000	85.570755	156.9289
140.000000	85.514603	156.4129
143.000000	85.428879	156.0977
145.000000	85.376030	155.8006
147.500000	85.313904	155.4348
150.000000	85.249504	155.1605
152.500000	85.203293	154.8240
155.000000	85.145905	154.4471
157.500000	85.074074	154.1583
160.000000	85.020164	153.9467
162.500000	84.976341	153.6660
165.000000	84.924110	153.4931
167.500000	84.870895	153.1795
170.000000	84.814774	153.0089
172.500000	84.742256	152.6993
175.000000	84.672005	152.5393
177.500000	84.607964	152.4442
180.000000	84.544174	152.1886
182.500000	84.487747	151.9744
185.000000	84.416229	151.7604
187.500000	84.354134	151.6910
190.000000	84.289047	151.4927
192.500000	84.223892	151.2401
195.000000	84.182320	151.0616
197.500000	84.120743	150.9757
200.000000	84.051735	150.8442
203.000000	83.985100	150.6337
206.000000	83.926979	150.4225
209.000000	83.859978	150.3139
212.000000	83.792427	150.2467
214.000000	83.745766	150.0736
218.000000	83.661766	149.9315
220.000000	83.638878	149.7983
224.000000	83.579330	149.8009
227.000000	83.535912	149.5918
230.000000	83.469391	149.4891
233.000000	83.433395	149.3692
236.000000	83.387436	149.2950
240.000000	83.304886	149.0959
243.000000	83.245865	148.9857
247.000000	83.186172	149.0298
250.000000	83.148880	148.8809
254.000000	83.078171	148.7702
258.000000	83.004852	148.7639
262.000000	82.943848	148.7051
265.000000	82.886574	148.6250
269.000000	82.828003	148.5321
272.000000	82.782471	148.5740
276.000000	82.708229	148.5512
280.000000	82.660347	148.4243
285.000000	82.593109	148.3552
290.000000	82.539993	148.3439
295.000000	82.470131	148.3094
300.000000	82.401360	148.2517
304.000000	82.352821	148.3580
307.000000	82.306473	148.3005
311.000000	82.273933	148.2889
315.000000	82.202950	148.3046
320.000000	82.157959	148.2731
325.000000	82.101746	148.4145
330.000000	82.039101	148.3052
335.000000	81.992935	148.3737
340.000000	81.931427	148.3903
345.000000	81.887810	148.4510
350.000000	81.832108	148.4305
355.000000	81.795074	148.5474
360.000000	81.730354	148.5465
365.000000	81.688690	148.6726
370.000000	81.636841	148.7188
375.000000	81.606537	148.6957
382.000000	81.538147	148.7156
387.000000	81.508591	148.8370
395.000000	81.457512	148.9410
400.000000	81.416306	149.0652
406.000000	81.375763	149.0778
412.000000	81.339760	149.2071
418.000000	81.302254	149.2778
425.000000	81.268051	149.3361
431.000000	81.234795	149.4195
437.000000	81.202881	149.5461
444.000000	81.167175	149.6596
450.000000	81.152527	149.8194
455.000000	81.135117	149.8068
462.000000	81.110893	149.8475
468.000000	81.078339	149.9084
475.000000	81.043060	149.9132
482.000000	81.023125	149.9784
487.000000	81.006729	150.0006
494.000000	80.984673	150.0547
500.000000	80.973984	150.1407
508.000000	80.953506	150.2943
515.000000	80.930229	150.4398
522.000000	80.916870	150.5763
530.000000	80.898560	150.6848
538.000000	80.890045	150.7916
545.000000	80.874023	150.9330
552.000000	80.862251	151.1031
560.000000	80.851784	151.2627
570.000000	80.837723	151.4231
580.000000	80.827965	151.6120
590.000000	80.820305	151.7741
600.000000	80.817055	151.9657
608.000000	80.815247	152.1348
615.000000	80.827316	152.2865
622.000000	80.820503	152.3909
630.000000	80.837372	152.4959
640.000000	80.847740	152.7244
650.000000	80.863274	152.8868
660.000000	80.877876	153.0967
670.000000	80.896790	153.2573
680.000000	80.918770	153.4642
690.000000	80.938019	153.6252
700.000000	80.955872	153.7500
710.000000	80.981155	153.9932
720.000000	81.002693	154.1708
730.000000	81.033386	154.3201
740.000000	81.062485	154.5278
750.000000	81.090729	154.6876
762.000000	81.130257	154.8914
775.000000	81.174301	155.0842
788.000000	81.218315	155.3078
800.000000	81.263435	155.5172
812.000000	81.301674	155.6907
825.000000	81.356926	155.8705
838.000000	81.418297	156.0797
850.000000	81.469711	156.2737
862.000000	81.521477	156.4327
875.000000	81.589256	156.5982
885.000000	81.642868	156.7424
900.000000	81.719360	156.8815
912.000000	81.791016	157.0216
925.000000	81.867027	157.1604
938.000000	81.944778	157.3044
950.000000	82.025581	157.3848
962.000000	82.098175	157.4888
975.000000	82.178543	157.5394
988.000000	82.277634	157.6202
1000.000000	82.429916	157.8137
1015.000000	82.447815	157.6123
1030.000000	82.532379	157.6215
1044.000000	82.627502	157.5152
1060.000000	82.735909	157.3719
1075.000000	82.833275	157.2527
1090.000000	82.953743	157.0515
1106.000000	83.072258	156.8239
1120.000000	83.172722	156.5897
1138.000000	83.299385	156.1727
1150.000000	83.377838	155.8953
1172.000000	83.522614	155.3797
1180.000000	83.571205	155.1798
1206.000000	83.725037	154.4995
1220.000000	83.800964	154.0651
1241.000000	83.916931	153.4551
1250.000000	83.958832	153.1636
1265.000000	84.030067	152.6810
1280.000000	84.090439	152.2666
1315.000000	84.223305	151.2164
1320.000000	84.240616	151.0633
1340.000000	84.301155	150.5249
1360.000000	84.358467	149.9590
1380.000000	84.399315	149.4709
1400.000000	84.446999	149.0139
1430.000000	84.501671	148.3992
1450.000000	84.529877	148.0468
1475.000000	84.561760	147.5870
1500.000000	84.591461	147.2792
1525.000000	84.615250	147.0150
1550.000000	84.641357	146.7074
1575.000000	84.666969	146.5381
1600.000000	84.693916	146.4491
1625.000000	84.724335	146.3939
1650.000000	84.752060	146.3549
1675.000000	84.781677	146.3770
1700.000000	84.809021	146.4679
1725.000000	84.848434	146.5289
1750.000000	84.887733	146.6586
1775.000000	84.932457	146.8253
1800.000000	84.971558	147.0494
1825.000000	85.019943	147.1897
1850.000000	85.077499	147.4239
1875.000000	85.135857	147.6244
1900.000000	85.198944	147.7834
1925.000000	85.255737	147.9799
1950.000000	85.317574	148.2202
1975.000000	85.370445	148.3201
2000.000000	85.374130	148.2673
2030.000000	85.519493	148.8015
2060.000000	85.621536	149.0969
2090.000000	85.706985	149.2752
2120.000000	85.793655	149.4755
2140.000000	85.856743	149.5868
2180.000000	85.977089	149.7798
2200.000000	86.043381	149.8721
2240.000000	86.172440	149.8065
2270.000000	86.250549	149.5211
2300.000000	86.344147	149.0505
2330.000000	86.431732	148.4555
2360.000000	86.512589	147.9182
2400.000000	86.612114	147.3134
2430.000000	86.698906	147.0695
2470.000000	86.792778	146.8705
2500.000000	86.857620	146.6396
2540.000000	86.930077	146.3304
2580.000000	86.993889	145.9561
2620.000000	87.048424	145.5981
2650.000000	87.080490	145.3596
2690.000000	87.118668	145.0137
2720.000000	87.141747	144.7159
2760.000000	87.150688	144.3907
2800.000000	87.155251	144.0538
2850.000000	87.150970	143.6465
2900.000000	87.142052	143.2823
2950.000000	87.135330	143.0005
3000.000000	87.123604	143.0363
3040.000000	87.124771	142.4790
3070.000000	87.128357	142.1882
3110.000000	87.135071	141.8274
3150.000000	87.149620	141.3960
3200.000000	87.164879	140.7221
3250.000000	87.182106	139.7843
3300.000000	87.198013	138.5892
3350.000000	87.184937	136.9529
3400.000000	87.125923	134.9647
3450.000000	87.012550	132.5715
3500.000000	86.821243	129.8972
3550.000000	86.507233	126.9894
3600.000000	86.043961	123.9724
3650.000000	85.416885	121.2829
3700.000000	84.604965	119.0615
3750.000000	83.650833	117.8784
3820.000000	82.063507	118.5668
3870.000000	80.832527	121.0595
3950.000000	78.884445	129.8420
4000.000000	77.912132	138.4645
4060.000000	77.366066	151.5439
4120.000000	77.571884	164.0887
4180.000000	78.308632	173.8312
4250.000000	79.415817	-179.4101
4310.000000	80.196304	-177.1188
4370.000000	80.525459	-176.4702
4440.000000	80.431648	-172.8576
4500.000000	80.625679	-166.9439
4550.000000	81.080772	-162.5629
4620.000000	81.864609	-158.1627
4680.000000	82.521210	-155.6151
4750.000000	83.223404	-153.3148
4820.000000	83.871506	-151.7117
4870.000000	84.329193	-150.6797
4940.000000	84.936035	-149.5276
5000.000000	85.451256	-148.7072
5080.000000	86.135101	-147.5568
5150.000000	86.746162	-146.8809
5220.000000	87.377327	-146.4913
5300.000000	88.107941	-146.4380
5380.000000	88.874741	-146.8272
5450.000000	89.549095	-147.7153
5520.000000	90.204727	-149.1402
5600.000000	90.933014	-151.6481
5700.000000	91.783195	-156.1911
5800.000000	92.462578	-162.3007
5900.000000	92.863129	-169.5883
6000.000000	92.902016	-177.2468
6080.000000	92.713821	177.1189
6150.000000	92.414818	172.8377
6220.000000	92.040039	169.2587
6300.000000	91.573868	166.0833
6400.000000	90.986549	163.3896
6500.000000	90.449799	161.7529
6600.000000	90.004150	160.7827
6700.000000	89.645210	160.2275
6800.000000	89.348061	159.7689
6900.000000	89.112762	159.2711
7000.000000	88.921432	159.2368
7100.000000	88.868340	159.6709
7200.000000	89.046539	159.5770
7300.000000	89.284248	158.0793
7400.000000	89.488518	155.2604
7500.000000	89.610901	151.4251
7620.000000	89.589539	145.7492
7750.000000	89.279709	138.7034
7880.000000	88.590851	131.3658
8000.000000	87.638176	125.1063
8120.000000	86.428352	120.4081
8250.000000	85.011101	117.2563
8380.000000	83.560905	115.9058
8500.000000	82.270454	116.0604
8620.000000	81.055031	117.1370
8750.000000	79.767624	119.1137
8850.000000	78.819511	121.1157
9000.000000	77.558327	124.7490
9120.000000	76.628403	128.1249
9250.000000	75.678864	131.7285
9380.000000	74.847816	135.3745
9500.000000	74.131889	139.4717
9620.000000	73.502197	143.1778
9750.000000	72.853577	147.1261
9880.000000	72.246849	151.0819
10000.000000	71.822037	155.0183
10150.000000	71.276115	159.1379
10300.000000	70.814156	163.2241
10440.000000	70.556892	166.6156
10600.000000	70.249413	170.4216
10750.000000	69.982742	173.2047
10900.000000	69.811249	175.5954
11060.000000	69.478027	176.9914
11200.000000	69.186104	178.1086
11380.000000	68.651848	179.1383
11500.000000	68.302559	179.6618
11720.000000	67.282188	-178.5365
11800.000000	66.983887	-177.1572
12060.000000	66.130447	-172.2745
12200.000000	65.618179	-171.6199
12410.000000	64.951187	-166.1032
12500.000000	64.659546	-166.4966
12650.000000	64.396927	-160.9429
12800.000000	64.120972	-156.7327
13150.000000	64.088448	-144.7025
13200.000000	64.332581	-143.7388
13400.000000	65.067024	-142.5785
13600.000000	65.557205	-141.1904
13800.000000	66.077591	-143.9150
14000.000000	65.925453	-146.5403
14300.000000	65.512482	-147.7220
14500.000000	65.430481	-147.2633
14750.000000	65.753281	-147.7404
15000.000000	66.091217	-149.4362
15250.000000	66.970085	-154.3913
15500.000000	67.094368	-166.8808
15750.000000	65.829468	178.4733
16000.000000	63.407700	174.2341
16250.000000	61.695496	-176.4702
16500.000000	62.290932	-166.8871
16750.000000	64.342941	-166.9678
17000.000000	66.346954	-174.8527
17250.000000	68.149475	167.8134
17500.000000	69.003914	145.8699
17750.000000	68.986107	118.8435
18000.000000	67.866081	87.5027
18250.000000	66.021606	61.3952
18500.000000	63.750134	38.5990
18750.000000	61.678932	20.4904
19000.000000	59.725754	7.2175
19250.000000	58.332153	-5.9019
19500.000000	57.315201	-14.4102
19750.000000	56.980698	-31.0370
