* Measurement data measured by REW V5.20.3
* Source: In 1-2 (MOTU M Series), LINE_IN (Master Volume), L, volume: 0.450
* Format: 256k Log Swept Sine, 1 sweep at -12.0 dBFS with no timing reference
* Dated: Sep 7, 2022 8:40:40 AM
* REW Settings:
*  C-weighting compensation: Off
*  Target level: 75.0 dB
* Note: ; 
* Measurement: UM MEST MKI JP L
* Smoothing: None
* Frequency Step: 1/48 octave
* Start Frequency: 20.000 Hz
*
* Freq(Hz) SPL(dB) Phase(degrees)
20.000000	91.123	173.4758
20.299999	91.103	172.7913
20.600000	91.078	172.1709
20.900000	91.053	171.6412
21.200001	91.036	171.1834
21.400000	91.029	170.9201
21.799999	91.025	170.4824
22.000000	91.029	170.2758
22.400000	91.049	169.7820
22.700001	91.066	169.3812
23.000000	91.076	168.9487
23.299999	91.078	168.4841
23.600000	91.067	168.0494
24.000000	91.039	167.5648
24.299999	91.015	167.2589
24.700001	90.987	166.8896
25.000000	90.970	166.6026
25.400000	90.944	166.1586
25.799999	90.903	165.6727
26.200001	90.852	165.2229
26.500000	90.818	164.9355
26.900000	90.783	164.5798
27.200001	90.767	164.2517
27.600000	90.751	163.6737
28.000000	90.718	163.0225
28.500000	90.660	162.3401
29.000000	90.636	161.9283
29.500000	90.677	161.3872
30.000000	90.718	160.3992
30.400000	90.691	159.5255
30.700001	90.636	159.1310
31.100000	90.581	159.1737
31.500000	90.629	159.5843
32.000000	90.854	159.4877
32.500000	91.076	157.7859
33.000000	91.055	155.2064
33.500000	90.753	153.4370
34.000000	90.390	153.7122
34.500000	90.254	155.2454
35.000000	90.351	156.1216
35.500000	90.444	155.6184
36.000000	90.387	154.7484
36.500000	90.249	154.5224
37.000000	90.187	154.8570
37.500000	90.232	154.8885
38.200001	90.276	153.8113
38.700001	90.205	152.9164
39.500000	90.065	152.4941
40.000000	90.061	152.4343
40.599998	90.089	151.8550
41.200001	90.033	151.0227
41.799999	89.911	150.8342
42.500000	89.897	151.4352
43.099998	90.021	151.2567
43.700001	90.072	150.0222
44.400002	89.926	148.7245
45.000000	89.782	148.5645
45.500000	89.741	148.5330
46.200001	89.708	147.8841
46.799999	89.606	147.2524
47.500000	89.492	147.1138
48.200001	89.466	147.0562
48.700001	89.467	146.8224
49.400002	89.467	146.4074
50.000000	89.475	145.9417
50.799999	89.436	145.0941
51.500000	89.343	144.6986
52.200001	89.290	144.6585
53.000000	89.262	144.2663
53.799999	89.174	143.7716
54.500000	89.110	143.5786
55.200001	89.075	143.1140
56.000000	88.976	142.5423
57.000000	88.961	142.4318
58.000000	88.995	140.9706
59.000000	88.849	140.3995
60.000000	88.975	139.7633
60.799999	88.891	137.9862
61.500000	88.721	137.6403
62.200001	88.710	137.2860
63.000000	88.547	135.8294
64.000000	88.303	137.0395
65.000000	88.628	135.6756
66.000000	88.177	133.3269
67.000000	88.275	136.2964
68.000000	88.564	132.4756
69.000000	87.828	132.2837
70.000000	88.002	135.9616
71.000000	88.085	134.5610
72.000000	87.904	135.5546
73.000000	87.991	135.3243
74.000000	87.835	134.8113
75.000000	87.859	134.6943
76.199997	87.759	133.6082
77.500000	87.818	133.3787
78.800003	87.729	132.5606
80.000000	87.791	132.3160
81.199997	87.603	131.5136
82.500000	87.586	131.7415
83.800003	87.417	130.9759
85.000000	87.426	131.0060
86.199997	87.331	130.1182
87.500000	87.287	130.1554
88.500000	87.228	129.7564
90.000000	87.176	129.7497
91.199997	87.091	129.2090
92.500000	87.025	129.0946
93.800003	87.013	128.4537
95.000000	86.891	127.7294
96.199997	86.857	128.1823
97.500000	86.865	127.3549
98.800003	86.763	127.1849
100.000000	86.670	127.3235
101.500000	86.820	126.6347
103.000000	86.529	125.4749
104.400002	86.486	125.6560
106.000000	86.460	125.4975
107.500000	86.347	124.9518
109.000000	86.307	124.6072
110.599998	86.217	124.6891
112.000000	86.180	124.0126
113.800003	86.134	123.7650
115.000000	86.030	123.4253
117.199997	85.975	122.8582
118.000000	85.933	122.8803
120.599998	85.891	122.2721
122.000000	85.846	121.4830
124.099998	85.747	121.5401
125.000000	85.731	121.3188
126.500000	85.641	121.1464
128.000000	85.630	120.8392
131.500000	85.515	120.0325
132.000000	85.485	120.1609
134.000000	85.481	119.3002
136.000000	85.344	120.4441
138.000000	85.258	119.3409
140.000000	85.235	119.7933
143.000000	85.016	118.8187
145.000000	85.082	117.9149
147.500000	85.054	117.7247
150.000000	84.920	117.0414
152.500000	84.991	116.9798
155.000000	84.775	116.5727
157.500000	84.746	114.5301
160.000000	84.641	115.8008
162.500000	84.586	113.9214
165.000000	85.017	113.8134
167.500000	84.806	115.0639
170.000000	84.860	112.9794
172.500000	84.325	115.8083
175.000000	84.424	116.4057
177.500000	84.554	121.7829
180.000000	84.415	115.6900
182.500000	83.769	112.6304
185.000000	83.850	117.2701
187.500000	84.356	110.9068
190.000000	83.962	111.4885
192.500000	84.496	112.4597
195.000000	84.279	112.2715
197.500000	84.095	111.6895
200.000000	83.863	110.4106
203.000000	83.782	110.2270
206.000000	83.880	109.8557
209.000000	83.987	109.7139
212.000000	83.776	109.1638
214.000000	83.794	108.6999
218.000000	83.684	108.2034
220.000000	83.665	107.6820
224.000000	83.460	107.8377
227.000000	83.563	106.3519
230.000000	83.601	106.3932
233.000000	83.598	106.4036
236.000000	83.589	106.1060
240.000000	83.487	105.4370
243.000000	83.464	105.4311
247.000000	83.471	104.9174
250.000000	83.396	104.5967
254.000000	83.374	104.5571
258.000000	83.385	104.1582
262.000000	83.318	103.6257
265.000000	83.324	103.3537
269.000000	83.320	103.0500
272.000000	83.293	102.5083
276.000000	83.274	102.6516
280.000000	83.224	101.6488
285.000000	83.188	101.0200
290.000000	83.143	100.3475
295.000000	83.131	100.0603
300.000000	83.090	99.7757
304.000000	83.099	99.4132
307.000000	83.030	99.0379
311.000000	83.018	98.7040
315.000000	82.978	98.6993
320.000000	82.951	98.0107
325.000000	82.965	98.1165
330.000000	82.969	97.7931
335.000000	82.978	97.6537
340.000000	83.029	97.4061
345.000000	83.092	96.7556
350.000000	83.115	96.0981
355.000000	83.090	95.3987
360.000000	83.078	94.8280
365.000000	83.096	94.1975
370.000000	83.039	93.7311
375.000000	83.031	93.0757
382.000000	83.004	92.4452
387.000000	82.985	91.9893
395.000000	82.995	91.4697
400.000000	82.948	91.0313
406.000000	82.960	90.5323
412.000000	82.920	90.0497
418.000000	82.924	89.7310
425.000000	82.900	89.2569
431.000000	82.908	88.7944
437.000000	82.914	88.5364
444.000000	82.908	88.2182
450.000000	82.903	87.6747
455.000000	82.923	87.5713
462.000000	82.938	87.1121
468.000000	82.944	86.8229
475.000000	82.936	86.3467
482.000000	82.946	85.8971
487.000000	82.942	85.6692
494.000000	82.936	85.3364
500.000000	82.942	84.9573
508.000000	82.950	84.6644
515.000000	82.956	84.3200
522.000000	82.951	83.9624
530.000000	82.969	83.6674
538.000000	82.970	83.3845
545.000000	82.980	83.1437
552.000000	82.977	82.8305
560.000000	83.004	82.6438
570.000000	83.032	82.2317
580.000000	83.045	81.9267
590.000000	83.068	81.6219
600.000000	83.097	81.3254
608.000000	83.120	81.0182
615.000000	83.147	80.8837
622.000000	83.168	80.6649
630.000000	83.211	80.3902
640.000000	83.251	80.0474
650.000000	83.301	79.7968
660.000000	83.333	79.3472
670.000000	83.382	79.1121
680.000000	83.433	78.6658
690.000000	83.488	78.1843
700.000000	83.523	77.4488
710.000000	83.477	76.6407
720.000000	83.392	76.4450
730.000000	83.361	76.6684
740.000000	83.381	76.7303
750.000000	83.409	76.6474
762.000000	83.445	76.5898
775.000000	83.479	76.4471
788.000000	83.505	76.2630
800.000000	83.528	76.1958
812.000000	83.552	76.1198
825.000000	83.583	75.9971
838.000000	83.603	75.8910
850.000000	83.632	75.8989
862.000000	83.659	75.8982
875.000000	83.691	75.8507
885.000000	83.722	75.8519
900.000000	83.751	75.8509
912.000000	83.797	75.8973
925.000000	83.833	76.0037
938.000000	83.878	76.0330
950.000000	83.925	76.0602
962.000000	83.968	76.1379
975.000000	84.024	76.2521
988.000000	84.074	76.3025
1000.000000	84.130	76.3200
1015.000000	84.198	76.3960
1030.000000	84.274	76.4715
1044.000000	84.337	76.4783
1060.000000	84.419	76.4393
1075.000000	84.495	76.4092
1090.000000	84.587	76.3792
1106.000000	84.680	76.3145
1120.000000	84.765	76.1532
1138.000000	84.866	75.9615
1150.000000	84.943	75.8346
1172.000000	85.055	75.5812
1180.000000	85.097	75.4171
1206.000000	85.229	74.9771
1220.000000	85.299	74.7456
1241.000000	85.410	74.4204
1250.000000	85.455	74.1922
1265.000000	85.523	73.9375
1280.000000	85.585	73.6452
1315.000000	85.720	72.9676
1320.000000	85.741	72.8941
1340.000000	85.806	72.4998
1360.000000	85.869	72.1359
1380.000000	85.925	71.8456
1400.000000	85.985	71.5523
1430.000000	86.061	71.0823
1450.000000	86.104	70.7794
1475.000000	86.158	70.5065
1500.000000	86.209	70.2600
1525.000000	86.263	69.9876
1550.000000	86.311	69.7859
1575.000000	86.365	69.5855
1600.000000	86.419	69.4576
1625.000000	86.465	69.2769
1650.000000	86.522	69.1516
1675.000000	86.568	69.0262
1700.000000	86.621	68.9613
1725.000000	86.672	68.8858
1750.000000	86.727	68.7837
1775.000000	86.787	68.7080
1800.000000	86.829	68.6428
1825.000000	86.892	68.5776
1850.000000	86.945	68.5267
1875.000000	87.011	68.4370
1900.000000	87.062	68.3588
1925.000000	87.131	68.2648
1950.000000	87.188	68.1343
1975.000000	87.249	68.0663
2000.000000	87.307	67.9605
2030.000000	87.378	67.7790
2060.000000	87.462	67.5437
2090.000000	87.526	67.2980
2120.000000	87.605	67.0276
2140.000000	87.652	66.8098
2180.000000	87.750	66.3788
2200.000000	87.791	66.1880
2240.000000	87.884	65.5945
2270.000000	87.934	65.1617
2300.000000	88.010	64.6929
2330.000000	88.060	64.1384
2360.000000	88.114	63.5185
2400.000000	88.175	62.7409
2430.000000	88.214	62.0661
2470.000000	88.255	61.1019
2500.000000	88.272	60.3320
2540.000000	88.290	59.3279
2580.000000	88.297	58.2006
2620.000000	88.292	57.0555
2650.000000	88.289	56.1327
2690.000000	88.266	54.8919
2720.000000	88.242	53.9709
2760.000000	88.185	52.6487
2800.000000	88.123	51.2866
2850.000000	88.035	49.5729
2900.000000	87.926	47.8042
2950.000000	87.803	46.0280
3000.000000	87.674	44.1429
3040.000000	87.571	42.6923
3070.000000	87.477	41.5740
3110.000000	87.347	40.0107
3150.000000	87.221	38.3916
3200.000000	87.058	36.3892
3250.000000	86.864	34.3380
3300.000000	86.678	32.2615
3350.000000	86.494	30.0923
3400.000000	86.300	27.9330
3450.000000	86.121	25.8052
3500.000000	85.966	23.6371
3550.000000	85.795	21.3168
3600.000000	85.653	19.0674
3650.000000	85.511	16.7432
3700.000000	85.407	14.3831
3750.000000	85.317	11.8997
3820.000000	85.245	8.3276
3870.000000	85.210	5.5350
3950.000000	85.164	0.7278
4000.000000	85.077	-2.3356
4060.000000	85.111	-5.1390
4120.000000	85.204	-8.6266
4180.000000	85.304	-12.2449
4250.000000	85.437	-16.2727
4310.000000	85.575	-19.6406
4370.000000	85.761	-22.8143
4440.000000	86.035	-26.1957
4500.000000	86.327	-28.9679
4550.000000	86.623	-31.2208
4620.000000	87.095	-34.4113
4680.000000	87.559	-37.2723
4750.000000	88.160	-41.1164
4820.000000	88.758	-45.7313
4870.000000	89.125	-49.5691
4940.000000	89.496	-55.1934
5000.000000	89.644	-59.7985
5080.000000	89.693	-64.8531
5150.000000	89.676	-68.1136
5220.000000	89.673	-70.4941
5300.000000	89.720	-72.4810
5380.000000	89.820	-73.9857
5450.000000	89.934	-75.2036
5520.000000	90.029	-76.2271
5600.000000	90.149	-77.3429
5700.000000	90.293	-78.6338
5800.000000	90.430	-79.7946
5900.000000	90.545	-80.8440
6000.000000	90.628	-81.6320
6080.000000	90.691	-82.0651
6150.000000	90.742	-82.3401
6220.000000	90.788	-82.4167
6300.000000	90.848	-82.4082
6400.000000	90.923	-82.0519
6500.000000	91.013	-81.4940
6600.000000	91.123	-80.7019
6700.000000	91.256	-79.7477
6800.000000	91.413	-78.7964
6900.000000	91.616	-77.8099
7000.000000	91.853	-76.7962
7100.000000	92.115	-75.7098
7200.000000	92.432	-74.6846
7300.000000	92.802	-73.8982
7400.000000	93.190	-73.6233
7500.000000	93.586	-73.8136
7620.000000	94.035	-74.7684
7750.000000	94.418	-76.7079
7880.000000	94.625	-79.3994
8000.000000	94.653	-82.2639
8120.000000	94.506	-85.1138
8250.000000	94.169	-87.7052
8380.000000	93.695	-89.5179
8500.000000	93.182	-90.3867
8620.000000	92.627	-90.4832
8750.000000	91.984	-89.8782
8850.000000	91.491	-88.9368
9000.000000	90.764	-86.9778
9120.000000	90.213	-84.9465
9250.000000	89.626	-82.4393
9380.000000	89.045	-79.4830
9500.000000	88.542	-76.3976
9620.000000	88.062	-73.0995
9750.000000	87.583	-69.3023
9880.000000	87.153	-65.2310
10000.000000	86.787	-61.3366
10150.000000	86.334	-56.2027
10300.000000	85.960	-50.7639
10440.000000	85.664	-45.4578
10600.000000	85.403	-39.1879
10750.000000	85.211	-33.2416
10900.000000	85.120	-27.1890
11060.000000	85.139	-20.7325
11200.000000	85.295	-15.4527
11380.000000	85.566	-9.7367
11500.000000	85.784	-6.3594
11720.000000	86.279	-1.3396
11800.000000	86.484	-0.0413
12060.000000	87.069	1.8820
12200.000000	87.273	1.4466
12410.000000	87.353	-0.7258
12500.000000	87.240	-1.7999
12650.000000	86.867	-3.4209
12800.000000	86.291	-4.3412
13150.000000	84.495	-2.3253
13200.000000	84.228	-1.5771
13400.000000	83.147	2.8106
13600.000000	82.195	8.8534
13800.000000	81.400	16.0186
14000.000000	80.859	23.8099
14300.000000	80.449	35.3193
14500.000000	80.459	42.2144
14750.000000	80.711	48.7689
15000.000000	81.015	52.2137
15250.000000	81.099	52.1776
15500.000000	80.599	49.7585
15750.000000	79.418	48.4494
16000.000000	77.880	50.1112
16250.000000	76.295	55.2419
16500.000000	74.810	62.6148
16750.000000	73.583	72.1841
17000.000000	72.715	83.3318
17250.000000	72.426	94.5044
17500.000000	72.537	102.8360
17750.000000	72.994	105.6634
18000.000000	72.611	106.4557
18250.000000	72.021	108.0596
18500.000000	71.323	109.7155
18750.000000	70.616	112.7275
19000.000000	69.942	114.8588
19250.000000	69.225	118.5762
19500.000000	68.562	122.5067
19750.000000	67.832	128.1902
