* Measurement data measured by REW V5.20 Beta 60
* Source: Headset (USB-C to 3.5mm Headphone Jack Adapter), MICROPHONE (Master Volume), R, volume: 0.258
* Format: 256k Log Swept Sine, 1 sweep at -12.0 dBFS with no timing reference
* Dated: Mar 12, 2021 5:21:47 PM
* REW Settings:
*  C-weighting compensation: Off
*  Target level: 75.0 dB
* Note: ; 
* Measurement: Vision Ears VE6 X1 L
* Smoothing: None
* Frequency Step: 1/48 octave
* Start Frequency: 20.000 Hz
*
* Freq(Hz)	SPL(dB)	Phase(degrees)
20.000000	87.431778	24.9768
20.299999	87.397186	22.8805
20.600000	87.242592	21.3458
20.900000	87.030144	20.6851
21.200001	86.850800	20.9104
21.400000	86.787003	21.3330
21.799999	86.791824	22.2398
22.000000	86.841751	22.4598
22.400000	86.954987	22.1590
22.700001	86.986832	21.5337
23.000000	86.952438	20.9308
23.299999	86.881157	20.6118
23.600000	86.811256	20.6485
24.000000	86.777145	21.0588
24.299999	86.810944	21.3061
24.700001	86.899277	21.2245
25.000000	86.956635	20.8371
25.400000	86.988800	20.0993
25.799999	86.974518	19.4634
26.200001	86.956696	19.0527
26.500000	86.962479	18.8024
26.900000	86.993874	18.3784
27.200001	87.019859	17.9083
27.600000	87.031685	17.1207
28.000000	86.998322	16.3518
28.500000	86.913383	15.7410
29.000000	86.838028	15.7020
29.500000	86.828354	16.0524
30.000000	86.896667	16.4419
30.400000	86.994270	16.5647
30.700001	87.078026	16.5052
31.100000	87.185822	16.2171
31.500000	87.274475	15.7383
32.000000	87.341835	15.0324
32.500000	87.363228	14.3690
33.000000	87.351967	13.8973
33.500000	87.329727	13.6438
34.000000	87.317635	13.5493
34.500000	87.329315	13.4443
35.000000	87.347183	13.2124
35.500000	87.348946	12.8655
36.000000	87.328583	12.5637
36.500000	87.307877	12.3896
37.000000	87.312683	12.2551
37.500000	87.340149	11.9551
38.200001	87.350533	11.2227
38.700001	87.316261	10.7526
39.500000	87.264534	10.5550
40.000000	87.274254	10.6168
40.599998	87.321785	10.5922
41.200001	87.384308	10.4039
41.799999	87.444817	10.0389
42.500000	87.476151	9.4265
43.099998	87.451736	8.9803
43.700001	87.411316	8.8271
44.400002	87.390823	8.8194
45.000000	87.389618	8.7315
45.500000	87.383438	8.6133
46.200001	87.377068	8.5143
46.799999	87.395287	8.3839
47.500000	87.423531	7.9868
48.200001	87.424736	7.5349
48.700001	87.426353	7.3246
49.400002	87.466576	7.0720
50.000000	87.514114	6.6311
50.799999	87.522812	5.8381
51.500000	87.482460	5.5837
52.200001	87.483490	5.7457
53.000000	87.547791	5.7272
53.799999	87.574928	5.3395
54.500000	87.545738	5.1185
55.200001	87.515465	5.1184
56.000000	87.502083	5.1380
57.000000	87.489326	4.9531
58.000000	87.457413	4.6870
59.000000	87.442726	4.5057
60.000000	87.451424	4.1153
60.799999	87.431725	3.8578
61.500000	87.441216	3.8146
62.200001	87.477791	3.6063
63.000000	87.484833	3.2329
64.000000	87.480858	3.1045
65.000000	87.501572	2.8718
66.000000	87.487450	2.6971
67.000000	87.486855	2.5524
68.000000	87.463448	2.5268
69.000000	87.504929	2.5530
70.000000	87.516876	2.1167
71.000000	87.495155	1.9498
72.000000	87.487007	1.7420
73.000000	87.470795	1.6865
74.000000	87.498291	1.4674
75.000000	87.472328	1.0368
76.199997	87.464455	1.0290
77.500000	87.499199	0.3976
78.800003	87.430168	0.3641
80.000000	87.492035	0.3385
81.199997	87.459641	0.2954
82.500000	87.534599	0.1414
83.800003	87.427063	-0.1265
85.000000	87.487495	0.1656
86.199997	87.466782	-0.4428
87.500000	87.512108	-0.3741
88.500000	87.526062	-1.1987
90.000000	87.450745	-0.8889
91.199997	87.531509	-1.0390
92.500000	87.529770	-1.2633
93.800003	87.501183	-1.4900
95.000000	87.495224	-1.3823
96.199997	87.492340	-1.7694
97.500000	87.441101	-1.7676
98.800003	87.481773	-1.7901
100.000000	87.471756	-2.0747
101.500000	87.507065	-2.1361
103.000000	87.462456	-2.2995
104.400002	87.535263	-2.4545
106.000000	87.459335	-2.9262
107.500000	87.490311	-2.8577
109.000000	87.498993	-3.2022
110.599998	87.515335	-3.3021
112.000000	87.531799	-3.4853
113.800003	87.505188	-3.8386
115.000000	87.479446	-3.8247
117.199997	87.485695	-4.0910
118.000000	87.482018	-4.2332
120.599998	87.460808	-4.4760
122.000000	87.491913	-4.7995
124.099998	87.436867	-4.8538
125.000000	87.426376	-4.7092
126.500000	87.514236	-4.9389
128.000000	87.450760	-5.6327
131.500000	87.445351	-5.9179
132.000000	87.430511	-5.9483
134.000000	87.438652	-5.8622
136.000000	87.414665	-6.1649
138.000000	87.376419	-6.0160
140.000000	87.381409	-6.1666
143.000000	87.401062	-6.6965
145.000000	87.378647	-7.0998
147.500000	87.334122	-7.0293
150.000000	87.350471	-7.4187
152.500000	87.303879	-7.6258
155.000000	87.335365	-7.8640
157.500000	87.300591	-7.8952
160.000000	87.356613	-7.9944
162.500000	87.244591	-8.2306
165.000000	87.311646	-8.5809
167.500000	87.278984	-8.6604
170.000000	87.312515	-9.2382
172.500000	87.298126	-9.3424
175.000000	87.276718	-9.3964
177.500000	87.277954	-9.5695
180.000000	87.223892	-9.8751
182.500000	87.269646	-10.1800
185.000000	87.240280	-10.1867
187.500000	87.226181	-10.2542
190.000000	87.169495	-10.8347
192.500000	87.165245	-10.6864
195.000000	87.173439	-10.7306
197.500000	87.107208	-11.0026
200.000000	87.092049	-11.3632
203.000000	87.075897	-11.4940
206.000000	87.074539	-11.4914
209.000000	87.052322	-11.7172
212.000000	87.048737	-11.9064
214.000000	87.021324	-12.1694
218.000000	86.992744	-12.4950
220.000000	86.984756	-12.4692
224.000000	87.008614	-12.7106
227.000000	87.000397	-12.9164
230.000000	86.989281	-12.9783
233.000000	86.991653	-13.3161
236.000000	86.977501	-13.6214
240.000000	86.966064	-13.7307
243.000000	86.941498	-13.9846
247.000000	86.912781	-14.2269
250.000000	86.910202	-14.3981
254.000000	86.883987	-14.6454
258.000000	86.873947	-15.0265
262.000000	86.867447	-15.1812
265.000000	86.833023	-15.2287
269.000000	86.815765	-15.5886
272.000000	86.761360	-15.6392
276.000000	86.767105	-15.9212
280.000000	86.754059	-16.0929
285.000000	86.763428	-16.7211
290.000000	86.713226	-16.7358
295.000000	86.675392	-16.9990
300.000000	86.665215	-17.2342
304.000000	86.642342	-17.5145
307.000000	86.630257	-17.2450
311.000000	86.637787	-17.7448
315.000000	86.537949	-17.6066
320.000000	86.594658	-18.0535
325.000000	86.561699	-18.4264
330.000000	86.509674	-18.7792
335.000000	86.518417	-19.0246
340.000000	86.471954	-19.1552
345.000000	86.500076	-19.5813
350.000000	86.432732	-19.6398
355.000000	86.352165	-20.0433
360.000000	86.366646	-20.1439
365.000000	86.363075	-20.4245
370.000000	86.350189	-20.7376
375.000000	86.323502	-21.0193
382.000000	86.287392	-21.3970
387.000000	86.268402	-21.6797
395.000000	86.232719	-22.1024
400.000000	86.209656	-22.2928
406.000000	86.167145	-22.7142
412.000000	86.141884	-23.0196
418.000000	86.117371	-23.3445
425.000000	86.095642	-23.5635
431.000000	86.037407	-23.8780
437.000000	86.002945	-24.0462
444.000000	85.952934	-24.3110
450.000000	85.940735	-24.5266
455.000000	85.945465	-24.8931
462.000000	85.890694	-25.2511
468.000000	85.874329	-25.6514
475.000000	85.814079	-25.9530
482.000000	85.789528	-26.3478
487.000000	85.756874	-26.5798
494.000000	85.720360	-27.0278
500.000000	85.705154	-27.2472
508.000000	85.636826	-27.4269
515.000000	85.610916	-27.8111
522.000000	85.549507	-28.1765
530.000000	85.522636	-28.3660
538.000000	85.461472	-28.6623
545.000000	85.435432	-28.9270
552.000000	85.386574	-29.1288
560.000000	85.332512	-29.3929
570.000000	85.269562	-29.6638
580.000000	85.219910	-30.0690
590.000000	85.164307	-30.4285
600.000000	85.093719	-30.6730
608.000000	85.049973	-30.8982
615.000000	85.011497	-31.1246
622.000000	84.977333	-31.3267
630.000000	84.929970	-31.5505
640.000000	84.867043	-31.8974
650.000000	84.804306	-32.1194
660.000000	84.745819	-32.4759
670.000000	84.689667	-32.7399
680.000000	84.618279	-32.9831
690.000000	84.549362	-33.1686
700.000000	84.467888	-33.3821
710.000000	84.400826	-33.5419
720.000000	84.321915	-33.7031
730.000000	84.250427	-33.7802
740.000000	84.173134	-33.9168
750.000000	84.097412	-34.0019
762.000000	84.009445	-34.0441
775.000000	83.908775	-34.0417
788.000000	83.802849	-34.0257
800.000000	83.715004	-33.9379
812.000000	83.628044	-33.8357
825.000000	83.541138	-33.6326
838.000000	83.449638	-33.4815
850.000000	83.372795	-33.2212
862.000000	83.296799	-32.9863
875.000000	83.219521	-32.6845
885.000000	83.165550	-32.4125
900.000000	83.091095	-32.0292
912.000000	83.036926	-31.5930
925.000000	82.979935	-31.2021
938.000000	82.936478	-30.7618
950.000000	82.900650	-30.3040
962.000000	82.874687	-29.8842
975.000000	82.841690	-29.3825
988.000000	82.839333	-28.8055
1000.000000	82.885872	-28.2572
1015.000000	82.799774	-27.8426
1030.000000	82.776726	-27.2909
1044.000000	82.769211	-26.7982
1060.000000	82.780746	-26.2542
1075.000000	82.799545	-25.7588
1090.000000	82.832123	-25.2751
1106.000000	82.869537	-24.8134
1120.000000	82.905586	-24.4110
1138.000000	82.948799	-23.9675
1150.000000	82.992043	-23.6243
1172.000000	83.046654	-23.2333
1180.000000	83.078407	-23.0551
1206.000000	83.162178	-22.5710
1220.000000	83.207977	-22.3237
1241.000000	83.282936	-22.0584
1250.000000	83.316330	-21.9177
1265.000000	83.359695	-21.7156
1280.000000	83.415649	-21.5395
1315.000000	83.535561	-21.0716
1320.000000	83.549118	-21.0146
1340.000000	83.619431	-20.7788
1360.000000	83.674461	-20.4633
1380.000000	83.734741	-20.2436
1400.000000	83.789513	-19.9465
1430.000000	83.878181	-19.4878
1450.000000	83.942070	-19.1828
1475.000000	84.020432	-18.7549
1500.000000	84.092552	-18.3486
1525.000000	84.160599	-17.8880
1550.000000	84.252785	-17.4544
1575.000000	84.346321	-17.0394
1600.000000	84.434769	-16.4978
1625.000000	84.530746	-16.0384
1650.000000	84.627525	-15.5584
1675.000000	84.730980	-15.0357
1700.000000	84.830826	-14.5243
1725.000000	84.943008	-14.0335
1750.000000	85.048325	-13.5498
1775.000000	85.160835	-13.0582
1800.000000	85.275955	-12.5697
1825.000000	85.388138	-12.1349
1850.000000	85.501724	-11.6313
1875.000000	85.620850	-11.1567
1900.000000	85.745491	-10.6636
1925.000000	85.860649	-10.1381
1950.000000	85.981094	-9.6452
1975.000000	86.094879	-9.1937
2000.000000	86.160309	-8.9341
2030.000000	86.388184	-7.9776
2060.000000	86.580917	-7.3123
2090.000000	86.762779	-6.7109
2120.000000	86.951508	-6.1792
2140.000000	87.086487	-5.7947
2180.000000	87.356415	-5.1803
2200.000000	87.495522	-4.9082
2240.000000	87.783600	-4.5857
2270.000000	87.987442	-4.6557
2300.000000	88.191124	-4.9715
2330.000000	88.412697	-5.3625
2360.000000	88.625488	-5.8340
2400.000000	88.915184	-6.3145
2430.000000	89.147324	-6.5149
2470.000000	89.428780	-6.7873
2500.000000	89.639717	-7.0678
2540.000000	89.913078	-7.6601
2580.000000	90.165390	-8.3697
2620.000000	90.410736	-9.2505
2650.000000	90.584473	-10.0283
2690.000000	90.787361	-11.1318
2720.000000	90.924217	-12.0850
2760.000000	91.069527	-13.3554
2800.000000	91.180069	-14.7381
2850.000000	91.269196	-16.5119
2900.000000	91.304688	-18.2775
2950.000000	91.285797	-19.9030
3000.000000	91.216362	-20.9844
3040.000000	91.129723	-22.2608
3070.000000	91.052864	-22.9524
3110.000000	90.937752	-23.5605
3150.000000	90.817551	-23.9940
3200.000000	90.667023	-24.2287
3250.000000	90.513184	-24.2286
3300.000000	90.377579	-23.9010
3350.000000	90.258629	-23.4276
3400.000000	90.156281	-22.7632
3450.000000	90.097404	-21.9323
3500.000000	90.073280	-21.0303
3550.000000	90.067352	-20.0355
3600.000000	90.085495	-19.0340
3650.000000	90.125885	-17.9919
3700.000000	90.189278	-16.9238
3750.000000	90.269798	-15.9090
3820.000000	90.418312	-14.5020
3870.000000	90.534317	-13.5290
3950.000000	90.743553	-12.1649
4000.000000	90.868095	-11.5516
4060.000000	91.101242	-10.4735
4120.000000	91.323997	-9.8208
4180.000000	91.567947	-9.3939
4250.000000	91.871895	-9.0917
4310.000000	92.121628	-9.1665
4370.000000	92.363861	-9.5087
4440.000000	92.628258	-10.1002
4500.000000	92.828262	-10.8073
4550.000000	92.976883	-11.4929
4620.000000	93.161209	-12.5998
4680.000000	93.287827	-13.6347
4750.000000	93.399254	-14.9165
4820.000000	93.468193	-16.2859
4870.000000	93.498337	-17.2686
4940.000000	93.500969	-18.6639
5000.000000	93.468925	-19.8435
5080.000000	93.410454	-20.8206
5150.000000	93.351791	-21.5771
5220.000000	93.303413	-22.2569
5300.000000	93.267303	-23.0635
5380.000000	93.223907	-24.0593
5450.000000	93.158432	-25.1434
5520.000000	93.008614	-26.4117
5600.000000	92.757286	-27.9310
5700.000000	92.291405	-29.6108
5800.000000	91.679253	-30.4815
5900.000000	90.967033	-29.9484
6000.000000	90.245476	-27.8791
6080.000000	89.749840	-25.1224
6150.000000	89.393715	-22.0730
6220.000000	89.131050	-18.4286
6300.000000	88.984268	-13.6320
6400.000000	89.153511	-7.0242
6500.000000	89.762413	-1.8229
6600.000000	90.541725	0.6904
6700.000000	91.233490	0.7535
6800.000000	91.732101	-0.0531
6900.000000	92.168274	-1.0759
7000.000000	92.620377	-2.6108
7100.000000	93.022354	-4.9962
7200.000000	93.310165	-8.2570
7300.000000	93.431458	-12.3314
7400.000000	93.313766	-16.6769
7500.000000	92.947121	-20.5352
7620.000000	92.240143	-23.7246
7750.000000	91.300957	-24.4106
7880.000000	90.472992	-22.4473
8000.000000	89.950592	-19.7690
8120.000000	89.559029	-16.8767
8250.000000	89.261902	-13.6131
8380.000000	89.100220	-10.1216
8500.000000	89.072792	-6.9032
8620.000000	89.175903	-4.0293
8750.000000	89.408302	-1.2855
8850.000000	89.675781	0.3402
9000.000000	90.291145	1.6712
9120.000000	90.894165	0.2744
9250.000000	91.474861	-3.2070
9380.000000	91.894562	-8.8995
9500.000000	91.990433	-15.7886
9620.000000	91.709175	-23.2793
9750.000000	91.017174	-30.8470
9880.000000	90.045082	-36.8500
10000.000000	89.011642	-40.9644
10150.000000	87.711601	-44.3305
10300.000000	86.399490	-46.5721
10440.000000	85.159576	-47.5082
10600.000000	83.994186	-47.2790
10750.000000	82.860352	-48.5456
10900.000000	81.547066	-48.7891
11060.000000	80.203674	-47.6446
11200.000000	79.031311	-46.6918
11380.000000	77.494225	-44.1554
11500.000000	76.503807	-42.0335
11720.000000	74.761925	-36.5008
11800.000000	74.185844	-34.2369
12060.000000	72.519142	-26.6474
12200.000000	71.578148	-22.0305
12410.000000	70.421616	-14.6415
12500.000000	70.071259	-11.2412
12650.000000	69.483948	-5.3286
12800.000000	69.005165	0.2796
13150.000000	68.077576	13.8468
13200.000000	68.032570	15.6786
13400.000000	67.680267	23.0549
13600.000000	67.550072	31.0050
13800.000000	67.676949	37.9178
14000.000000	67.921547	43.9793
14300.000000	68.536362	50.8357
14500.000000	68.971977	54.3674
14750.000000	69.715714	58.5007
15000.000000	70.706291	59.8753
15250.000000	72.110184	57.8241
15500.000000	73.486946	52.3547
15750.000000	74.736893	37.2864
16000.000000	74.402290	20.4800
16250.000000	73.713120	9.3845
16500.000000	73.184975	-1.9979
16750.000000	72.973404	-15.6604
17000.000000	72.297745	-35.6985
17250.000000	70.288467	-55.9044
17500.000000	67.619423	-71.2286
17750.000000	64.463051	-84.9414
18000.000000	61.781715	-93.7782
18250.000000	59.289108	-102.8834
18500.000000	57.069012	-105.9400
18750.000000	56.003235	-107.9887
19000.000000	55.486343	-110.4197
19250.000000	54.845108	-117.3506
19500.000000	55.238964	-130.6087
19750.000000	55.717567	-139.3105
