* Measurement data measured by REW V5.20 Beta 60
* Source: Headset (USB-C to 3.5mm Headphone Jack Adapter), MICROPHONE (Master Volume), R, volume: 0.258
* Format: 256k Log Swept Sine, 1 sweep at -12.0 dBFS with no timing reference
* Dated: Mar 12, 2021 5:33:39 PM
* REW Settings:
*  C-weighting compensation: Off
*  Target level: 75.0 dB
* Note: ; 
* Measurement: Vision Ears VE3.2 R
* Smoothing: None
* Frequency Step: 1/48 octave
* Start Frequency: 20.000 Hz
*
* Freq(Hz)	SPL(dB)	Phase(degrees)
20.000000	85.503136	-151.5721
20.299999	85.331520	-151.6413
20.600000	85.219368	-150.9205
20.900000	85.227142	-149.7537
21.200001	85.373833	-148.7711
21.400000	85.513123	-148.4867
21.799999	85.804619	-148.8223
22.000000	85.918510	-149.3501
22.400000	86.039780	-150.6801
22.700001	86.047935	-151.4905
23.000000	86.027901	-151.9111
23.299999	86.025620	-152.0204
23.600000	86.057686	-152.0045
24.000000	86.146172	-152.1148
24.299999	86.218658	-152.4256
24.700001	86.287842	-153.0387
25.000000	86.315598	-153.4958
25.400000	86.343658	-154.0013
25.799999	86.383560	-154.4568
26.200001	86.432976	-155.0670
26.500000	86.458176	-155.6599
26.900000	86.453934	-156.4921
27.200001	86.425339	-157.0087
27.600000	86.378647	-157.4213
28.000000	86.356873	-157.5656
28.500000	86.391098	-157.7238
29.000000	86.456009	-158.1467
29.500000	86.504547	-158.7751
30.000000	86.524208	-159.3257
30.400000	86.539154	-159.6388
30.700001	86.556961	-159.8176
31.100000	86.590958	-160.0608
31.500000	86.629944	-160.3644
32.000000	86.668175	-160.8068
32.500000	86.688049	-161.2480
33.000000	86.693146	-161.5798
33.500000	86.698059	-161.7916
34.000000	86.715981	-161.9445
34.500000	86.754204	-162.1774
35.000000	86.795967	-162.5728
35.500000	86.821594	-163.1453
36.000000	86.813812	-163.7930
36.500000	86.770248	-164.3716
37.000000	86.709885	-164.7114
37.500000	86.666489	-164.7945
38.200001	86.666275	-164.8138
38.700001	86.694717	-164.9735
39.500000	86.740166	-165.4175
40.000000	86.769043	-165.7026
40.599998	86.809731	-166.1294
41.200001	86.840149	-166.6772
41.799999	86.848663	-167.2201
42.500000	86.845352	-167.7234
43.099998	86.842743	-168.1064
43.700001	86.835739	-168.4442
44.400002	86.831451	-168.7371
45.000000	86.840630	-168.9901
45.500000	86.846283	-169.2492
46.200001	86.839630	-169.5327
46.799999	86.843857	-169.6375
47.500000	86.878387	-169.8116
48.200001	86.911285	-170.1506
48.700001	86.924515	-170.4313
49.400002	86.933846	-170.8092
50.000000	86.927307	-171.1099
50.799999	86.914825	-171.3875
51.500000	86.926025	-171.5450
52.200001	86.941116	-171.8622
53.000000	86.927574	-172.2368
53.799999	86.918411	-172.4183
54.500000	86.924286	-172.6267
55.200001	86.921402	-172.8629
56.000000	86.921860	-173.0333
57.000000	86.937866	-173.3539
58.000000	86.932968	-173.7095
59.000000	86.929092	-173.9752
60.000000	86.935104	-174.2151
60.799999	86.945946	-174.4518
61.500000	86.953514	-174.7344
62.200001	86.947304	-175.0119
63.000000	86.937935	-175.2099
64.000000	86.945633	-175.4659
65.000000	86.940018	-175.8046
66.000000	86.925362	-176.0333
67.000000	86.918800	-176.2607
68.000000	86.920197	-176.4707
69.000000	86.933197	-176.8923
70.000000	86.893646	-177.2805
71.000000	86.886856	-177.2856
72.000000	86.922806	-177.5109
73.000000	86.943985	-177.8325
74.000000	86.954285	-178.1816
75.000000	86.949539	-178.3828
76.199997	86.956047	-178.6943
77.500000	86.930191	-178.7018
78.800003	86.984032	-179.0303
80.000000	86.954971	-179.4123
81.199997	86.953972	-179.6780
82.500000	86.924072	-179.9180
83.800003	86.915863	-179.9734
85.000000	86.943924	179.8962
86.199997	86.930283	179.4203
87.500000	86.895187	179.3046
88.500000	86.901558	179.0981
90.000000	86.890854	178.7141
91.199997	86.891960	178.3645
92.500000	86.860489	178.0699
93.800003	86.874252	178.0202
95.000000	86.868942	177.6245
96.199997	86.836288	177.5791
97.500000	86.832092	177.3660
98.800003	86.807045	177.2661
100.000000	86.809677	177.0234
101.500000	86.786987	176.7350
103.000000	86.772789	176.5983
104.400002	86.790085	176.3746
106.000000	86.776070	176.1377
107.500000	86.766563	175.9409
109.000000	86.775391	175.7648
110.599998	86.731430	175.4351
112.000000	86.744965	175.3699
113.800003	86.689270	174.8708
115.000000	86.695679	174.9946
117.199997	86.662079	174.5102
118.000000	86.687210	174.6217
120.599998	86.661484	174.1550
122.000000	86.663094	174.0379
124.099998	86.628151	173.8524
125.000000	86.615662	173.9011
126.500000	86.611839	173.4929
128.000000	86.562798	173.5539
131.500000	86.522163	172.9246
132.000000	86.521408	172.9017
134.000000	86.521103	172.6235
136.000000	86.506248	172.5030
138.000000	86.480225	172.2132
140.000000	86.476952	172.0856
143.000000	86.433960	171.7170
145.000000	86.392014	171.5853
147.500000	86.394882	171.3685
150.000000	86.367493	170.9684
152.500000	86.332939	170.8624
155.000000	86.322723	170.6660
157.500000	86.315826	170.3410
160.000000	86.279007	170.1116
162.500000	86.244576	169.8528
165.000000	86.231628	169.8185
167.500000	86.243309	169.5468
170.000000	86.227463	169.2961
172.500000	86.162941	169.1205
175.000000	86.132278	169.0219
177.500000	86.096909	168.7976
180.000000	86.060997	168.5867
182.500000	86.026993	168.3654
185.000000	85.990982	168.2105
187.500000	85.960335	168.0397
190.000000	85.941338	167.8210
192.500000	85.894753	167.6615
195.000000	85.853172	167.5144
197.500000	85.829994	167.4069
200.000000	85.778252	167.3374
203.000000	85.757187	167.0628
206.000000	85.712105	166.9118
209.000000	85.675636	166.7455
212.000000	85.627625	166.6149
214.000000	85.592041	166.4418
218.000000	85.553978	166.2267
220.000000	85.550568	166.2499
224.000000	85.501373	166.0213
227.000000	85.461563	165.7308
230.000000	85.445862	165.6499
233.000000	85.425087	165.6317
236.000000	85.401398	165.3806
240.000000	85.359825	165.0991
243.000000	85.305855	165.0040
247.000000	85.274704	164.8143
250.000000	85.257385	164.7865
254.000000	85.187378	164.6591
258.000000	85.154190	164.4172
262.000000	85.101830	164.3750
265.000000	85.064880	164.2496
269.000000	85.005981	164.1429
272.000000	84.986183	163.9392
276.000000	84.926849	163.9603
280.000000	84.894653	163.8290
285.000000	84.823296	163.6445
290.000000	84.779411	163.5301
295.000000	84.711029	163.3738
300.000000	84.666290	163.2264
304.000000	84.630150	163.2183
307.000000	84.593544	163.1553
311.000000	84.547913	163.0641
315.000000	84.506454	162.9588
320.000000	84.444794	163.0154
325.000000	84.403351	162.9282
330.000000	84.339806	162.7482
335.000000	84.286308	162.7633
340.000000	84.224838	162.6829
345.000000	84.175926	162.6212
350.000000	84.118034	162.6595
355.000000	84.075768	162.5319
360.000000	84.003830	162.5123
365.000000	83.955826	162.5654
370.000000	83.908798	162.5241
375.000000	83.860725	162.4373
382.000000	83.788857	162.4899
387.000000	83.742157	162.4521
395.000000	83.666191	162.4875
400.000000	83.605965	162.5280
406.000000	83.560654	162.5387
412.000000	83.502670	162.5323
418.000000	83.454140	162.6190
425.000000	83.383926	162.7092
431.000000	83.339737	162.6629
437.000000	83.291389	162.6921
444.000000	83.241516	162.8460
450.000000	83.195274	162.9235
455.000000	83.162476	162.9803
462.000000	83.108246	162.9659
468.000000	83.057945	162.9559
475.000000	83.000870	162.9899
482.000000	82.947365	162.9979
487.000000	82.906662	163.0559
494.000000	82.854118	163.0479
500.000000	82.818687	163.1835
508.000000	82.754395	163.3358
515.000000	82.713387	163.4753
522.000000	82.672699	163.6462
530.000000	82.588501	163.7897
538.000000	82.537186	163.9158
545.000000	82.483589	164.1052
552.000000	82.453995	164.2427
560.000000	82.401871	164.4815
570.000000	82.321312	164.6726
580.000000	82.270782	165.0018
590.000000	82.200294	165.2350
600.000000	82.146042	165.6015
608.000000	82.107346	165.8557
615.000000	82.073662	166.0874
622.000000	82.036751	166.2938
630.000000	82.006012	166.6268
640.000000	81.954010	166.8892
650.000000	81.923088	167.2134
660.000000	81.885933	167.5929
670.000000	81.849533	167.9011
680.000000	81.812241	168.2925
690.000000	81.773651	168.6829
700.000000	81.741371	169.0426
710.000000	81.708595	169.4765
720.000000	81.673531	169.8677
730.000000	81.659492	170.3047
740.000000	81.629120	170.6748
750.000000	81.609535	171.1204
762.000000	81.584023	171.7065
775.000000	81.563744	172.2438
788.000000	81.543396	172.7245
800.000000	81.544579	173.2812
812.000000	81.518967	174.0031
825.000000	81.523224	174.5430
838.000000	81.515160	175.2020
850.000000	81.523911	175.6837
862.000000	81.528702	176.2981
875.000000	81.550690	176.9313
885.000000	81.553291	177.4009
900.000000	81.582977	178.1573
912.000000	81.613007	178.6500
925.000000	81.657707	179.2913
938.000000	81.704468	179.8452
950.000000	81.748672	-179.5938
962.000000	81.796852	-179.1058
975.000000	81.853111	-178.5763
988.000000	81.933716	-178.0272
1000.000000	82.064346	-177.3836
1015.000000	82.064247	-177.0375
1030.000000	82.132851	-176.5878
1044.000000	82.217819	-176.1746
1060.000000	82.315094	-175.7831
1075.000000	82.405991	-175.4032
1090.000000	82.520920	-175.0569
1106.000000	82.632927	-174.8347
1120.000000	82.734886	-174.6443
1138.000000	82.868347	-174.4349
1150.000000	82.956406	-174.3156
1172.000000	83.109245	-174.2670
1180.000000	83.167587	-174.2552
1206.000000	83.357224	-174.2385
1220.000000	83.441704	-174.2344
1241.000000	83.598358	-174.3494
1250.000000	83.655960	-174.4004
1265.000000	83.758362	-174.6126
1280.000000	83.845215	-174.6508
1315.000000	84.061829	-174.9911
1320.000000	84.094826	-175.0544
1340.000000	84.197601	-175.2422
1360.000000	84.316475	-175.4039
1380.000000	84.429359	-175.6331
1400.000000	84.530533	-175.9212
1430.000000	84.672585	-176.2946
1450.000000	84.766891	-176.4015
1475.000000	84.899368	-176.7628
1500.000000	85.015785	-177.0579
1525.000000	85.118340	-177.2653
1550.000000	85.222931	-177.5187
1575.000000	85.336975	-177.9013
1600.000000	85.441086	-178.1826
1625.000000	85.555298	-178.4651
1650.000000	85.654518	-178.6501
1675.000000	85.773499	-178.9710
1700.000000	85.880249	-179.2442
1725.000000	85.990997	-179.5874
1750.000000	86.084625	-179.9277
1775.000000	86.197029	179.7079
1800.000000	86.290932	179.3268
1825.000000	86.393280	178.9764
1850.000000	86.481331	178.5405
1875.000000	86.570389	178.1431
1900.000000	86.668686	177.7052
1925.000000	86.747177	177.3035
1950.000000	86.822708	176.8125
1975.000000	86.885376	176.2545
2000.000000	86.891716	175.4895
2030.000000	87.032578	175.1978
2060.000000	87.115234	174.6381
2090.000000	87.180801	174.0140
2120.000000	87.236465	173.3063
2140.000000	87.269249	172.8922
2180.000000	87.312592	171.9830
2200.000000	87.339516	171.4962
2240.000000	87.366531	170.3611
2270.000000	87.364311	169.3104
2300.000000	87.337448	168.0670
2330.000000	87.307800	166.7444
2360.000000	87.263252	165.4391
2400.000000	87.153320	164.0110
2430.000000	87.050819	163.2842
2470.000000	86.851318	162.6075
2500.000000	86.690109	162.3994
2540.000000	86.460030	162.5328
2580.000000	86.244331	163.1132
2620.000000	86.053802	163.9371
2650.000000	85.941933	164.6115
2690.000000	85.810135	165.8204
2720.000000	85.732964	166.6865
2760.000000	85.644783	167.9872
2800.000000	85.586510	169.2896
2850.000000	85.544235	170.9873
2900.000000	85.547874	172.7643
2950.000000	85.590912	174.5645
3000.000000	85.669014	176.6149
3040.000000	85.778923	177.6020
3070.000000	85.866020	178.4007
3110.000000	86.006653	179.5583
3150.000000	86.170746	-179.4272
3200.000000	86.399612	-178.3894
3250.000000	86.646591	-177.6311
3300.000000	86.915565	-177.0958
3350.000000	87.197868	-176.9551
3400.000000	87.472839	-177.1248
3450.000000	87.746239	-177.7018
3500.000000	88.015816	-178.6195
3550.000000	88.233879	-179.8427
3600.000000	88.410149	178.7530
3650.000000	88.519432	177.2012
3700.000000	88.569046	175.6043
3750.000000	88.569244	174.0788
3820.000000	88.474579	172.1961
3870.000000	88.355698	171.1471
3950.000000	88.089684	169.9900
4000.000000	87.883095	169.5176
4060.000000	87.701874	169.7006
4120.000000	87.521599	170.1052
4180.000000	87.372467	170.6903
4250.000000	87.271263	171.7870
4310.000000	87.209190	172.5892
4370.000000	87.205658	173.3435
4440.000000	87.230850	174.1270
4500.000000	87.272713	174.6317
4550.000000	87.313370	174.8999
4620.000000	87.374222	175.1635
4680.000000	87.443680	175.1973
4750.000000	87.499107	174.9349
4820.000000	87.526283	174.4149
4870.000000	87.520744	173.9728
4940.000000	87.480553	173.2509
5000.000000	87.403793	172.4650
5080.000000	87.255608	171.8888
5150.000000	87.054092	171.3873
5220.000000	86.800766	171.1799
5300.000000	86.445908	171.3982
5380.000000	86.055794	172.2488
5450.000000	85.683548	173.8176
5520.000000	85.279968	176.2724
5600.000000	84.900772	-179.6420
5700.000000	84.789589	-172.6570
5800.000000	85.348724	-166.2230
5900.000000	86.272705	-164.2503
6000.000000	86.824043	-166.2664
6080.000000	86.844200	-167.9669
6150.000000	86.652512	-168.2860
6220.000000	86.398468	-166.5104
6300.000000	86.389534	-162.1003
6400.000000	87.078842	-157.0977
6500.000000	88.017090	-155.6663
6600.000000	88.852554	-156.4537
6700.000000	89.568390	-158.2159
6800.000000	90.205261	-160.6245
6900.000000	90.802460	-163.6389
7000.000000	91.356430	-167.3193
7100.000000	91.815758	-171.5574
7200.000000	92.175110	-176.2371
7300.000000	92.432091	178.7104
7400.000000	92.565948	173.3887
7500.000000	92.561478	168.1667
7620.000000	92.441071	162.5961
7750.000000	92.375992	156.6953
7880.000000	92.172256	149.4034
8000.000000	91.761765	142.1949
8120.000000	91.104729	135.0136
8250.000000	90.098511	127.9827
8380.000000	88.842812	122.7108
8500.000000	87.615646	119.9717
8620.000000	86.483757	118.9820
8750.000000	85.418907	118.4930
8850.000000	84.665009	118.1845
9000.000000	83.572639	118.5433
9120.000000	82.987152	119.0016
9250.000000	82.398407	116.6544
9380.000000	81.509445	113.7974
9500.000000	80.427109	111.4253
9620.000000	79.262695	110.4475
9750.000000	77.903175	110.3357
9880.000000	76.584854	112.0376
10000.000000	75.521385	114.9792
10150.000000	74.561035	119.5285
10300.000000	73.900696	120.9819
10440.000000	72.875427	120.7974
10600.000000	71.374237	123.4886
10750.000000	70.183762	127.7023
10900.000000	69.172531	132.1041
11060.000000	68.066704	137.2502
11200.000000	67.222473	143.6444
11380.000000	66.715706	151.2099
11500.000000	66.389435	155.5981
11720.000000	65.906433	162.9581
11800.000000	65.680397	165.5401
12060.000000	65.698540	174.4494
12200.000000	65.357162	177.3389
12410.000000	65.545685	-178.1572
12500.000000	65.523926	-177.5970
12650.000000	65.701340	-174.4326
12800.000000	65.763786	-172.6000
13150.000000	66.115189	-170.9037
13200.000000	66.025040	-170.4493
13400.000000	66.128075	-168.8695
13600.000000	66.181381	-167.5359
13800.000000	66.400864	-164.5582
14000.000000	66.825836	-160.7277
14300.000000	68.701935	-154.6716
14500.000000	71.112579	-155.8623
14750.000000	74.768974	-170.7297
15000.000000	77.451668	158.4569
15250.000000	78.226074	117.9286
15500.000000	76.941643	73.4645
15750.000000	73.825119	27.0563
16000.000000	67.928772	-20.1141
16250.000000	59.585590	-56.8171
16500.000000	51.402760	-90.1749
16750.000000	44.066704	-142.4774
17000.000000	42.933449	159.7441
17250.000000	42.589123	143.0024
17500.000000	43.211014	125.6179
17750.000000	43.057869	134.8214
18000.000000	41.074295	116.8440
18250.000000	41.454681	100.8547
18500.000000	43.289001	87.6215
18750.000000	42.604366	86.2434
19000.000000	41.169746	58.5439
19250.000000	38.359665	80.2983
19500.000000	36.264477	8.7275
19750.000000	37.294220	75.1750
