* Measurement data measured by REW V5.20 Beta 60
* Source: Headset (USB-C to 3.5mm Headphone Jack Adapter), MICROPHONE (Master Volume), R, volume: 0.250
* Format: 256k Log Swept Sine, 1 sweep at -12.0 dBFS with no timing reference
* Dated: Apr 18, 2021 5:51:34 PM
* REW Settings:
*  C-weighting compensation: Off
*  Target level: 75.0 dB
* Note: ; 
* Measurement: Vision Ears EVE20 L
* Smoothing: None
* Frequency Step: 1/48 octave
* Start Frequency: 20.000 Hz
*
* Freq(Hz)	SPL(dB)	Phase(degrees)
20.000000	89.476669	12.9773
20.299999	89.506119	12.8521
20.600000	89.539734	12.7245
20.900000	89.577774	12.5794
21.200001	89.624268	12.3587
21.400000	89.654343	12.1452
21.799999	89.697327	11.5608
22.000000	89.702965	11.2094
22.400000	89.671524	10.4911
22.700001	89.608421	10.1354
23.000000	89.530563	10.0877
23.299999	89.472473	10.3565
23.600000	89.458344	10.8309
24.000000	89.525467	11.4421
24.299999	89.624222	11.5943
24.700001	89.765076	11.2359
25.000000	89.838043	10.6450
25.400000	89.869766	9.7203
25.799999	89.841148	9.0198
26.200001	89.803238	8.6780
26.500000	89.795616	8.5672
26.900000	89.818497	8.4251
27.200001	89.848938	8.2046
27.600000	89.882706	7.7445
28.000000	89.886726	7.2329
28.500000	89.860313	6.7639
29.000000	89.837860	6.6082
29.500000	89.852158	6.5989
30.000000	89.895302	6.5130
30.400000	89.934296	6.3039
30.700001	89.955452	6.0870
31.100000	89.966118	5.7741
31.500000	89.957954	5.5113
32.000000	89.934952	5.3761
32.500000	89.928772	5.4198
33.000000	89.952286	5.4537
33.500000	89.985641	5.2856
34.000000	89.994484	4.9654
34.500000	89.977585	4.6989
35.000000	89.957001	4.6231
35.500000	89.962334	4.6247
36.000000	89.989265	4.5115
36.500000	90.012436	4.2166
37.000000	90.016487	3.8714
37.500000	90.010185	3.5798
38.200001	89.998596	3.2694
38.700001	89.988686	3.0924
39.500000	89.983238	2.9778
40.000000	89.998001	2.9521
40.599998	90.025711	2.8052
41.200001	90.041840	2.5502
41.799999	90.040100	2.3021
42.500000	90.022331	2.0992
43.099998	90.001167	2.0120
43.700001	89.986649	2.0176
44.400002	89.990372	2.0177
45.000000	89.998268	1.8958
45.500000	89.994339	1.7648
46.200001	89.984100	1.7096
46.799999	89.999413	1.7052
47.500000	90.034904	1.4746
48.200001	90.038094	1.0724
48.700001	90.018585	0.8559
49.400002	89.992821	0.7646
50.000000	89.985779	0.7615
50.799999	89.994820	0.6685
51.500000	90.003265	0.5466
52.200001	90.003632	0.3833
53.000000	89.993729	0.2391
53.799999	89.995903	0.1433
54.500000	89.998268	-0.0711
55.200001	89.974411	-0.2897
56.000000	89.946320	-0.2619
57.000000	89.972542	-0.2694
58.000000	89.979065	-0.5812
59.000000	89.970085	-0.7344
60.000000	89.967964	-0.9350
60.799999	89.949432	-1.0370
61.500000	89.944267	-1.0814
62.200001	89.939827	-1.1877
63.000000	89.925819	-1.2917
64.000000	89.913254	-1.4108
65.000000	89.899872	-1.5252
66.000000	89.901428	-1.6713
67.000000	89.891991	-1.9680
68.000000	89.864357	-2.1273
69.000000	89.860962	-2.1725
70.000000	89.864700	-2.3184
71.000000	89.850548	-2.4192
72.000000	89.853653	-2.3900
73.000000	89.863724	-2.4868
74.000000	89.867844	-2.6068
75.000000	89.854881	-2.8223
76.199997	89.836586	-2.8012
77.500000	89.841003	-3.1527
78.800003	89.791733	-3.1321
80.000000	89.813545	-3.1868
81.199997	89.807686	-3.3616
82.500000	89.797310	-3.4948
83.800003	89.792618	-3.5750
85.000000	89.786926	-3.6850
86.199997	89.790474	-3.8354
87.500000	89.764999	-4.0960
88.500000	89.750458	-4.1207
90.000000	89.735672	-4.3056
91.199997	89.723396	-4.3666
92.500000	89.695862	-4.5155
93.800003	89.688919	-4.4755
95.000000	89.684097	-4.6865
96.199997	89.661430	-4.7964
97.500000	89.650169	-4.8567
98.800003	89.645477	-4.9515
100.000000	89.635666	-5.0617
101.500000	89.610390	-5.1674
103.000000	89.584557	-5.2474
104.400002	89.562370	-5.3639
106.000000	89.532730	-5.4728
107.500000	89.522583	-5.6304
109.000000	89.516785	-5.6234
110.599998	89.515755	-5.8244
112.000000	89.488708	-5.9540
113.800003	89.464294	-5.8665
115.000000	89.454216	-5.9634
117.199997	89.415115	-6.3442
118.000000	89.398720	-6.1638
120.599998	89.387215	-6.2914
122.000000	89.385902	-6.4136
124.099998	89.358322	-6.5025
125.000000	89.330658	-6.5816
126.500000	89.317932	-6.6903
128.000000	89.275177	-6.5496
131.500000	89.270943	-6.9693
132.000000	89.262405	-7.0572
134.000000	89.196678	-6.8970
136.000000	89.172417	-6.9872
138.000000	89.174141	-7.0701
140.000000	89.122635	-7.0777
143.000000	89.110817	-7.2823
145.000000	89.049614	-7.2994
147.500000	89.021088	-7.5819
150.000000	88.992752	-7.5772
152.500000	88.960861	-7.7051
155.000000	88.959785	-7.7092
157.500000	88.909012	-7.6536
160.000000	88.897110	-7.8032
162.500000	88.869812	-7.8762
165.000000	88.858521	-7.8842
167.500000	88.814728	-7.8790
170.000000	88.774055	-7.9291
172.500000	88.756577	-8.0089
175.000000	88.705132	-8.1781
177.500000	88.664978	-8.0027
180.000000	88.632164	-8.0916
182.500000	88.581230	-8.1122
185.000000	88.558838	-8.0963
187.500000	88.509346	-8.1605
190.000000	88.456947	-8.1430
192.500000	88.411682	-8.1447
195.000000	88.384537	-8.1653
197.500000	88.350266	-8.2504
200.000000	88.335281	-8.2052
203.000000	88.262985	-8.1676
206.000000	88.211197	-8.2076
209.000000	88.191986	-8.2536
212.000000	88.130630	-8.3529
214.000000	88.097710	-8.1542
218.000000	88.049461	-8.2308
220.000000	88.031784	-7.9898
224.000000	88.008286	-8.0746
227.000000	87.979164	-7.9966
230.000000	87.925529	-8.0040
233.000000	87.874336	-8.1403
236.000000	87.871307	-8.0903
240.000000	87.794701	-7.9661
243.000000	87.739273	-8.0094
247.000000	87.709747	-7.8299
250.000000	87.663536	-7.7563
254.000000	87.611359	-7.7175
258.000000	87.570831	-7.6633
262.000000	87.502586	-7.5284
265.000000	87.469826	-7.4387
269.000000	87.400131	-7.3419
272.000000	87.360451	-7.3115
276.000000	87.305229	-7.1766
280.000000	87.259583	-7.0465
285.000000	87.205925	-6.9216
290.000000	87.135521	-6.7822
295.000000	87.078850	-6.6647
300.000000	87.065750	-6.4455
304.000000	86.957672	-6.2944
307.000000	86.917160	-6.1669
311.000000	86.870193	-6.0856
315.000000	86.812866	-5.8930
320.000000	86.752785	-5.7682
325.000000	86.690193	-5.5465
330.000000	86.626534	-5.3657
335.000000	86.563507	-5.1250
340.000000	86.511749	-4.9286
345.000000	86.446777	-4.7032
350.000000	86.384819	-4.4537
355.000000	86.311890	-4.2298
360.000000	86.249985	-3.9963
365.000000	86.188751	-3.6343
370.000000	86.139641	-3.4895
375.000000	86.082802	-3.3177
382.000000	85.988281	-2.9003
387.000000	85.938530	-2.6620
395.000000	85.855598	-2.2223
400.000000	85.861771	-1.9832
406.000000	85.721992	-1.6021
412.000000	85.679237	-1.2472
418.000000	85.614914	-0.9424
425.000000	85.550903	-0.4525
431.000000	85.473221	-0.3215
437.000000	85.402519	0.3891
444.000000	85.308105	0.9518
450.000000	85.246223	1.2430
455.000000	85.228432	1.1651
462.000000	85.186768	1.6255
468.000000	85.103027	1.9863
475.000000	85.057564	2.2979
482.000000	84.977127	2.8759
487.000000	84.943886	3.1511
494.000000	84.869583	3.4860
500.000000	84.775185	3.7286
508.000000	84.749809	4.5217
515.000000	84.691879	5.0336
522.000000	84.626480	5.4331
530.000000	84.544060	6.1011
538.000000	84.479515	6.6216
545.000000	84.420700	7.1651
552.000000	84.364769	7.6886
560.000000	84.303123	8.2841
570.000000	84.220856	9.0355
580.000000	84.134468	9.8558
590.000000	84.052597	10.6341
600.000000	83.987030	11.8196
608.000000	83.925156	12.0628
615.000000	83.873329	12.6517
622.000000	83.829239	13.2524
630.000000	83.781326	13.9331
640.000000	83.716248	14.7342
650.000000	83.655128	15.5579
660.000000	83.597542	16.4659
670.000000	83.545212	17.2949
680.000000	83.479652	18.2043
690.000000	83.431725	19.0893
700.000000	83.360809	20.3376
710.000000	83.326180	20.9351
720.000000	83.268478	21.8739
730.000000	83.225861	22.8124
740.000000	83.186348	23.7732
750.000000	83.132980	24.6357
762.000000	83.106171	25.9176
775.000000	83.050545	27.1050
788.000000	82.990540	28.4270
800.000000	82.891983	29.6633
812.000000	82.932739	30.7909
825.000000	82.901459	32.0698
838.000000	82.872902	33.4405
850.000000	82.858841	34.6975
862.000000	82.843735	35.8722
875.000000	82.844620	37.2329
885.000000	82.842133	38.1869
900.000000	82.899529	39.5092
912.000000	82.863106	40.9284
925.000000	82.881226	42.2447
938.000000	82.900162	43.5379
950.000000	82.935791	44.6584
962.000000	82.965324	45.8493
975.000000	83.001106	47.0450
988.000000	83.078568	48.3716
1000.000000	83.248199	49.5774
1015.000000	83.168121	50.7163
1030.000000	83.225655	51.9684
1044.000000	83.290421	53.0927
1060.000000	83.375580	54.3468
1075.000000	83.452698	55.4839
1090.000000	83.554993	56.5956
1106.000000	83.650848	57.6568
1120.000000	83.748840	58.5735
1138.000000	83.872208	59.6780
1150.000000	83.953484	60.4046
1172.000000	84.093094	61.6592
1180.000000	84.149597	62.0344
1206.000000	84.324814	63.3389
1220.000000	84.419632	64.0436
1241.000000	84.565628	64.9109
1250.000000	84.627563	65.3012
1265.000000	84.731064	65.9666
1280.000000	84.826309	66.5218
1315.000000	85.048141	67.8688
1320.000000	85.080940	68.0215
1340.000000	85.206940	68.6895
1360.000000	85.323631	69.3695
1380.000000	85.451508	70.0032
1400.000000	85.623932	70.7024
1430.000000	85.748550	71.5171
1450.000000	85.871918	72.0165
1475.000000	86.018524	72.6419
1500.000000	86.153015	73.5147
1525.000000	86.292923	73.7189
1550.000000	86.441757	74.1450
1575.000000	86.579773	74.5380
1600.000000	86.733063	74.5314
1625.000000	86.840401	75.0903
1650.000000	86.960449	75.2804
1675.000000	87.077393	75.4193
1700.000000	87.139023	75.5059
1725.000000	87.273483	75.5013
1750.000000	87.350082	75.4263
1775.000000	87.418312	75.3497
1800.000000	87.497223	75.4207
1825.000000	87.516541	75.0660
1850.000000	87.544785	74.8786
1875.000000	87.548988	74.7171
1900.000000	87.512192	74.5679
1925.000000	87.519615	74.4322
1950.000000	87.473129	74.3192
1975.000000	87.404556	74.2241
2000.000000	87.248230	73.9130
2030.000000	87.244560	74.3409
2060.000000	87.139084	74.6090
2090.000000	87.011726	74.9010
2120.000000	86.873199	75.3929
2140.000000	86.785217	75.7391
2180.000000	86.585114	76.6904
2200.000000	86.510689	77.2841
2240.000000	86.291092	78.3571
2270.000000	86.128860	79.1530
2300.000000	85.993507	79.9125
2330.000000	85.855186	80.6275
2360.000000	85.721832	81.5680
2400.000000	85.555229	83.1185
2430.000000	85.464897	84.6689
2470.000000	85.349564	87.0195
2500.000000	85.275002	88.8455
2540.000000	85.200905	91.3756
2580.000000	85.154579	93.8798
2620.000000	85.150986	96.5193
2650.000000	85.163666	98.4213
2690.000000	85.213356	101.0028
2720.000000	85.267258	102.8616
2760.000000	85.356194	105.2772
2800.000000	85.458221	107.6016
2850.000000	85.654350	110.2785
2900.000000	85.836494	112.6470
2950.000000	86.076416	114.6942
3000.000000	86.319359	116.9525
3040.000000	86.489944	117.7199
3070.000000	86.607750	118.4428
3110.000000	86.758781	119.2931
3150.000000	86.876610	120.0425
3200.000000	86.966873	120.7789
3250.000000	87.056610	121.7943
3300.000000	87.117119	123.0381
3350.000000	87.141106	124.2109
3400.000000	87.194794	125.8400
3450.000000	87.276894	127.2826
3500.000000	87.418030	128.7467
3550.000000	87.564896	130.4677
3600.000000	87.744194	131.7184
3650.000000	87.924446	133.1315
3700.000000	88.119537	134.4048
3750.000000	88.309235	135.1977
3820.000000	88.557968	136.3018
3870.000000	88.721916	136.9665
3950.000000	88.930962	137.7392
4000.000000	89.008553	138.1357
4060.000000	89.151520	138.6811
4120.000000	89.217911	139.1846
4180.000000	89.275879	139.8224
4250.000000	89.331573	140.8711
4310.000000	89.366463	141.8902
4370.000000	89.433777	143.0875
4440.000000	89.536530	144.6375
4500.000000	89.666107	146.0231
4550.000000	89.795647	147.1047
4620.000000	90.024704	148.4673
4680.000000	90.247093	149.3672
4750.000000	90.534302	150.0805
4820.000000	90.816055	150.3321
4870.000000	91.014038	150.2359
4940.000000	91.253357	149.6845
5000.000000	91.423660	148.8432
5080.000000	91.582115	147.7133
5150.000000	91.625305	146.4083
5220.000000	91.592583	145.0630
5300.000000	91.443993	143.6895
5380.000000	91.194206	142.6549
5450.000000	90.910873	141.9897
5520.000000	90.485458	141.3167
5600.000000	89.621368	142.1536
5700.000000	88.994469	147.5444
5800.000000	88.397362	154.2238
5900.000000	88.704704	161.7742
6000.000000	89.176468	166.3005
6080.000000	89.568253	169.1308
6150.000000	89.964455	171.2189
6220.000000	90.408127	172.8182
6300.000000	90.984886	173.7722
6400.000000	91.677589	172.6340
6500.000000	92.174789	173.6722
6600.000000	93.168831	169.3223
6700.000000	93.420227	160.2555
6800.000000	92.424301	151.7416
6900.000000	90.696968	151.2309
7000.000000	89.502411	158.9849
7100.000000	89.353271	168.9794
7200.000000	89.971275	176.9418
7300.000000	90.943726	-178.2670
7400.000000	92.004044	-176.5142
7500.000000	93.034538	-177.2189
7620.000000	94.098419	179.2305
7750.000000	94.877426	172.8315
7880.000000	95.144524	165.0308
8000.000000	94.966881	157.9732
8120.000000	94.494186	152.0262
8250.000000	93.800926	147.1486
8380.000000	93.030281	143.6257
8500.000000	92.311020	141.3160
8620.000000	91.598343	139.4946
8750.000000	90.786011	137.8459
8850.000000	90.154190	136.7737
9000.000000	89.164841	135.3614
9120.000000	88.340538	134.2888
9250.000000	87.375504	133.3782
9380.000000	86.345757	132.6891
9500.000000	85.330750	132.3786
9620.000000	84.167709	132.4909
9750.000000	82.753426	134.6802
9880.000000	81.863861	138.4733
10000.000000	80.891586	139.0893
10150.000000	79.369614	141.9089
10300.000000	77.758911	147.1574
10440.000000	76.348495	153.5867
10600.000000	74.918716	163.4151
10750.000000	74.113144	174.8882
10900.000000	73.624336	-176.7897
11060.000000	73.172684	-167.3648
11200.000000	72.933449	-159.4921
11380.000000	72.861191	-149.3257
11500.000000	72.966942	-143.2003
11720.000000	73.219849	-134.3652
11800.000000	73.320145	-131.3766
12060.000000	73.749580	-124.7634
12200.000000	73.932053	-121.7666
12410.000000	74.213120	-118.5389
12500.000000	74.287849	-117.2667
12650.000000	74.391640	-115.3052
12800.000000	74.375534	-113.2792
13150.000000	74.380043	-108.3269
13200.000000	74.337013	-107.2624
13400.000000	74.450706	-103.8379
13600.000000	74.780212	-100.2490
13800.000000	75.289513	-97.4497
14000.000000	75.858109	-96.7746
14300.000000	77.058685	-100.8521
14500.000000	77.509247	-107.8187
14750.000000	77.022827	-119.1335
15000.000000	76.419853	-123.4050
15250.000000	74.993599	-131.1585
15500.000000	73.379082	-138.0118
15750.000000	71.602921	-136.1576
16000.000000	70.842773	-130.5926
16250.000000	71.166946	-135.1648
16500.000000	70.388847	-143.0400
16750.000000	69.192024	-148.4049
17000.000000	68.344437	-153.7346
17250.000000	67.238937	-162.2418
17500.000000	65.208725	-169.8568
17750.000000	63.519009	-171.2787
18000.000000	62.072914	-177.8626
18250.000000	60.918194	179.8860
18500.000000	60.149284	174.8809
18750.000000	60.289848	173.7622
19000.000000	60.521118	170.0466
19250.000000	61.705242	162.9292
19500.000000	63.244690	151.3101
19750.000000	65.132698	127.3569
