* Measurement data measured by REW V5.20 Beta 47
* Source: Microphone (Realtek Audio), MICROPHONE (Master Volume), R, volume: 0.250
* Format: 256k Log Swept Sine, 1 sweep at -12.0 dBFS with no timing reference
* Dated: Aug 19, 2020 9:53:48 AM
* REW Settings:
*  C-weighting compensation: Off
*  Target level: 75.0 dB
* Note: ; 
* Measurement: Whizzer OM1 L
* Smoothing: None
* Frequency Step: 1/48 octave
* Start Frequency: 20.000 Hz
*
* Freq(Hz)	SPL(dB)	Phase(degrees)
20.0000	92.0840	-153.08
20.3000	92.1093	-153.58
20.6000	92.1380	-154.04
20.9000	92.1749	-154.45
21.2000	92.2266	-154.87
21.4000	92.2655	-155.19
21.8000	92.3430	-155.95
22.0000	92.3786	-156.38
22.4000	92.4421	-157.24
22.7000	92.4685	-157.85
23.0000	92.4827	-158.35
23.3000	92.5008	-158.70
23.6000	92.5294	-158.93
24.0000	92.5887	-159.18
24.3000	92.6466	-159.38
24.7000	92.7285	-159.73
25.0000	92.7824	-160.06
25.4000	92.8369	-160.49
25.8000	92.8819	-160.83
26.2000	92.9253	-161.13
26.5000	92.9593	-161.35
26.9000	93.0055	-161.70
27.2000	93.0325	-162.00
27.6000	93.0548	-162.42
28.0000	93.0709	-162.76
28.5000	93.1024	-163.14
29.0000	93.1565	-163.57
29.5000	93.2125	-164.24
30.0000	93.2450	-164.98
30.4000	93.2599	-165.49
30.7000	93.2736	-165.81
31.1000	93.3062	-166.20
31.5000	93.3530	-166.63
32.0000	93.4046	-167.31
32.5000	93.4336	-167.95
33.0000	93.4501	-168.41
33.5000	93.4873	-168.67
34.0000	93.5440	-168.97
34.5000	93.5978	-169.37
35.0000	93.6349	-169.78
35.5000	93.6610	-170.10
36.0000	93.6925	-170.38
36.5000	93.7217	-170.68
37.0000	93.7487	-171.01
37.5000	93.7672	-171.33
38.2000	93.7959	-171.89
38.7000	93.7952	-172.39
39.5000	93.7449	-172.97
40.0000	93.7277	-173.06
40.6000	93.7566	-173.20
41.2000	93.7959	-173.66
41.8000	93.8000	-174.23
42.5000	93.7907	-174.64
43.1000	93.8106	-174.93
43.7000	93.8331	-175.37
44.4000	93.8307	-175.86
45.0000	93.8296	-176.09
45.5000	93.8499	-176.26
46.2000	93.8840	-176.67
46.8000	93.8878	-177.10
47.5000	93.8751	-177.44
48.2000	93.8743	-177.70
48.7000	93.8772	-177.94
49.4000	93.8684	-178.31
50.0000	93.8541	-178.57
50.8000	93.8463	-178.88
51.5000	93.8464	-179.23
52.2000	93.8393	-179.59
53.0000	93.8342	-179.96
53.8000	93.8385	179.64
54.5000	93.8341	179.25
55.2000	93.8251	178.93
56.0000	93.8220	178.59
57.0000	93.8109	178.14
58.0000	93.7892	177.80
59.0000	93.7843	177.46
60.0000	93.7712	177.06
60.8000	93.7645	176.75
61.5000	93.7634	176.42
62.2000	93.7530	176.06
63.0000	93.7367	175.74
64.0000	93.7321	175.37
65.0000	93.7222	174.97
66.0000	93.7087	174.69
67.0000	93.7047	174.38
68.0000	93.6888	174.02
69.0000	93.6685	173.70
70.0000	93.6497	173.32
71.0000	93.6217	172.96
72.0000	93.6085	172.67
73.0000	93.6060	172.31
74.0000	93.5999	171.96
75.0000	93.5924	171.63
76.2000	93.5703	171.35
77.5000	93.5464	171.02
78.8000	93.5103	170.78
80.0000	93.4871	170.30
81.2000	93.4351	169.97
82.5000	93.4276	169.58
83.8000	93.4101	169.22
85.0000	93.4266	168.96
86.2000	93.3677	168.49
87.5000	93.3470	168.70
88.5000	93.2620	167.87
90.0000	93.1596	169.40
91.2000	93.3280	167.75
92.5000	93.1221	167.22
93.8000	93.1968	166.57
95.0000	93.0963	166.11
96.2000	93.1310	166.14
97.5000	93.1086	165.68
98.8000	93.0513	165.64
100.0000	93.0248	165.59
101.5000	92.9674	165.20
103.0000	92.9342	165.14
104.4000	92.9221	164.66
106.0000	92.8803	164.56
107.5000	92.8978	163.85
109.0000	92.7663	163.82
110.6000	92.7302	163.36
112.0000	92.7059	163.35
113.8000	92.5941	162.82
115.0000	92.6370	162.86
117.2000	92.5662	162.17
118.0000	92.5660	162.14
120.6000	92.5456	161.53
122.0000	92.4638	161.49
124.1000	92.4259	161.17
125.0000	92.3837	161.27
126.5000	92.3624	160.84
128.0000	92.2804	160.83
131.5000	92.2093	160.19
132.0000	92.1969	160.14
134.0000	92.1500	159.85
136.0000	92.0849	159.56
138.0000	92.0105	159.37
140.0000	91.9388	159.04
143.0000	91.8586	158.76
145.0000	91.8051	158.46
147.5000	91.7265	158.32
150.0000	91.6266	158.10
152.5000	91.5733	158.02
155.0000	91.5262	157.80
157.5000	91.4672	157.59
160.0000	91.4091	157.26
162.5000	91.3537	157.12
165.0000	91.2976	156.77
167.5000	91.2597	156.58
170.0000	91.1889	156.34
172.5000	91.1177	156.24
175.0000	91.0360	156.09
177.5000	90.9671	155.97
180.0000	90.8873	155.97
182.5000	90.8164	155.79
185.0000	90.7372	155.67
187.5000	90.6630	155.64
190.0000	90.5990	155.46
192.5000	90.5389	155.37
195.0000	90.4688	155.17
197.5000	90.4053	155.01
200.0000	90.3321	154.89
203.0000	90.2612	154.73
206.0000	90.1807	154.65
209.0000	90.0900	154.67
212.0000	89.9999	154.71
214.0000	89.9486	154.63
218.0000	89.8516	154.54
220.0000	89.8065	154.42
224.0000	89.7157	154.39
227.0000	89.6470	154.32
230.0000	89.5665	154.31
233.0000	89.4940	154.22
236.0000	89.4395	154.37
240.0000	89.3497	154.19
243.0000	89.2829	154.30
247.0000	89.1817	154.39
250.0000	89.1028	154.17
254.0000	89.0105	154.18
258.0000	88.9061	154.23
262.0000	88.8268	154.20
265.0000	88.7563	154.40
269.0000	88.6385	154.54
272.0000	88.5661	154.44
276.0000	88.4806	154.45
280.0000	88.4014	154.73
285.0000	88.2956	154.81
290.0000	88.1755	154.78
295.0000	88.0730	154.86
300.0000	87.9784	155.13
304.0000	87.8770	155.24
307.0000	87.8304	155.15
311.0000	87.7575	155.39
315.0000	87.6770	155.55
320.0000	87.5979	155.72
325.0000	87.5208	155.89
330.0000	87.4435	156.01
335.0000	87.3447	156.30
340.0000	87.2572	156.48
345.0000	87.1545	156.77
350.0000	87.0768	156.90
355.0000	87.0005	157.27
360.0000	86.8902	157.35
365.0000	86.8057	157.57
370.0000	86.7099	157.81
375.0000	86.5985	157.86
382.0000	86.4751	158.59
387.0000	86.3919	158.65
395.0000	86.2359	159.31
400.0000	86.1877	159.41
406.0000	86.0866	159.75
412.0000	85.9686	160.17
418.0000	85.8899	160.41
425.0000	85.7689	160.82
431.0000	85.7019	161.35
437.0000	85.6183	161.64
444.0000	85.5262	162.02
450.0000	85.4656	162.42
455.0000	85.3853	162.67
462.0000	85.2828	163.18
468.0000	85.2174	163.59
475.0000	85.1213	164.04
482.0000	85.0036	164.64
487.0000	84.9580	164.97
494.0000	84.8617	165.30
500.0000	84.7800	165.88
508.0000	84.6859	166.51
515.0000	84.6122	166.96
522.0000	84.5242	167.35
530.0000	84.4416	167.81
538.0000	84.3457	168.65
545.0000	84.2704	169.04
552.0000	84.1814	169.66
560.0000	84.1060	170.20
570.0000	83.9793	171.08
580.0000	83.8761	171.92
590.0000	83.7850	172.65
600.0000	83.6619	173.64
608.0000	83.6428	174.16
615.0000	83.5338	174.69
622.0000	83.4769	175.27
630.0000	83.4381	176.02
640.0000	83.3252	176.72
650.0000	83.2574	177.69
660.0000	83.1927	178.62
670.0000	83.1074	179.33
680.0000	83.0420	179.85
690.0000	82.9754	-179.06
700.0000	82.8990	-177.99
710.0000	82.8576	-177.26
720.0000	82.7870	-176.41
730.0000	82.7051	-175.54
740.0000	82.6379	-174.47
750.0000	82.5389	-173.18
762.0000	82.4945	-171.81
775.0000	82.5344	-170.78
788.0000	82.4911	-169.66
800.0000	82.4607	-168.81
812.0000	82.4440	-167.91
825.0000	82.4209	-166.68
838.0000	82.4000	-165.52
850.0000	82.3594	-164.42
862.0000	82.3581	-163.36
875.0000	82.3469	-162.38
885.0000	82.3174	-161.58
900.0000	82.3477	-160.21
912.0000	82.3203	-159.07
925.0000	82.3881	-158.47
938.0000	82.3319	-157.75
950.0000	82.3842	-156.86
962.0000	82.4195	-156.25
975.0000	82.3523	-155.41
988.0000	82.2966	-154.81
1000.0000	82.2806	-154.04
1015.0000	82.2476	-152.83
1030.0000	82.1811	-151.55
1044.0000	82.2151	-150.59
1060.0000	82.1721	-149.36
1075.0000	82.1648	-147.79
1090.0000	82.1951	-146.85
1106.0000	82.2381	-145.41
1120.0000	82.3099	-144.40
1138.0000	82.3873	-143.17
1150.0000	82.4873	-142.30
1172.0000	82.5422	-140.92
1180.0000	82.5822	-140.53
1206.0000	82.6764	-138.96
1220.0000	82.7736	-138.39
1241.0000	82.8498	-136.92
1250.0000	82.8989	-136.78
1265.0000	82.9666	-136.25
1280.0000	82.9948	-135.41
1315.0000	83.1752	-133.89
1320.0000	83.2015	-133.65
1340.0000	83.2791	-132.81
1360.0000	83.4084	-131.49
1380.0000	83.4447	-130.91
1400.0000	83.5087	-130.03
1430.0000	83.6228	-128.85
1450.0000	83.7272	-128.03
1475.0000	83.8301	-127.02
1500.0000	83.9190	-125.87
1525.0000	84.0035	-124.93
1550.0000	84.1170	-123.67
1575.0000	84.2201	-122.44
1600.0000	84.3587	-121.95
1625.0000	84.4872	-120.67
1650.0000	84.6182	-119.54
1675.0000	84.7364	-118.57
1700.0000	84.8843	-117.54
1725.0000	85.0235	-116.44
1750.0000	85.1629	-115.40
1775.0000	85.3262	-114.45
1800.0000	85.4735	-113.36
1825.0000	85.6691	-112.25
1850.0000	85.8673	-111.12
1875.0000	86.0487	-110.57
1900.0000	86.2495	-109.60
1925.0000	86.4249	-109.05
1950.0000	86.6333	-108.63
1975.0000	86.8034	-107.97
2000.0000	87.0035	-107.44
2030.0000	87.2485	-106.81
2060.0000	87.4960	-106.05
2090.0000	87.7446	-105.51
2120.0000	87.9879	-105.06
2140.0000	88.1635	-104.86
2180.0000	88.5301	-104.46
2200.0000	88.6833	-104.38
2240.0000	89.0724	-104.31
2270.0000	89.3460	-104.40
2300.0000	89.6350	-104.79
2330.0000	89.9065	-104.95
2360.0000	90.1799	-105.35
2400.0000	90.5347	-106.17
2430.0000	90.7853	-106.82
2470.0000	91.1188	-108.13
2500.0000	91.3229	-109.23
2540.0000	91.6195	-110.75
2580.0000	91.8382	-112.43
2620.0000	92.0435	-114.39
2650.0000	92.1842	-115.88
2690.0000	92.2996	-117.82
2720.0000	92.3558	-119.23
2760.0000	92.4109	-121.27
2800.0000	92.3990	-123.14
2850.0000	92.3641	-125.26
2900.0000	92.3013	-127.24
2950.0000	92.2358	-129.10
3000.0000	92.0939	-130.88
3040.0000	91.9972	-132.03
3070.0000	91.8813	-132.66
3110.0000	91.7629	-133.49
3150.0000	91.6355	-134.15
3200.0000	91.4736	-134.67
3250.0000	91.3257	-134.94
3300.0000	91.2012	-135.29
3350.0000	91.0823	-135.40
3400.0000	90.9650	-135.35
3450.0000	90.9249	-135.13
3500.0000	90.8552	-134.82
3550.0000	90.8880	-134.42
3600.0000	90.9610	-134.02
3650.0000	91.0387	-133.65
3700.0000	91.1578	-133.47
3750.0000	91.2622	-133.35
3820.0000	91.4753	-133.84
3870.0000	91.6152	-134.16
3950.0000	91.8550	-134.83
4000.0000	91.9877	-135.46
4060.0000	92.1543	-136.01
4120.0000	92.3229	-137.13
4180.0000	92.5218	-138.20
4250.0000	92.8059	-139.71
4310.0000	93.0168	-141.58
4370.0000	93.2315	-143.39
4440.0000	93.5269	-146.15
4500.0000	93.7184	-148.96
4550.0000	93.8712	-151.47
4620.0000	93.9683	-155.67
4680.0000	94.0129	-159.33
4750.0000	93.9544	-163.85
4820.0000	93.7873	-168.37
4870.0000	93.5865	-171.62
4940.0000	93.2621	-175.84
5000.0000	92.9046	-179.22
5080.0000	92.2905	177.03
5150.0000	91.7446	174.38
5220.0000	91.1575	172.17
5300.0000	90.4738	170.73
5380.0000	89.8112	169.61
5450.0000	89.2802	169.00
5520.0000	88.7481	168.89
5600.0000	88.1637	169.23
5700.0000	87.4767	169.97
5800.0000	86.8451	171.25
5900.0000	86.2286	172.70
6000.0000	85.7490	174.45
6080.0000	85.3622	176.02
6150.0000	85.0659	178.04
6220.0000	84.7803	179.86
6300.0000	84.6444	-178.51
6400.0000	84.4074	-175.97
6500.0000	84.1882	-173.51
6600.0000	84.1553	-171.28
6700.0000	84.1123	-169.28
6800.0000	84.1813	-166.58
6900.0000	84.3569	-163.83
7000.0000	84.5671	-161.82
7100.0000	84.8900	-159.61
7200.0000	85.3558	-158.36
7300.0000	85.8495	-156.38
7400.0000	86.5455	-155.14
7500.0000	87.3571	-154.89
7620.0000	88.4526	-156.14
7750.0000	89.7825	-159.77
7880.0000	91.2059	-167.58
8000.0000	92.1958	-179.26
8120.0000	92.4844	164.90
8250.0000	91.6253	148.31
8380.0000	89.9171	136.43
8500.0000	88.1669	130.22
8620.0000	86.5934	127.22
8750.0000	84.9439	126.72
8850.0000	83.9773	127.27
9000.0000	82.6413	129.38
9120.0000	81.7631	131.65
9250.0000	80.9360	134.69
9380.0000	80.2099	137.07
9500.0000	79.6477	140.13
9620.0000	79.3389	143.61
9750.0000	78.7896	147.14
9880.0000	78.5820	150.25
10000.0000	78.5712	154.73
10150.0000	78.5771	157.96
10300.0000	78.9319	161.76
10440.0000	79.1218	166.76
10600.0000	79.7645	169.07
10750.0000	80.6558	171.37
10900.0000	81.9772	172.95
11060.0000	83.7473	171.97
11200.0000	85.9174	167.39
11380.0000	89.0606	145.29
11500.0000	89.6938	118.40
11720.0000	85.4684	81.18
11800.0000	83.6419	75.74
12060.0000	78.9379	72.38
12200.0000	77.1474	74.42
12410.0000	74.9464	77.37
12500.0000	73.9734	79.16
12650.0000	72.9149	84.04
12800.0000	71.9933	85.98
13150.0000	70.0613	97.73
13200.0000	69.9793	100.68
13400.0000	69.2292	104.89
13600.0000	69.0136	110.66
13800.0000	68.8302	117.69
14000.0000	68.6023	122.81
14300.0000	68.4492	131.21
14500.0000	67.9959	137.09
14750.0000	69.3226	143.34
15000.0000	70.1881	152.17
15250.0000	72.0123	156.69
15500.0000	73.3180	160.46
15750.0000	75.8329	160.84
16000.0000	78.9081	151.73
16250.0000	81.2714	125.68
16500.0000	79.9484	95.99
16750.0000	77.1455	84.15
17000.0000	75.1049	82.67
17250.0000	73.8125	86.56
17500.0000	72.8853	91.16
17750.0000	72.5240	95.70
18000.0000	72.8455	100.50
18250.0000	73.9053	101.33
18500.0000	76.3884	97.06
18750.0000	77.7601	72.09
19000.0000	75.3515	41.83
19250.0000	71.2126	35.31
19500.0000	67.2035	42.84
19750.0000	65.0832	50.35
