* Measurement data measured by REW V5.20.5
* Source: Microphone (High Definition Audio Device), MICROPHONE (É}ÉX?), L, volume: 1.000
* Format: 256k Log Swept Sine, 1 sweep at -10.0 dBFS with no timing reference
* Dated: 2022/03/09 17:53:36
* REW Settings:
*  C-weighting compensation: Off
*  Target level: 75.0 dB
* Note: 
* Measurement: KZ AS10 old R
* Smoothing: None
* Frequency Step: 1/48 octave
* Start Frequency: 20.000 Hz
*
* Freq(Hz)	SPL(dB)	Phase(degrees)
20.000000	110.630	-167.6649
20.299999	110.636	-168.0710
20.600000	110.641	-168.4675
20.900000	110.646	-168.8503
21.200001	110.651	-169.2168
21.400000	110.656	-169.4524
21.799999	110.668	-169.9125
22.000000	110.676	-170.1433
22.400000	110.693	-170.6168
22.700001	110.706	-170.9843
23.000000	110.716	-171.3532
23.299999	110.723	-171.7097
23.600000	110.729	-172.0424
24.000000	110.740	-172.4493
24.299999	110.750	-172.7457
24.700001	110.765	-173.1607
25.000000	110.773	-173.4893
25.400000	110.775	-173.9163
25.799999	110.770	-174.2717
26.200001	110.769	-174.5454
26.500000	110.777	-174.7412
26.900000	110.795	-175.0738
27.200001	110.804	-175.3992
27.600000	110.797	-175.8645
28.000000	110.772	-176.2339
28.500000	110.751	-176.4714
29.000000	110.775	-176.7484
29.500000	110.805	-177.4151
30.000000	110.764	-178.2376
30.400000	110.685	-178.5399
30.700001	110.641	-178.4193
31.100000	110.666	-178.0056
31.500000	110.800	-177.9253
32.000000	111.001	-179.0320
32.500000	111.043	178.8502
33.000000	110.862	177.1521
33.500000	110.611	176.9988
34.000000	110.523	177.9734
34.500000	110.638	178.5772
35.000000	110.778	178.1138
35.500000	110.807	177.2262
36.000000	110.761	176.7494
36.500000	110.744	176.7316
37.000000	110.783	176.6372
37.500000	110.816	176.2183
38.200001	110.794	175.6110
38.700001	110.770	175.4154
39.500000	110.775	175.0710
40.000000	110.773	174.6981
40.599998	110.751	174.2773
41.200001	110.735	173.9301
41.799999	110.728	173.5414
42.500000	110.717	173.0316
43.099998	110.705	172.6266
43.700001	110.699	172.2336
44.400002	110.692	171.7693
45.000000	110.685	171.4102
45.500000	110.682	171.1349
46.200001	110.680	170.7309
46.799999	110.671	170.3734
47.500000	110.652	170.0338
48.200001	110.644	169.7735
48.700001	110.648	169.5439
49.400002	110.649	169.0859
50.000000	110.632	168.6625
50.799999	110.601	168.2172
51.500000	110.586	167.8622
52.200001	110.575	167.4501
53.000000	110.556	166.9869
53.799999	110.542	166.5549
54.500000	110.529	166.1688
55.200001	110.514	165.8075
56.000000	110.500	165.4252
57.000000	110.484	164.9131
58.000000	110.460	164.3960
59.000000	110.434	163.9186
60.000000	110.414	163.4594
60.799999	110.401	163.0419
61.500000	110.380	162.6844
62.200001	110.362	162.4081
63.000000	110.358	162.0645
64.000000	110.336	161.4800
65.000000	110.296	161.1068
66.000000	110.288	160.6999
67.000000	110.258	160.1685
68.000000	110.227	159.7459
69.000000	110.196	159.2738
70.000000	110.163	158.8806
71.000000	110.147	158.4721
72.000000	110.126	157.9696
73.000000	110.090	157.5101
74.000000	110.060	157.1676
75.000000	110.043	156.7661
76.199997	110.009	156.2246
77.500000	109.970	155.7357
78.800003	109.939	155.2169
80.000000	109.908	154.7476
81.199997	109.877	154.2194
82.500000	109.830	153.7520
83.800003	109.799	153.2597
85.000000	109.759	152.8248
86.199997	109.728	152.3801
87.500000	109.687	151.9043
88.500000	109.658	151.5347
90.000000	109.615	151.0221
91.199997	109.583	150.5683
92.500000	109.543	150.1160
93.800003	109.507	149.6560
95.000000	109.467	149.2392
96.199997	109.432	148.8565
97.500000	109.396	148.4120
98.800003	109.357	147.9621
100.000000	109.318	147.5627
101.500000	109.274	147.0850
103.000000	109.228	146.5885
104.400002	109.183	146.1481
106.000000	109.134	145.6486
107.500000	109.090	145.1907
109.000000	109.047	144.7387
110.599998	108.996	144.2523
112.000000	108.954	143.8663
113.800003	108.891	143.3293
115.000000	108.857	142.9426
117.199997	108.796	142.2542
118.000000	108.763	142.0673
120.599998	108.695	141.0738
122.000000	108.647	141.0267
124.099998	108.573	140.4721
125.000000	108.548	140.2382
126.500000	108.489	139.8018
128.000000	108.447	139.4460
131.500000	108.351	138.4547
132.000000	108.328	138.3653
134.000000	108.264	137.9584
136.000000	108.199	137.4887
138.000000	108.136	137.0119
140.000000	108.072	136.5283
143.000000	107.981	135.8752
145.000000	107.915	135.4594
147.500000	107.842	134.9399
150.000000	107.759	134.3954
152.500000	107.691	133.9435
155.000000	107.620	133.4223
157.500000	107.542	132.9752
160.000000	107.477	132.5706
162.500000	107.417	132.0759
165.000000	107.363	131.6047
167.500000	107.317	131.1794
170.000000	107.237	130.6981
172.500000	107.181	130.1184
175.000000	107.104	129.5930
177.500000	107.040	129.1342
180.000000	106.970	128.6712
182.500000	106.902	128.2044
185.000000	106.834	127.7384
187.500000	106.760	127.3253
190.000000	106.688	126.9116
192.500000	106.621	126.4933
195.000000	106.553	126.0763
197.500000	106.483	125.7170
200.000000	106.416	125.3626
203.000000	106.338	124.9341
206.000000	106.258	124.5283
209.000000	106.177	124.1244
212.000000	106.103	123.7352
214.000000	106.057	123.4944
218.000000	105.960	123.0112
220.000000	105.910	122.7512
224.000000	105.823	122.2744
227.000000	105.759	121.9115
230.000000	105.695	121.5107
233.000000	105.631	121.0707
236.000000	105.561	120.6639
240.000000	105.466	120.1752
243.000000	105.388	119.7762
247.000000	105.288	119.3432
250.000000	105.221	119.0411
254.000000	105.122	118.6601
258.000000	105.035	118.2620
262.000000	104.944	117.9400
265.000000	104.873	117.6896
269.000000	104.790	117.3093
272.000000	104.725	117.0476
276.000000	104.636	116.7748
280.000000	104.553	116.4660
285.000000	104.456	116.0588
290.000000	104.359	115.7159
295.000000	104.257	115.4009
300.000000	104.167	115.0452
304.000000	104.091	114.8139
307.000000	104.029	114.5976
311.000000	103.954	114.3968
315.000000	103.888	114.1586
320.000000	103.798	113.8893
325.000000	103.705	113.6227
330.000000	103.619	113.3665
335.000000	103.540	113.1747
340.000000	103.448	112.9217
345.000000	103.368	112.6854
350.000000	103.283	112.5253
355.000000	103.194	112.3456
360.000000	103.098	112.2026
365.000000	103.015	112.1829
370.000000	102.944	112.1432
375.000000	102.880	112.1121
382.000000	102.789	112.0615
387.000000	102.743	111.9898
395.000000	102.645	111.8303
400.000000	102.587	111.7099
406.000000	102.515	111.5875
412.000000	102.448	111.5186
418.000000	102.382	111.4031
425.000000	102.301	111.4130
431.000000	102.226	111.3526
437.000000	102.163	111.3477
444.000000	102.090	111.2847
450.000000	102.026	111.2886
455.000000	101.979	111.2778
462.000000	101.899	111.2440
468.000000	101.844	111.2625
475.000000	101.778	111.2952
482.000000	101.702	111.3681
487.000000	101.657	111.3846
494.000000	101.596	111.4644
500.000000	101.535	111.5577
508.000000	101.468	111.6676
515.000000	101.404	111.7630
522.000000	101.338	111.9001
530.000000	101.270	112.0615
538.000000	101.199	112.2506
545.000000	101.142	112.4443
552.000000	101.082	112.6732
560.000000	101.020	112.9028
570.000000	100.945	113.2687
580.000000	100.878	113.6641
590.000000	100.808	114.0617
600.000000	100.752	114.5129
608.000000	100.703	114.8564
615.000000	100.667	115.1888
622.000000	100.631	115.5055
630.000000	100.594	115.8608
640.000000	100.551	116.3304
650.000000	100.504	116.7945
660.000000	100.461	117.2880
670.000000	100.420	117.7885
680.000000	100.377	118.2371
690.000000	100.337	118.7474
700.000000	100.292	119.3039
710.000000	100.248	119.9028
720.000000	100.204	120.5369
730.000000	100.168	121.2031
740.000000	100.144	121.8874
750.000000	100.119	122.6102
762.000000	100.097	123.4292
775.000000	100.081	124.3444
788.000000	100.064	125.3292
800.000000	100.055	126.1954
812.000000	100.052	127.0595
825.000000	100.053	128.0602
838.000000	100.055	129.0551
850.000000	100.067	130.0203
862.000000	100.083	130.9829
875.000000	100.106	131.9361
885.000000	100.127	132.7675
900.000000	100.175	133.9413
912.000000	100.205	134.8749
925.000000	100.257	135.9019
938.000000	100.309	136.9151
950.000000	100.361	137.7937
962.000000	100.421	138.7288
975.000000	100.488	139.7025
988.000000	100.564	140.6568
1000.000000	100.640	141.4649
1015.000000	100.738	142.5160
1030.000000	100.838	143.4817
1044.000000	100.938	144.3210
1060.000000	101.056	145.1750
1075.000000	101.161	145.9551
1090.000000	101.262	146.6523
1106.000000	101.364	147.4064
1120.000000	101.446	148.0352
1138.000000	101.553	148.8157
1150.000000	101.627	149.3226
1172.000000	101.746	150.2716
1180.000000	101.790	150.6159
1206.000000	101.925	151.6768
1220.000000	101.994	152.2461
1241.000000	102.095	153.1045
1250.000000	102.141	153.4518
1265.000000	102.208	154.0227
1280.000000	102.272	154.6217
1315.000000	102.419	156.0471
1320.000000	102.440	156.2610
1340.000000	102.518	157.0697
1360.000000	102.588	157.9158
1380.000000	102.659	158.7754
1400.000000	102.733	159.6427
1430.000000	102.829	161.0378
1450.000000	102.899	162.0062
1475.000000	102.982	163.2786
1500.000000	103.071	164.5891
1525.000000	103.168	165.9495
1550.000000	103.273	167.3561
1575.000000	103.386	168.7599
1600.000000	103.512	170.1968
1625.000000	103.644	171.6323
1650.000000	103.781	173.0166
1675.000000	103.929	174.4264
1700.000000	104.086	175.8237
1725.000000	104.245	177.1662
1750.000000	104.413	178.5132
1775.000000	104.587	179.8485
1800.000000	104.769	-178.8543
1825.000000	104.955	-177.5771
1850.000000	105.147	-176.3049
1875.000000	105.349	-175.0634
1900.000000	105.561	-173.8745
1925.000000	105.780	-172.7328
1950.000000	106.001	-171.6472
1975.000000	106.229	-170.6077
2000.000000	106.464	-169.6318
2030.000000	106.749	-168.4690
2060.000000	107.044	-167.4225
2090.000000	107.350	-166.4655
2120.000000	107.661	-165.5974
2140.000000	107.873	-165.0644
2180.000000	108.303	-164.1746
2200.000000	108.522	-163.8050
2240.000000	108.967	-163.2420
2270.000000	109.302	-162.9824
2300.000000	109.636	-162.8758
2330.000000	109.972	-162.9223
2360.000000	110.303	-163.1265
2400.000000	110.734	-163.6445
2430.000000	111.046	-164.2439
2470.000000	111.441	-165.2919
2500.000000	111.715	-166.2563
2540.000000	112.049	-167.7582
2580.000000	112.339	-169.5151
2620.000000	112.582	-171.4294
2650.000000	112.728	-172.9555
2690.000000	112.872	-175.0400
2720.000000	112.946	-176.6265
2760.000000	112.998	-178.6936
2800.000000	112.993	179.3592
2850.000000	112.926	177.1485
2900.000000	112.803	175.2645
2950.000000	112.638	173.8021
3000.000000	112.454	172.7301
3040.000000	112.307	172.1815
3070.000000	112.197	171.9146
3110.000000	112.059	171.7826
3150.000000	111.940	171.8132
3200.000000	111.816	172.0632
3250.000000	111.722	172.4973
3300.000000	111.662	173.0557
3350.000000	111.641	173.6439
3400.000000	111.657	174.2477
3450.000000	111.708	174.7828
3500.000000	111.799	175.1788
3550.000000	111.927	175.3216
3600.000000	112.080	175.1602
3650.000000	112.255	174.5751
3700.000000	112.435	173.4599
3750.000000	112.601	171.6938
3820.000000	112.730	168.0470
3870.000000	112.685	164.6744
3950.000000	112.245	158.6786
4000.000000	111.704	155.3162
4060.000000	110.821	152.4912
4120.000000	109.784	151.4655
4180.000000	108.705	152.4872
4250.000000	107.529	156.0942
4310.000000	106.681	160.8522
4370.000000	106.042	166.7363
4440.000000	105.591	174.3948
4500.000000	105.454	-178.8966
4550.000000	105.510	-173.5467
4620.000000	105.795	-166.7581
4680.000000	106.180	-161.7721
4750.000000	106.741	-157.0715
4820.000000	107.363	-153.4449
4870.000000	107.830	-151.3952
4940.000000	108.520	-149.1697
5000.000000	109.160	-147.9884
5080.000000	110.069	-147.8307
5150.000000	110.834	-149.3456
5220.000000	111.472	-152.2814
5300.000000	111.958	-156.8586
5380.000000	112.148	-161.9483
5450.000000	112.089	-166.1748
5520.000000	111.863	-169.8605
5600.000000	111.462	-173.1571
5700.000000	110.846	-175.8203
5800.000000	110.193	-177.0103
5900.000000	109.571	-177.0345
6000.000000	109.001	-176.1945
6080.000000	108.588	-174.9440
6150.000000	108.276	-173.4244
6220.000000	108.034	-171.6502
6300.000000	107.837	-169.5024
6400.000000	107.701	-166.8687
6500.000000	107.650	-164.4211
6600.000000	107.675	-162.2236
6700.000000	107.760	-160.2409
6800.000000	107.929	-158.5010
6900.000000	108.143	-157.4301
7000.000000	108.385	-156.6649
7100.000000	108.678	-156.3410
7200.000000	109.012	-156.6491
7300.000000	109.365	-157.8009
7400.000000	109.696	-159.8517
7500.000000	109.966	-162.7087
7620.000000	110.177	-167.0797
7750.000000	110.242	-172.7336
7880.000000	110.115	-179.2082
8000.000000	109.759	174.0984
8120.000000	109.097	167.2535
8250.000000	108.008	160.7663
8380.000000	106.622	156.3209
8500.000000	105.232	154.4431
8620.000000	103.874	154.5673
8750.000000	102.514	156.3887
8850.000000	101.567	158.6187
9000.000000	100.331	162.9683
9120.000000	99.474	166.9346
9250.000000	98.688	171.6425
9380.000000	98.005	176.7343
9500.000000	97.490	-178.4297
9620.000000	97.091	-173.2346
9750.000000	96.803	-167.3301
9880.000000	96.718	-161.4319
10000.000000	96.849	-156.5297
10150.000000	97.169	-151.8799
10300.000000	97.485	-148.7874
10440.000000	97.739	-146.3732
10600.000000	98.071	-143.6989
10750.000000	98.476	-141.4003
10900.000000	99.035	-139.7275
11060.000000	99.769	-139.0615
11200.000000	100.533	-139.8116
11380.000000	101.605	-143.3095
11500.000000	102.301	-147.7027
11720.000000	103.100	-159.2211
11800.000000	103.276	-163.9093
12060.000000	103.143	177.8224
12200.000000	102.542	168.2863
12410.000000	101.202	155.9999
12500.000000	100.527	151.5516
12650.000000	99.295	145.1571
12800.000000	97.978	139.9861
13150.000000	94.712	133.7902
13200.000000	94.272	133.6746
13400.000000	92.624	134.6745
13600.000000	91.403	137.1756
13800.000000	90.581	139.6306
14000.000000	90.081	140.4901
14300.000000	89.300	137.9084
14500.000000	88.440	134.8891
14750.000000	85.763	136.7725
15000.000000	88.972	141.4921
15250.000000	87.938	131.4894
15500.000000	86.842	129.1658
15750.000000	86.177	129.8052
16000.000000	86.552	133.2178
16250.000000	89.012	129.4537
16500.000000	90.817	106.2041
16750.000000	91.122	77.7105
17000.000000	89.580	45.4719
17250.000000	86.263	20.9335
17500.000000	82.454	6.6510
17750.000000	78.952	-1.0229
18000.000000	75.551	-2.6810
18250.000000	73.912	22.3865
18500.000000	76.005	-4.6390
18750.000000	74.082	-15.5943
19000.000000	72.697	-23.6318
19250.000000	71.888	-30.8284
19500.000000	71.326	-40.2332
19750.000000	71.155	-53.4008
