* Measurement data measured by REW V5.20.13
* Source: EXCL: Microphone (USB Sound Device        ), MICROPHONE (Master Volume), R, volume: 0.560
* Format: 256k Log Swept Sine, 1 sweep at -12.0 dBFS with no timing reference
* Dated: Dec 3, 2022 5:05:56 PM
* REW Settings:
*  C-weighting compensation: Off
*  Target level: 75.0 dB
* Note: 
* Measurement: AFUL R
* Smoothing: 1/12 octave
* Frequency Step: 1/48 octave
* Start Frequency: 20.000 Hz
*
* Freq(Hz)	SPL(dB)	Phase(degrees)
20.000000	93.309	-168.9948
20.299999	93.316	-169.4951
20.600000	93.316	-169.9771
20.900000	93.310	-170.4492
21.200001	93.298	-170.9200
21.400000	93.287	-171.2380
21.799999	93.261	-171.8937
22.000000	93.245	-172.2367
22.400000	93.210	-172.9626
22.700001	93.181	-173.5441
23.000000	93.149	-174.1531
23.299999	93.116	-174.7787
23.600000	93.083	-175.4099
24.000000	93.043	-176.2481
24.299999	93.019	-176.8731
24.700001	92.996	-177.7110
25.000000	92.986	-178.3501
25.400000	92.978	-179.2153
25.799999	92.972	179.9281
26.200001	92.965	179.1169
26.500000	92.961	178.5559
26.900000	92.957	177.8761
27.200001	92.956	177.4087
27.600000	92.957	176.8224
28.000000	92.957	176.2587
28.500000	92.950	175.5776
29.000000	92.932	174.9359
29.500000	92.904	174.3419
30.000000	92.871	173.7772
30.400000	92.843	173.3222
30.700001	92.822	172.9680
31.100000	92.792	172.4706
31.500000	92.760	171.9440
32.000000	92.718	171.2545
32.500000	92.673	170.5500
33.000000	92.630	169.8545
33.500000	92.590	169.1833
34.000000	92.557	168.5371
34.500000	92.531	167.9025
35.000000	92.510	167.2687
35.500000	92.488	166.6418
36.000000	92.462	166.0436
36.500000	92.434	165.4936
37.000000	92.404	164.9924
37.500000	92.376	164.5220
38.200001	92.336	163.8724
38.700001	92.307	163.3976
39.500000	92.254	162.6183
40.000000	92.219	162.1243
40.599998	92.175	161.5282
41.200001	92.131	160.9328
41.799999	92.088	160.3453
42.500000	92.037	159.6805
43.099998	91.995	159.1358
43.700001	91.955	158.6171
44.400002	91.910	158.0386
45.000000	91.873	157.5524
45.500000	91.842	157.1465
46.200001	91.797	156.5762
46.799999	91.756	156.0869
47.500000	91.705	155.5173
48.200001	91.650	154.9683
48.700001	91.610	154.6080
49.400002	91.558	154.1522
50.000000	91.522	153.7737
50.799999	91.481	153.2294
51.500000	91.443	152.7195
52.200001	91.399	152.2149
53.000000	91.345	151.6611
53.799999	91.289	151.1238
54.500000	91.238	150.6669
55.200001	91.186	150.2250
56.000000	91.126	149.7424
57.000000	91.056	149.1854
58.000000	90.998	148.6590
59.000000	90.949	148.1015
60.000000	90.897	147.5070
60.799999	90.849	147.0365
61.500000	90.803	146.6457
62.200001	90.755	146.2792
63.000000	90.703	145.8802
64.000000	90.642	145.3703
65.000000	90.582	144.8232
66.000000	90.519	144.2720
67.000000	90.456	143.7514
68.000000	90.395	143.2596
69.000000	90.334	142.7857
70.000000	90.274	142.3275
71.000000	90.212	141.8863
72.000000	90.151	141.4602
73.000000	90.091	141.0400
74.000000	90.032	140.6196
75.000000	89.973	140.2025
76.199997	89.901	139.7149
77.500000	89.824	139.2078
78.800003	89.749	138.7184
80.000000	89.681	138.2743
81.199997	89.614	137.8312
82.500000	89.542	137.3576
83.800003	89.470	136.8992
85.000000	89.404	136.4874
86.199997	89.338	136.0841
87.500000	89.266	135.6606
88.500000	89.211	135.3457
90.000000	89.131	134.8897
91.199997	89.067	134.5361
92.500000	88.999	134.1611
93.800003	88.931	133.7920
95.000000	88.870	133.4557
96.199997	88.809	133.1247
97.500000	88.744	132.7738
98.800003	88.681	132.4301
100.000000	88.623	132.1182
101.500000	88.549	131.7380
103.000000	88.476	131.3689
104.400002	88.408	131.0266
106.000000	88.332	130.6344
107.500000	88.263	130.2752
109.000000	88.195	129.9337
110.599998	88.124	129.5884
112.000000	88.063	129.2969
113.800003	87.987	128.9312
115.000000	87.936	128.6916
117.199997	87.844	128.2600
118.000000	87.811	128.1064
120.599998	87.705	127.6121
122.000000	87.647	127.3420
124.099998	87.559	126.9398
125.000000	87.522	126.7712
126.500000	87.462	126.4959
128.000000	87.403	126.2278
131.500000	87.271	125.6360
132.000000	87.253	125.5551
134.000000	87.177	125.2379
136.000000	87.102	124.9290
138.000000	87.028	124.6280
140.000000	86.957	124.3356
143.000000	86.854	123.9077
145.000000	86.789	123.6288
147.500000	86.711	123.2870
150.000000	86.635	122.9398
152.500000	86.554	122.5968
155.000000	86.471	122.2724
157.500000	86.392	121.9592
160.000000	86.316	121.6538
162.500000	86.244	121.3521
165.000000	86.174	121.0546
167.500000	86.107	120.7674
170.000000	86.040	120.4897
172.500000	85.975	120.2156
175.000000	85.909	119.9449
177.500000	85.845	119.6801
180.000000	85.781	119.4210
182.500000	85.720	119.1684
185.000000	85.660	118.9239
187.500000	85.602	118.6863
190.000000	85.545	118.4510
192.500000	85.489	118.2131
195.000000	85.435	117.9703
197.500000	85.381	117.7274
200.000000	85.329	117.4936
203.000000	85.268	117.2284
206.000000	85.210	116.9710
209.000000	85.152	116.7150
212.000000	85.096	116.4615
214.000000	85.060	116.2952
218.000000	84.989	115.9700
220.000000	84.955	115.8110
224.000000	84.889	115.4986
227.000000	84.840	115.2650
230.000000	84.793	115.0251
233.000000	84.748	114.7772
236.000000	84.706	114.5308
240.000000	84.651	114.2255
243.000000	84.612	114.0168
247.000000	84.562	113.7473
250.000000	84.524	113.5317
254.000000	84.472	113.2217
258.000000	84.422	112.9129
262.000000	84.375	112.6189
265.000000	84.342	112.4037
269.000000	84.300	112.1188
272.000000	84.269	111.9067
276.000000	84.229	111.6277
280.000000	84.191	111.3548
285.000000	84.148	111.0212
290.000000	84.107	110.6873
295.000000	84.068	110.3539
300.000000	84.030	110.0283
304.000000	83.999	109.7757
307.000000	83.977	109.5934
311.000000	83.947	109.3616
315.000000	83.919	109.1371
320.000000	83.888	108.8473
325.000000	83.859	108.5551
330.000000	83.834	108.2918
335.000000	83.815	108.0589
340.000000	83.803	107.8324
345.000000	83.800	107.5861
350.000000	83.805	107.3029
355.000000	83.814	106.9797
360.000000	83.823	106.6205
365.000000	83.828	106.2313
370.000000	83.829	105.8253
375.000000	83.827	105.4171
382.000000	83.821	104.8516
387.000000	83.816	104.4544
395.000000	83.809	103.8357
400.000000	83.806	103.4601
406.000000	83.806	103.0188
412.000000	83.807	102.5831
418.000000	83.810	102.1470
425.000000	83.814	101.6345
431.000000	83.820	101.1920
437.000000	83.827	100.7458
444.000000	83.837	100.2225
450.000000	83.846	99.7769
455.000000	83.854	99.4108
462.000000	83.866	98.9006
468.000000	83.877	98.4594
475.000000	83.891	97.9380
482.000000	83.906	97.4102
487.000000	83.917	97.0289
494.000000	83.932	96.4901
500.000000	83.945	96.0269
508.000000	83.962	95.4091
515.000000	83.978	94.8652
522.000000	83.994	94.3183
530.000000	84.011	93.6942
538.000000	84.027	93.0732
545.000000	84.041	92.5299
552.000000	84.054	91.9851
560.000000	84.068	91.3679
570.000000	84.084	90.6211
580.000000	84.098	89.9042
590.000000	84.113	89.2111
600.000000	84.128	88.5402
608.000000	84.142	88.0183
615.000000	84.156	87.5690
622.000000	84.170	87.1231
630.000000	84.188	86.6140
640.000000	84.212	85.9752
650.000000	84.237	85.3387
660.000000	84.263	84.7146
670.000000	84.290	84.1039
680.000000	84.316	83.5042
690.000000	84.342	82.9137
700.000000	84.368	82.3296
710.000000	84.394	81.7534
720.000000	84.419	81.1893
730.000000	84.445	80.6389
740.000000	84.471	80.1006
750.000000	84.498	79.5736
762.000000	84.532	78.9581
775.000000	84.571	78.3130
788.000000	84.612	77.6898
800.000000	84.652	77.1324
812.000000	84.694	76.5903
825.000000	84.742	76.0171
838.000000	84.793	75.4533
850.000000	84.843	74.9393
862.000000	84.894	74.4332
875.000000	84.953	73.8947
885.000000	85.000	73.4853
900.000000	85.073	72.8722
912.000000	85.134	72.3793
925.000000	85.203	71.8458
938.000000	85.275	71.3142
950.000000	85.343	70.8241
962.000000	85.413	70.3348
975.000000	85.492	69.8038
988.000000	85.574	69.2671
1000.000000	85.652	68.7610
1015.000000	85.753	68.1067
1030.000000	85.857	67.4188
1044.000000	85.955	66.7424
1060.000000	86.066	65.9327
1075.000000	86.170	65.1450
1090.000000	86.272	64.3355
1106.000000	86.379	63.4520
1120.000000	86.471	62.6631
1138.000000	86.587	61.6274
1150.000000	86.662	60.9243
1172.000000	86.796	59.6124
1180.000000	86.843	59.1295
1206.000000	86.991	57.5461
1220.000000	87.067	56.6871
1241.000000	87.179	55.3917
1250.000000	87.225	54.8349
1265.000000	87.301	53.9061
1280.000000	87.375	52.9774
1315.000000	87.541	50.8157
1320.000000	87.564	50.5079
1340.000000	87.655	49.2784
1360.000000	87.744	48.0503
1380.000000	87.832	46.8240
1400.000000	87.920	45.6010
1430.000000	88.051	43.7693
1450.000000	88.139	42.5446
1475.000000	88.250	41.0038
1500.000000	88.364	39.4442
1525.000000	88.479	37.8585
1550.000000	88.597	36.2399
1575.000000	88.714	34.5797
1600.000000	88.831	32.8741
1625.000000	88.947	31.1240
1650.000000	89.060	29.3307
1675.000000	89.170	27.4955
1700.000000	89.277	25.6169
1725.000000	89.382	23.6928
1750.000000	89.483	21.7183
1775.000000	89.582	19.6881
1800.000000	89.676	17.6001
1825.000000	89.766	15.4524
1850.000000	89.851	13.2424
1875.000000	89.930	10.9686
1900.000000	90.001	8.6301
1925.000000	90.063	6.2289
1950.000000	90.115	3.7708
1975.000000	90.156	1.2617
2000.000000	90.186	-1.2926
2030.000000	90.206	-4.4061
2060.000000	90.209	-7.5565
2090.000000	90.194	-10.7271
2120.000000	90.161	-13.9004
2140.000000	90.131	-16.0090
2180.000000	90.048	-20.1877
2200.000000	89.997	-22.2484
2240.000000	89.879	-26.2946
2270.000000	89.778	-29.2505
2300.000000	89.671	-32.1285
2330.000000	89.558	-34.9238
2360.000000	89.443	-37.6339
2400.000000	89.291	-41.1127
2430.000000	89.180	-43.6222
2470.000000	89.038	-46.8420
2500.000000	88.940	-49.1707
2540.000000	88.822	-52.1766
2580.000000	88.724	-55.0850
2620.000000	88.647	-57.9137
2650.000000	88.604	-59.9958
2690.000000	88.570	-62.7375
2720.000000	88.561	-64.7816
2760.000000	88.573	-67.5118
2800.000000	88.613	-70.2709
2850.000000	88.700	-73.8008
2900.000000	88.825	-77.4673
2950.000000	88.984	-81.3217
3000.000000	89.168	-85.4150
3040.000000	89.327	-88.8918
3070.000000	89.448	-91.6275
3110.000000	89.607	-95.4473
3150.000000	89.754	-99.4511
3200.000000	89.908	-104.6698
3250.000000	90.018	-110.0409
3300.000000	90.075	-115.4401
3350.000000	90.078	-120.7265
3400.000000	90.030	-125.7664
3450.000000	89.945	-130.4554
3500.000000	89.835	-134.7310
3550.000000	89.718	-138.5726
3600.000000	89.608	-141.9977
3650.000000	89.518	-145.0504
3700.000000	89.455	-147.7891
3750.000000	89.427	-150.2799
3820.000000	89.446	-153.4753
3870.000000	89.502	-155.6312
3950.000000	89.653	-159.0078
4000.000000	89.779	-161.1396
4060.000000	89.953	-163.7761
4120.000000	90.141	-166.5383
4180.000000	90.331	-169.4517
4250.000000	90.543	-173.0490
4310.000000	90.705	-176.2870
4370.000000	90.838	-179.6395
4440.000000	90.950	176.3523
4500.000000	91.002	172.8864
4550.000000	91.013	170.0171
4620.000000	90.978	166.0932
4680.000000	90.902	162.8750
4750.000000	90.764	159.3582
4820.000000	90.580	156.1559
4870.000000	90.426	154.0872
4940.000000	90.183	151.5189
5000.000000	89.959	149.6292
5080.000000	89.646	147.5558
5150.000000	89.368	146.1440
5220.000000	89.094	145.0822
5300.000000	88.793	144.2621
5380.000000	88.512	143.8174
5450.000000	88.286	143.6995
5520.000000	88.081	143.8032
5600.000000	87.874	144.1530
5700.000000	87.661	144.8726
5800.000000	87.500	145.8343
5900.000000	87.392	146.9647
6000.000000	87.336	148.1940
6080.000000	87.330	149.2029
6150.000000	87.353	150.0729
6220.000000	87.400	150.9030
6300.000000	87.482	151.7679
6400.000000	87.621	152.6613
6500.000000	87.793	153.2697
6600.000000	87.982	153.5192
6700.000000	88.173	153.3607
6800.000000	88.345	152.7802
6900.000000	88.478	151.8102
7000.000000	88.554	150.5398
7100.000000	88.562	149.1002
7200.000000	88.501	147.6372
7300.000000	88.373	146.2860
7400.000000	88.186	145.1597
7500.000000	87.953	144.3444
7620.000000	87.632	143.8523
7750.000000	87.266	143.9477
7880.000000	86.914	144.6425
8000.000000	86.629	145.6915
8120.000000	86.398	146.9645
8250.000000	86.217	148.3826
8380.000000	86.098	149.6196
8500.000000	86.019	150.4515
8620.000000	85.939	150.9470
8750.000000	85.820	151.2067
8850.000000	85.698	151.3115
9000.000000	85.463	151.4137
9120.000000	85.221	151.5272
9250.000000	84.897	151.8500
9380.000000	84.510	152.5930
9500.000000	84.112	153.8204
9620.000000	83.699	155.6637
9750.000000	83.269	158.3484
9880.000000	82.885	161.6787
10000.000000	82.590	165.3033
10150.000000	82.352	170.4786
10300.000000	82.312	176.0259
10440.000000	82.467	-178.9368
10600.000000	82.819	-173.8770
10750.000000	83.234	-170.0403
10900.000000	83.666	-166.9730
11060.000000	84.128	-164.2591
11200.000000	84.544	-162.1905
11380.000000	85.122	-159.9313
11500.000000	85.543	-158.7600
11720.000000	86.381	-157.7189
11800.000000	86.692	-157.8311
12060.000000	87.591	-160.5119
12200.000000	87.918	-163.4067
12410.000000	88.082	-168.9523
12500.000000	88.016	-171.4249
12650.000000	87.723	-175.1221
12800.000000	87.229	-177.7510
13150.000000	85.638	-177.8289
13200.000000	85.406	-177.1365
13400.000000	84.612	-173.0245
13600.000000	84.169	-167.6602
13800.000000	84.159	-162.4001
14000.000000	84.499	-158.4573
14300.000000	85.263	-156.4222
14500.000000	85.717	-157.6466
14750.000000	86.082	-161.3549
15000.000000	86.184	-166.6517
15250.000000	86.013	-172.9100
15500.000000	85.547	-179.5817
15750.000000	84.758	174.1321
16000.000000	83.641	169.2902
16250.000000	82.246	166.8779
16500.000000	80.672	167.4761
16750.000000	79.064	171.1522
17000.000000	77.613	177.4688
17250.000000	76.542	-174.5629
17500.000000	76.017	-166.4662
17750.000000	75.978	-159.8695
18000.000000	76.148	-155.6627
18250.000000	76.271	-153.4567
18500.000000	76.288	-152.0583
18750.000000	76.353	-150.7322
19000.000000	76.682	-150.3308
19250.000000	77.238	-153.0039
19500.000000	77.712	-159.7424
19750.000000	77.905	-168.3027
