* Measurement data measured by REW V5.20.13
* Source: Microphone (USB Sound Device        ), MICROPHONE (Master Volume), L, volume: 0.250. Timing signal peak level -21.6 dBFS, measurement signal peak level -21.5 dBFS
* Format: 128k Log Swept Sine, 1 sweep at -12.0 dBFS using an acoustic timing reference
* Dated: Jul 29, 2023 1:50:34 PM
* REW Settings:
*  C-weighting compensation: Off
*  Target level: 75.0 dB
* Note: Delay -0.0146 ms (-5.0 mm, -0.2 in) using estimated IR delay relative to Acoustic reference played from SPEAKER R with no timing offset
* Measurement: AUDIO LOKAHI R
* Smoothing: 1/12 octave
* Frequency Step: 1/48 octave
* Start Frequency: 20.000 Hz
*
* Freq(Hz)	SPL(dB)	Phase(degrees)
20.000000	92.835	-166.9902
20.299999	92.829	-167.4395
20.600000	92.825	-167.9349
20.900000	92.822	-168.4666
21.200001	92.820	-169.0190
21.400000	92.817	-169.3857
21.799999	92.813	-170.0885
22.000000	92.811	-170.4124
22.400000	92.815	-170.9901
22.700001	92.825	-171.3696
23.000000	92.843	-171.7221
23.299999	92.868	-172.0676
23.600000	92.894	-172.4148
24.000000	92.928	-172.8774
24.299999	92.949	-173.2080
24.700001	92.970	-173.6046
25.000000	92.984	-173.8646
25.400000	92.999	-174.1752
25.799999	93.012	-174.4742
26.200001	93.018	-174.7813
26.500000	93.017	-175.0139
26.900000	93.008	-175.3116
27.200001	92.997	-175.5163
27.600000	92.981	-175.7649
28.000000	92.968	-176.0056
28.500000	92.957	-176.3387
29.000000	92.949	-176.7362
29.500000	92.940	-177.1881
30.000000	92.930	-177.6621
30.400000	92.923	-178.0402
30.700001	92.919	-178.3192
31.100000	92.915	-178.6833
31.500000	92.913	-179.0375
32.000000	92.913	-179.4637
32.500000	92.914	-179.8675
33.000000	92.915	179.7573
33.500000	92.914	179.4156
34.000000	92.912	179.1077
34.500000	92.910	178.8250
35.000000	92.907	178.5549
35.500000	92.902	178.2864
36.000000	92.893	178.0170
36.500000	92.882	177.7501
37.000000	92.870	177.4896
37.500000	92.857	177.2345
38.200001	92.843	176.8754
38.700001	92.837	176.6090
39.500000	92.831	176.1590
40.000000	92.830	175.8642
40.599998	92.831	175.5010
41.200001	92.832	175.1347
41.799999	92.832	174.7713
42.500000	92.832	174.3514
43.099998	92.829	173.9942
43.700001	92.821	173.6481
44.400002	92.809	173.2708
45.000000	92.798	172.9684
45.500000	92.788	172.7241
46.200001	92.776	172.3893
46.799999	92.767	172.1044
47.500000	92.759	171.7526
48.200001	92.752	171.3620
48.700001	92.743	171.0715
49.400002	92.725	170.6859
50.000000	92.709	170.3905
50.799999	92.691	170.0268
51.500000	92.678	169.7127
52.200001	92.665	169.3981
53.000000	92.648	169.0432
53.799999	92.631	168.6974
54.500000	92.615	168.4043
55.200001	92.601	168.1157
56.000000	92.585	167.7836
57.000000	92.564	167.3613
58.000000	92.544	166.9388
59.000000	92.522	166.5267
60.000000	92.501	166.1270
60.799999	92.485	165.8086
61.500000	92.472	165.5273
62.200001	92.457	165.2441
63.000000	92.440	164.9214
64.000000	92.417	164.5240
65.000000	92.394	164.1347
66.000000	92.370	163.7521
67.000000	92.347	163.3741
68.000000	92.323	162.9985
69.000000	92.296	162.6306
70.000000	92.267	162.2746
71.000000	92.239	161.9165
72.000000	92.208	161.5444
73.000000	92.175	161.1696
74.000000	92.142	160.8019
75.000000	92.110	160.4377
76.199997	92.074	160.0152
77.500000	92.039	159.5932
78.800003	92.009	159.1905
80.000000	91.982	158.8150
81.199997	91.952	158.4268
82.500000	91.911	157.9915
83.800003	91.863	157.5563
85.000000	91.816	157.1675
86.199997	91.771	156.7867
87.500000	91.722	156.3749
88.500000	91.684	156.0649
90.000000	91.621	155.6356
91.199997	91.567	155.3329
92.500000	91.506	155.0346
93.800003	91.443	154.7484
95.000000	91.384	154.4908
96.199997	91.323	154.2523
97.500000	91.257	154.0387
98.800003	91.193	153.8936
100.000000	91.136	153.8407
101.500000	91.072	153.9037
103.000000	91.022	154.0959
104.400002	90.995	154.3487
106.000000	91.000	154.6214
107.500000	91.041	154.7216
109.000000	91.107	154.5394
110.599998	91.181	153.9722
112.000000	91.227	153.2202
113.800003	91.245	152.0951
115.000000	91.235	151.3375
117.199997	91.180	150.0298
118.000000	91.149	149.5917
120.599998	91.017	148.3567
122.000000	90.932	147.8142
124.099998	90.803	147.1021
125.000000	90.750	146.8109
126.500000	90.664	146.3280
128.000000	90.581	145.8558
131.500000	90.382	144.8860
132.000000	90.352	144.7707
134.000000	90.234	144.3590
136.000000	90.118	143.9862
138.000000	90.001	143.6393
140.000000	89.883	143.3267
143.000000	89.702	142.9195
145.000000	89.582	142.6822
147.500000	89.436	142.4153
150.000000	89.292	142.1787
152.500000	89.150	141.9722
155.000000	89.011	141.7986
157.500000	88.873	141.6631
160.000000	88.735	141.5645
162.500000	88.596	141.4877
165.000000	88.455	141.4162
167.500000	88.313	141.3492
170.000000	88.170	141.3040
172.500000	88.029	141.2993
175.000000	87.890	141.3358
177.500000	87.751	141.4074
180.000000	87.612	141.5141
182.500000	87.475	141.6629
185.000000	87.339	141.8580
187.500000	87.205	142.0951
190.000000	87.073	142.3656
192.500000	86.945	142.6603
195.000000	86.821	142.9740
197.500000	86.701	143.3077
200.000000	86.584	143.6627
203.000000	86.447	144.1124
206.000000	86.316	144.5776
209.000000	86.188	145.0493
212.000000	86.063	145.5244
214.000000	85.982	145.8438
218.000000	85.823	146.4878
220.000000	85.746	146.8131
224.000000	85.594	147.4910
227.000000	85.482	148.0457
230.000000	85.372	148.6461
233.000000	85.262	149.2888
236.000000	85.155	149.9812
240.000000	85.018	150.9861
243.000000	84.924	151.7957
247.000000	84.810	152.9615
250.000000	84.737	153.8961
254.000000	84.662	155.1889
258.000000	84.620	156.4820
262.000000	84.612	157.6858
265.000000	84.621	158.4771
269.000000	84.638	159.3593
272.000000	84.647	159.9012
276.000000	84.645	160.4905
280.000000	84.626	160.9760
285.000000	84.593	161.5419
290.000000	84.565	162.1815
295.000000	84.540	162.9238
300.000000	84.514	163.7063
304.000000	84.496	164.3414
307.000000	84.486	164.8196
311.000000	84.476	165.4523
315.000000	84.469	166.0748
320.000000	84.465	166.8346
325.000000	84.467	167.5667
330.000000	84.474	168.2608
335.000000	84.485	168.9171
340.000000	84.498	169.5364
345.000000	84.515	170.1148
350.000000	84.535	170.6585
355.000000	84.557	171.1762
360.000000	84.580	171.6729
365.000000	84.604	172.1524
370.000000	84.627	172.6143
375.000000	84.649	173.0551
382.000000	84.678	173.6379
387.000000	84.696	174.0326
395.000000	84.726	174.6315
400.000000	84.745	174.9911
406.000000	84.766	175.4103
412.000000	84.787	175.8098
418.000000	84.810	176.1817
425.000000	84.839	176.5748
431.000000	84.865	176.8811
437.000000	84.892	177.1636
444.000000	84.922	177.4666
450.000000	84.946	177.7114
455.000000	84.963	177.9107
462.000000	84.984	178.1838
468.000000	85.001	178.4107
475.000000	85.020	178.6701
482.000000	85.036	178.9286
487.000000	85.047	179.1136
494.000000	85.060	179.3685
500.000000	85.070	179.5763
508.000000	85.081	179.8375
515.000000	85.089	-179.9389
522.000000	85.097	-179.7159
530.000000	85.108	-179.4730
538.000000	85.120	-179.2483
545.000000	85.130	-179.0606
552.000000	85.138	-178.8764
560.000000	85.145	-178.6615
570.000000	85.153	-178.3857
580.000000	85.160	-178.1153
590.000000	85.165	-177.8461
600.000000	85.168	-177.5704
608.000000	85.170	-177.3495
615.000000	85.170	-177.1568
622.000000	85.169	-176.9610
630.000000	85.166	-176.7280
640.000000	85.162	-176.4295
650.000000	85.157	-176.1364
660.000000	85.152	-175.8431
670.000000	85.147	-175.5409
680.000000	85.143	-175.2306
690.000000	85.141	-174.9171
700.000000	85.139	-174.6032
710.000000	85.138	-174.2881
720.000000	85.139	-173.9680
730.000000	85.140	-173.6406
740.000000	85.140	-173.3017
750.000000	85.141	-172.9496
762.000000	85.142	-172.5183
775.000000	85.145	-172.0433
788.000000	85.146	-171.5609
800.000000	85.145	-171.1164
812.000000	85.145	-170.6729
825.000000	85.148	-170.1856
838.000000	85.154	-169.6877
850.000000	85.160	-169.2243
862.000000	85.170	-168.7633
875.000000	85.184	-168.2670
885.000000	85.197	-167.8841
900.000000	85.220	-167.3019
912.000000	85.240	-166.8283
925.000000	85.263	-166.3087
938.000000	85.290	-165.7874
950.000000	85.317	-165.3084
962.000000	85.344	-164.8327
975.000000	85.374	-164.3186
988.000000	85.405	-163.8019
1000.000000	85.436	-163.3223
1015.000000	85.478	-162.7243
1030.000000	85.525	-162.1321
1044.000000	85.571	-161.5857
1060.000000	85.627	-160.9702
1075.000000	85.685	-160.4030
1090.000000	85.748	-159.8460
1106.000000	85.820	-159.2630
1120.000000	85.888	-158.7652
1138.000000	85.979	-158.1488
1150.000000	86.044	-157.7550
1172.000000	86.166	-157.0751
1180.000000	86.212	-156.8429
1206.000000	86.366	-156.1453
1220.000000	86.452	-155.8079
1241.000000	86.582	-155.3546
1250.000000	86.638	-155.1794
1265.000000	86.731	-154.9127
1280.000000	86.824	-154.6793
1315.000000	87.035	-154.2661
1320.000000	87.064	-154.2206
1340.000000	87.180	-154.0641
1360.000000	87.291	-153.9395
1380.000000	87.400	-153.8381
1400.000000	87.505	-153.7523
1430.000000	87.656	-153.6435
1450.000000	87.753	-153.5731
1475.000000	87.873	-153.4746
1500.000000	87.995	-153.3680
1525.000000	88.120	-153.2678
1550.000000	88.248	-153.1888
1575.000000	88.381	-153.1461
1600.000000	88.515	-153.1527
1625.000000	88.649	-153.2128
1650.000000	88.782	-153.3229
1675.000000	88.912	-153.4781
1700.000000	89.040	-153.6692
1725.000000	89.166	-153.8856
1750.000000	89.291	-154.1197
1775.000000	89.415	-154.3654
1800.000000	89.539	-154.6230
1825.000000	89.665	-154.9011
1850.000000	89.795	-155.2136
1875.000000	89.929	-155.5788
1900.000000	90.064	-156.0144
1925.000000	90.198	-156.5290
1950.000000	90.328	-157.1198
1975.000000	90.452	-157.7784
2000.000000	90.569	-158.4943
2030.000000	90.702	-159.4152
2060.000000	90.826	-160.3960
2090.000000	90.941	-161.4361
2120.000000	91.047	-162.5364
2140.000000	91.113	-163.3046
2180.000000	91.231	-164.9235
2200.000000	91.283	-165.7713
2240.000000	91.368	-167.5389
2270.000000	91.416	-168.9205
2300.000000	91.447	-170.3364
2330.000000	91.462	-171.7727
2360.000000	91.460	-173.2163
2400.000000	91.429	-175.1294
2430.000000	91.386	-176.5404
2470.000000	91.303	-178.3657
2500.000000	91.222	-179.6745
2540.000000	91.091	178.6844
2580.000000	90.938	177.1851
2620.000000	90.765	175.8469
2650.000000	90.625	174.9613
2690.000000	90.428	173.9525
2720.000000	90.276	173.3284
2760.000000	90.073	172.6647
2800.000000	89.874	172.1733
2850.000000	89.636	171.7585
2900.000000	89.408	171.5143
2950.000000	89.191	171.4013
3000.000000	88.978	171.4114
3040.000000	88.809	171.5219
3070.000000	88.683	171.6768
3110.000000	88.514	171.9985
3150.000000	88.350	172.4753
3200.000000	88.159	173.3148
3250.000000	87.995	174.4232
3300.000000	87.876	175.7511
3350.000000	87.815	177.1937
3400.000000	87.819	178.6039
3450.000000	87.881	179.8242
3500.000000	87.981	-179.2730
3550.000000	88.091	-178.7361
3600.000000	88.187	-178.5089
3650.000000	88.255	-178.4614
3700.000000	88.294	-178.4525
3750.000000	88.312	-178.3779
3820.000000	88.324	-178.0739
3870.000000	88.338	-177.7083
3950.000000	88.390	-176.9213
4000.000000	88.448	-176.3538
4060.000000	88.548	-175.6621
4120.000000	88.682	-175.0207
4180.000000	88.847	-174.4809
4250.000000	89.075	-174.0349
4310.000000	89.296	-173.8529
4370.000000	89.537	-173.8911
4440.000000	89.840	-174.2591
4500.000000	90.111	-174.8972
4550.000000	90.341	-175.6902
4620.000000	90.654	-177.2441
4680.000000	90.903	-179.0159
4750.000000	91.148	178.3972
4820.000000	91.321	175.2989
4870.000000	91.389	172.8386
4940.000000	91.391	169.1929
5000.000000	91.301	166.0428
5080.000000	91.051	162.1002
5150.000000	90.723	159.1415
5220.000000	90.315	156.8233
5300.000000	89.783	155.0800
5380.000000	89.225	154.3300
5450.000000	88.750	154.4366
5520.000000	88.317	155.1528
5600.000000	87.910	156.5324
5700.000000	87.578	158.6688
5800.000000	87.463	160.5491
5900.000000	87.511	161.3200
6000.000000	87.577	160.4232
6080.000000	87.525	158.6112
6150.000000	87.347	156.6381
6220.000000	87.030	154.7812
6300.000000	86.518	153.3233
6400.000000	85.730	152.9890
6500.000000	84.892	154.3589
6600.000000	84.103	157.1091
6700.000000	83.417	160.8267
6800.000000	82.856	165.1704
6900.000000	82.421	169.9073
7000.000000	82.103	174.8947
7100.000000	81.897	-179.9595
7200.000000	81.798	-174.7223
7300.000000	81.805	-169.4424
7400.000000	81.918	-164.1519
7500.000000	82.144	-158.8811
7620.000000	82.582	-152.6538
7750.000000	83.291	-146.1983
7880.000000	84.272	-140.3700
8000.000000	85.417	-135.9727
8120.000000	86.750	-133.0148
8250.000000	88.314	-132.0441
8380.000000	89.873	-134.0283
8500.000000	91.174	-138.9482
8620.000000	92.204	-147.0036
8750.000000	92.870	-158.7515
8850.000000	92.995	-168.9115
9000.000000	92.535	176.7294
9120.000000	91.696	168.0337
9250.000000	90.496	162.3598
9380.000000	89.206	160.1599
9500.000000	88.097	160.2768
9620.000000	87.155	161.5768
9750.000000	86.337	163.6354
9880.000000	85.686	166.0790
10000.000000	85.204	168.6773
10150.000000	84.766	172.3293
10300.000000	84.530	176.1737
10440.000000	84.492	179.6445
10600.000000	84.640	-176.8389
10750.000000	84.932	-174.1942
10900.000000	85.348	-172.3247
11060.000000	85.913	-171.3993
11200.000000	86.483	-171.8553
11380.000000	87.214	-174.9577
11500.000000	87.590	-178.9238
11720.000000	87.759	170.5857
11800.000000	87.600	166.3959
12060.000000	86.239	155.8185
12200.000000	85.080	153.8058
12410.000000	83.122	156.1164
12500.000000	82.318	158.6146
12650.000000	81.158	163.9085
12800.000000	80.296	169.7872
13150.000000	79.268	-176.9318
13200.000000	79.197	-175.1508
13400.000000	79.037	-168.2528
13600.000000	79.054	-161.6296
13800.000000	79.256	-155.2729
14000.000000	79.668	-149.2989
14300.000000	80.727	-141.5983
14500.000000	81.723	-137.9357
14750.000000	83.170	-136.1527
15000.000000	84.570	-138.7619
15250.000000	85.576	-146.1924
15500.000000	85.936	-156.6649
15750.000000	85.594	-166.5368
16000.000000	84.732	-172.4603
16250.000000	83.773	-173.7011
16500.000000	83.154	-172.2276
16750.000000	82.998	-170.1962
17000.000000	83.246	-168.2558
17250.000000	83.949	-166.6577
17500.000000	85.124	-166.6620
17750.000000	86.527	-170.4883
18000.000000	87.726	179.7999
18250.000000	88.317	164.2501
18500.000000	88.075	146.1866
18750.000000	87.018	130.2261
19000.000000	85.347	118.9957
19250.000000	83.336	112.3112
19500.000000	81.274	108.6190
19750.000000	79.469	106.5414
20000.000000	78.303	105.4868
