* Measurement data measured by REW V5.20.13
* Source: Microphone (USB Sound Device        ), MICROPHONE (Master Volume), L, volume: 0.250
* Format: 128k Log Swept Sine, 1 sweep at -12.0 dBFS with no timing reference
* Dated: Dec 3, 2023 8:03:46 AM
* REW Settings:
*  C-weighting compensation: Off
*  Target level: 75.0 dB
* Note: 
* Measurement: FULTRA RIGHT GOLD
* Smoothing: 1/12 octave
* Frequency Step: 1/48 octave
* Start Frequency: 20.000 Hz
*
* Freq(Hz)	SPL(dB)	Phase(degrees)
20.000000	93.934	-115.7064
20.299999	93.988	-116.6288
20.600000	94.042	-117.5654
20.900000	94.096	-118.5134
21.200001	94.150	-119.4663
21.400000	94.187	-120.0994
21.799999	94.262	-121.3543
22.000000	94.301	-121.9738
22.400000	94.382	-123.1949
22.700001	94.443	-124.0931
23.000000	94.505	-124.9712
23.299999	94.565	-125.8215
23.600000	94.624	-126.6379
24.000000	94.701	-127.6692
24.299999	94.758	-128.4030
24.700001	94.831	-129.3394
25.000000	94.882	-130.0182
25.400000	94.946	-130.8982
25.799999	95.002	-131.7508
26.200001	95.050	-132.5768
26.500000	95.082	-133.1817
26.900000	95.120	-133.9755
27.200001	95.144	-134.5668
27.600000	95.173	-135.3563
28.000000	95.199	-136.1520
28.500000	95.226	-137.1586
29.000000	95.250	-138.1760
29.500000	95.272	-139.1969
30.000000	95.295	-140.2121
30.400000	95.314	-141.0161
30.700001	95.330	-141.6138
31.100000	95.352	-142.4031
31.500000	95.375	-143.1821
32.000000	95.404	-144.1360
32.500000	95.431	-145.0592
33.000000	95.456	-145.9421
33.500000	95.478	-146.7800
34.000000	95.498	-147.5771
34.500000	95.517	-148.3454
35.000000	95.532	-149.0968
35.500000	95.544	-149.8388
36.000000	95.551	-150.5726
36.500000	95.554	-151.2977
37.000000	95.555	-152.0145
37.500000	95.554	-152.7238
38.200001	95.551	-153.7065
38.700001	95.550	-154.4032
39.500000	95.548	-155.5108
40.000000	95.548	-156.1957
40.599998	95.547	-157.0034
41.200001	95.545	-157.7886
41.799999	95.542	-158.5471
42.500000	95.538	-159.3979
43.099998	95.534	-160.1013
43.700001	95.528	-160.7851
44.400002	95.520	-161.5630
45.000000	95.511	-162.2168
45.500000	95.502	-162.7545
46.200001	95.488	-163.4980
46.799999	95.475	-164.1264
47.500000	95.458	-164.8490
48.200001	95.440	-165.5585
48.700001	95.427	-166.0555
49.400002	95.408	-166.7347
50.000000	95.393	-167.3021
50.799999	95.372	-168.0431
51.500000	95.354	-168.6803
52.200001	95.335	-169.3043
53.000000	95.312	-169.9953
53.799999	95.288	-170.6624
54.500000	95.267	-171.2324
55.200001	95.245	-171.7935
56.000000	95.217	-172.4195
57.000000	95.181	-173.1673
58.000000	95.147	-173.8868
59.000000	95.113	-174.6093
60.000000	95.075	-175.3366
60.799999	95.042	-175.9033
61.500000	95.011	-176.3815
62.200001	94.981	-176.8457
63.000000	94.946	-177.3625
64.000000	94.902	-177.9805
65.000000	94.860	-178.5609
66.000000	94.824	-179.1309
67.000000	94.789	-179.7172
68.000000	94.753	179.6907
69.000000	94.714	179.1139
70.000000	94.673	178.5631
71.000000	94.633	178.0394
72.000000	94.593	177.5392
73.000000	94.553	177.0591
74.000000	94.512	176.5938
75.000000	94.469	176.1387
76.199997	94.415	175.6064
77.500000	94.356	175.0481
78.800003	94.299	174.5042
80.000000	94.250	174.0075
81.199997	94.202	173.5198
82.500000	94.148	173.0230
83.800003	94.087	172.5756
85.000000	94.025	172.1898
86.199997	93.955	171.7963
87.500000	93.867	171.3592
88.500000	93.795	171.0579
90.000000	93.707	170.7054
91.199997	93.671	170.3936
92.500000	93.650	169.9415
93.800003	93.626	169.4598
95.000000	93.595	169.0621
96.199997	93.555	168.7203
97.500000	93.503	168.3930
98.800003	93.442	168.0886
100.000000	93.384	167.8181
101.500000	93.315	167.4871
103.000000	93.251	167.1645
104.400002	93.196	166.8759
106.000000	93.131	166.5587
107.500000	93.066	166.2758
109.000000	92.998	166.0121
110.599998	92.925	165.7509
112.000000	92.862	165.5417
113.800003	92.785	165.3080
115.000000	92.734	165.1723
117.199997	92.639	164.9399
118.000000	92.603	164.8575
120.599998	92.483	164.6176
122.000000	92.420	164.5167
124.099998	92.332	164.4147
125.000000	92.298	164.3932
126.500000	92.245	164.3901
128.000000	92.201	164.4179
131.500000	92.130	164.4846
132.000000	92.121	164.4932
134.000000	92.087	164.5400
136.000000	92.056	164.5844
138.000000	92.026	164.5617
140.000000	91.993	164.4424
143.000000	91.944	164.1143
145.000000	91.910	163.8138
147.500000	91.855	163.4054
150.000000	91.785	163.0512
152.500000	91.711	162.7776
155.000000	91.636	162.5386
157.500000	91.557	162.3159
160.000000	91.474	162.1259
162.500000	91.390	161.9766
165.000000	91.309	161.8567
167.500000	91.230	161.7574
170.000000	91.156	161.6824
172.500000	91.087	161.6318
175.000000	91.020	161.5967
177.500000	90.954	161.5643
180.000000	90.888	161.5346
182.500000	90.822	161.5211
185.000000	90.756	161.5287
187.500000	90.691	161.5476
190.000000	90.625	161.5681
192.500000	90.560	161.5934
195.000000	90.495	161.6353
197.500000	90.431	161.6953
200.000000	90.369	161.7624
203.000000	90.296	161.8419
206.000000	90.225	161.9255
209.000000	90.156	162.0235
212.000000	90.090	162.1403
214.000000	90.047	162.2275
218.000000	89.964	162.4089
220.000000	89.925	162.4984
224.000000	89.849	162.6767
227.000000	89.794	162.8076
230.000000	89.739	162.9332
233.000000	89.683	163.0616
236.000000	89.626	163.2018
240.000000	89.550	163.4069
243.000000	89.495	163.5711
247.000000	89.425	163.7959
250.000000	89.375	163.9653
254.000000	89.312	164.1965
258.000000	89.249	164.4322
262.000000	89.187	164.6677
265.000000	89.142	164.8523
269.000000	89.084	165.1128
272.000000	89.042	165.3111
276.000000	88.990	165.5691
280.000000	88.942	165.8119
285.000000	88.881	166.0871
290.000000	88.819	166.3583
295.000000	88.756	166.6520
300.000000	88.692	166.9536
304.000000	88.642	167.1987
307.000000	88.605	167.3880
311.000000	88.556	167.6471
315.000000	88.509	167.9109
320.000000	88.453	168.2473
325.000000	88.398	168.5916
330.000000	88.344	168.9376
335.000000	88.292	169.2862
340.000000	88.243	169.6371
345.000000	88.193	169.9856
350.000000	88.146	170.3377
355.000000	88.101	170.6996
360.000000	88.057	171.0639
365.000000	88.015	171.4254
370.000000	87.974	171.7884
375.000000	87.934	172.1543
382.000000	87.881	172.6665
387.000000	87.845	173.0331
395.000000	87.788	173.6268
400.000000	87.753	173.9998
406.000000	87.714	174.4464
412.000000	87.678	174.8900
418.000000	87.641	175.3304
425.000000	87.601	175.8453
431.000000	87.569	176.2935
437.000000	87.537	176.7465
444.000000	87.501	177.2751
450.000000	87.472	177.7288
455.000000	87.449	178.1056
462.000000	87.419	178.6251
468.000000	87.394	179.0649
475.000000	87.366	179.5832
482.000000	87.340	-179.8926
487.000000	87.322	-179.5206
494.000000	87.298	-179.0047
500.000000	87.280	-178.5611
508.000000	87.256	-177.9643
515.000000	87.238	-177.4437
522.000000	87.221	-176.9282
530.000000	87.201	-176.3405
538.000000	87.182	-175.7505
545.000000	87.168	-175.2330
552.000000	87.155	-174.7150
560.000000	87.141	-174.1251
570.000000	87.126	-173.3950
580.000000	87.115	-172.6652
590.000000	87.107	-171.9355
600.000000	87.099	-171.2118
608.000000	87.095	-170.6275
615.000000	87.093	-170.1123
622.000000	87.093	-169.6012
630.000000	87.093	-169.0253
640.000000	87.094	-168.3073
650.000000	87.097	-167.5805
660.000000	87.103	-166.8547
670.000000	87.112	-166.1344
680.000000	87.124	-165.4112
690.000000	87.137	-164.6870
700.000000	87.152	-163.9704
710.000000	87.170	-163.2589
720.000000	87.190	-162.5465
730.000000	87.212	-161.8347
740.000000	87.237	-161.1284
750.000000	87.264	-160.4258
762.000000	87.300	-159.5821
775.000000	87.342	-158.6763
788.000000	87.390	-157.7881
800.000000	87.438	-156.9744
812.000000	87.488	-156.1627
825.000000	87.547	-155.2930
838.000000	87.610	-154.4366
850.000000	87.672	-153.6601
862.000000	87.738	-152.8956
875.000000	87.813	-152.0807
885.000000	87.874	-151.4692
900.000000	87.968	-150.5841
912.000000	88.047	-149.8984
925.000000	88.136	-149.1715
938.000000	88.229	-148.4679
950.000000	88.317	-147.8464
962.000000	88.407	-147.2498
975.000000	88.508	-146.6253
988.000000	88.612	-146.0264
1000.000000	88.709	-145.5051
1015.000000	88.831	-144.8962
1030.000000	88.956	-144.3239
1044.000000	89.074	-143.8251
1060.000000	89.210	-143.3091
1075.000000	89.339	-142.8760
1090.000000	89.468	-142.4832
1106.000000	89.605	-142.1135
1120.000000	89.723	-141.8401
1138.000000	89.870	-141.5511
1150.000000	89.964	-141.3846
1172.000000	90.127	-141.0960
1180.000000	90.186	-140.9912
1206.000000	90.380	-140.6729
1220.000000	90.488	-140.5419
1241.000000	90.646	-140.4302
1250.000000	90.711	-140.4138
1265.000000	90.812	-140.4174
1280.000000	90.905	-140.4408
1315.000000	91.095	-140.4688
1320.000000	91.121	-140.4629
1340.000000	91.223	-140.4048
1360.000000	91.327	-140.2970
1380.000000	91.433	-140.1675
1400.000000	91.542	-140.0466
1430.000000	91.710	-139.9041
1450.000000	91.821	-139.8380
1475.000000	91.960	-139.7957
1500.000000	92.098	-139.7977
1525.000000	92.233	-139.8334
1550.000000	92.366	-139.8965
1575.000000	92.498	-139.9888
1600.000000	92.628	-140.1154
1625.000000	92.756	-140.2764
1650.000000	92.883	-140.4672
1675.000000	93.008	-140.6848
1700.000000	93.130	-140.9324
1725.000000	93.249	-141.2148
1750.000000	93.368	-141.5317
1775.000000	93.484	-141.8838
1800.000000	93.597	-142.2704
1825.000000	93.707	-142.6880
1850.000000	93.814	-143.1363
1875.000000	93.918	-143.6193
1900.000000	94.018	-144.1386
1925.000000	94.115	-144.6882
1950.000000	94.208	-145.2618
1975.000000	94.298	-145.8610
2000.000000	94.382	-146.4914
2030.000000	94.477	-147.2900
2060.000000	94.567	-148.1256
2090.000000	94.649	-148.9908
2120.000000	94.724	-149.8857
2140.000000	94.769	-150.4980
2180.000000	94.850	-151.7509
2200.000000	94.886	-152.3894
2240.000000	94.947	-153.6913
2270.000000	94.982	-154.6812
2300.000000	95.010	-155.6701
2330.000000	95.030	-156.6545
2360.000000	95.042	-157.6364
2400.000000	95.046	-158.9327
2430.000000	95.041	-159.8786
2470.000000	95.026	-161.0934
2500.000000	95.008	-161.9730
2540.000000	94.977	-163.1005
2580.000000	94.941	-164.1678
2620.000000	94.901	-165.1783
2650.000000	94.866	-165.9019
2690.000000	94.816	-166.8139
2720.000000	94.778	-167.4518
2760.000000	94.724	-168.2460
2800.000000	94.669	-168.9850
2850.000000	94.599	-169.8227
2900.000000	94.531	-170.5564
2950.000000	94.465	-171.2070
3000.000000	94.405	-171.7861
3040.000000	94.361	-172.1924
3070.000000	94.332	-172.4670
3110.000000	94.296	-172.8049
3150.000000	94.266	-173.1197
3200.000000	94.235	-173.4829
3250.000000	94.214	-173.8215
3300.000000	94.200	-174.1574
3350.000000	94.194	-174.4991
3400.000000	94.195	-174.8441
3450.000000	94.202	-175.2062
3500.000000	94.215	-175.6069
3550.000000	94.233	-176.0505
3600.000000	94.255	-176.5345
3650.000000	94.279	-177.0687
3700.000000	94.305	-177.6677
3750.000000	94.331	-178.3338
3820.000000	94.364	-179.3697
3870.000000	94.383	179.8120
3950.000000	94.402	178.3585
4000.000000	94.404	177.3726
4060.000000	94.394	176.1204
4120.000000	94.369	174.7932
4180.000000	94.328	173.4041
4250.000000	94.256	171.7336
4310.000000	94.172	170.2673
4370.000000	94.066	168.7751
4440.000000	93.912	167.0435
4500.000000	93.752	165.6140
4550.000000	93.598	164.4830
4620.000000	93.356	163.0191
4680.000000	93.125	161.9087
4750.000000	92.831	160.8185
4820.000000	92.518	159.9614
4870.000000	92.287	159.4929
4940.000000	91.955	159.0460
5000.000000	91.668	158.8616
5080.000000	91.287	158.8835
5150.000000	90.963	159.1245
5220.000000	90.650	159.5537
5300.000000	90.308	160.2587
5380.000000	89.985	161.1586
5450.000000	89.720	162.0752
5520.000000	89.469	163.1020
5600.000000	89.199	164.4124
5700.000000	88.886	166.2432
5800.000000	88.601	168.2710
5900.000000	88.348	170.5118
6000.000000	88.135	172.9604
6080.000000	88.002	175.0119
6150.000000	87.909	176.8361
6220.000000	87.836	178.6910
6300.000000	87.775	-179.1340
6400.000000	87.744	-176.3431
6500.000000	87.769	-173.5162
6600.000000	87.854	-170.6999
6700.000000	88.001	-167.9428
6800.000000	88.213	-165.3000
6900.000000	88.497	-162.8254
7000.000000	88.857	-160.5800
7100.000000	89.298	-158.6666
7200.000000	89.820	-157.2329
7300.000000	90.412	-156.4376
7400.000000	91.060	-156.4385
7500.000000	91.744	-157.4047
7620.000000	92.578	-160.1126
7750.000000	93.418	-165.3861
7880.000000	94.052	-173.4718
8000.000000	94.308	176.8339
8120.000000	94.149	166.1915
8250.000000	93.492	155.5719
8380.000000	92.426	147.5336
8500.000000	91.216	142.8680
8620.000000	89.919	140.5672
8750.000000	88.525	140.1342
8850.000000	87.509	140.8607
9000.000000	86.121	143.1444
9120.000000	85.137	145.7054
9250.000000	84.194	149.0045
9380.000000	83.372	152.7053
9500.000000	82.716	156.3811
9620.000000	82.156	160.2222
9750.000000	81.647	164.4681
9880.000000	81.221	168.7518
10000.000000	80.893	172.7557
10150.000000	80.573	177.8296
10300.000000	80.354	-177.0533
10440.000000	80.238	-172.2859
10600.000000	80.209	-166.9033
10750.000000	80.281	-161.9516
10900.000000	80.449	-157.1210
11060.000000	80.740	-152.1609
11200.000000	81.097	-148.0482
11380.000000	81.703	-143.1827
11500.000000	82.202	-140.2877
11720.000000	83.321	-136.0354
11800.000000	83.790	-134.9470
12060.000000	85.470	-133.8742
12200.000000	86.390	-135.3655
12410.000000	87.594	-141.0190
12500.000000	87.988	-144.7148
12650.000000	88.416	-152.2336
12800.000000	88.513	-160.6663
13150.000000	87.509	-177.8868
13200.000000	87.257	-179.6440
13400.000000	86.110	175.3886
13600.000000	84.889	173.2714
13800.000000	83.753	173.1138
14000.000000	82.799	174.0451
14300.000000	81.771	176.0027
14500.000000	81.329	176.9183
14750.000000	80.963	176.9369
15000.000000	80.676	175.3453
15250.000000	80.320	172.2776
15500.000000	79.787	168.4074
15750.000000	79.039	164.7013
16000.000000	78.110	162.0010
16250.000000	77.095	160.6746
16500.000000	76.118	160.5528
16750.000000	75.298	161.0392
17000.000000	74.701	161.2170
17250.000000	74.314	160.0044
17500.000000	74.021	156.4679
17750.000000	73.628	150.2492
18000.000000	72.925	142.0172
18250.000000	71.772	133.4641
18500.000000	70.139	126.5060
18750.000000	68.089	122.3206
19000.000000	65.725	121.0677
19250.000000	63.157	122.2475
19500.000000	60.500	125.0639
19750.000000	57.967	128.4100
20000.000000	56.106	130.8050
