* Measurement data measured by REW V5.20.13
* Source: Microphone (USB Sound Device        ), MICROPHONE (Master Volume), L, volume: 0.250
* Format: 128k Log Swept Sine, 1 sweep at -12.0 dBFS with no timing reference
* Dated: Dec 3, 2023 7:52:50 AM
* REW Settings:
*  C-weighting compensation: Off
*  Target level: 75.0 dB
* Note: 
* Measurement: FULTRA LEFT BLUE
* Smoothing: 1/12 octave
* Frequency Step: 1/48 octave
* Start Frequency: 20.000 Hz
*
* Freq(Hz)	SPL(dB)	Phase(degrees)
20.000000	93.203	-116.1839
20.299999	93.250	-117.2038
20.600000	93.293	-118.2274
20.900000	93.335	-119.2268
21.200001	93.382	-120.1923
21.400000	93.418	-120.8268
21.799999	93.504	-122.1016
22.000000	93.551	-122.7522
22.400000	93.647	-124.0824
22.700001	93.716	-125.0768
23.000000	93.779	-126.0270
23.299999	93.840	-126.9044
23.600000	93.903	-127.7049
24.000000	93.992	-128.6788
24.299999	94.063	-129.3786
24.700001	94.157	-130.3142
25.000000	94.221	-131.0240
25.400000	94.290	-131.9556
25.799999	94.342	-132.8253
26.200001	94.385	-133.6140
26.500000	94.415	-134.1690
26.900000	94.455	-134.9020
27.200001	94.484	-135.4749
27.600000	94.518	-136.2860
28.000000	94.543	-137.1362
28.500000	94.561	-138.2005
29.000000	94.576	-139.2251
29.500000	94.598	-140.2235
30.000000	94.630	-141.2409
30.400000	94.659	-142.0832
30.700001	94.681	-142.7252
31.100000	94.708	-143.5744
31.500000	94.734	-144.3952
32.000000	94.765	-145.3636
32.500000	94.799	-146.2730
33.000000	94.833	-147.1417
33.500000	94.864	-147.9811
34.000000	94.890	-148.7920
34.500000	94.910	-149.5724
35.000000	94.924	-150.3242
35.500000	94.935	-151.0547
36.000000	94.942	-151.7744
36.500000	94.947	-152.4940
37.000000	94.950	-153.2228
37.500000	94.952	-153.9624
38.200001	94.950	-155.0020
38.700001	94.948	-155.7325
39.500000	94.947	-156.8657
40.000000	94.948	-157.5562
40.599998	94.951	-158.3715
41.200001	94.952	-159.1658
41.799999	94.951	-159.9257
42.500000	94.949	-160.7624
43.099998	94.947	-161.4492
43.700001	94.945	-162.1265
44.400002	94.941	-162.9175
45.000000	94.933	-163.5956
45.500000	94.924	-164.1557
46.200001	94.909	-164.9238
46.799999	94.894	-165.5639
47.500000	94.877	-166.2931
48.200001	94.860	-167.0100
48.700001	94.847	-167.5141
49.400002	94.829	-168.2022
50.000000	94.814	-168.7746
50.799999	94.795	-169.5231
51.500000	94.778	-170.1719
52.200001	94.760	-170.8112
53.000000	94.738	-171.5218
53.799999	94.715	-172.2114
54.500000	94.694	-172.8004
55.200001	94.672	-173.3737
56.000000	94.647	-174.0058
57.000000	94.614	-174.7673
58.000000	94.580	-175.5109
59.000000	94.544	-176.2413
60.000000	94.505	-176.9499
60.799999	94.472	-177.4940
61.500000	94.445	-177.9547
62.200001	94.419	-178.4065
63.000000	94.389	-178.9163
64.000000	94.352	-179.5437
65.000000	94.312	179.8459
66.000000	94.270	179.2599
67.000000	94.228	178.6959
68.000000	94.187	178.1434
69.000000	94.146	177.5951
70.000000	94.105	177.0527
71.000000	94.063	176.5255
72.000000	94.021	176.0254
73.000000	93.980	175.5577
74.000000	93.941	175.1125
75.000000	93.902	174.6686
76.199997	93.854	174.1259
77.500000	93.796	173.5468
78.800003	93.738	172.9914
80.000000	93.687	172.4949
81.199997	93.638	172.0157
82.500000	93.586	171.5328
83.800003	93.533	171.0907
85.000000	93.480	170.7053
86.199997	93.421	170.3336
87.500000	93.348	169.9578
88.500000	93.291	169.7029
90.000000	93.219	169.3455
91.199997	93.179	168.9925
92.500000	93.139	168.5315
93.800003	93.094	168.0748
95.000000	93.051	167.7026
96.199997	93.005	167.3782
97.500000	92.954	167.0648
98.800003	92.900	166.7750
100.000000	92.849	166.5173
101.500000	92.785	166.1976
103.000000	92.721	165.8785
104.400002	92.663	165.5887
106.000000	92.597	165.2791
107.500000	92.537	165.0178
109.000000	92.478	164.7909
110.599998	92.415	164.5862
112.000000	92.359	164.4215
113.800003	92.282	164.1962
115.000000	92.226	164.0371
117.199997	92.123	163.7571
118.000000	92.087	163.6644
120.599998	91.979	163.4150
122.000000	91.926	163.3157
124.099998	91.850	163.2081
125.000000	91.818	163.1753
126.500000	91.767	163.1356
128.000000	91.721	163.1086
131.500000	91.627	163.0352
132.000000	91.615	163.0198
134.000000	91.567	162.9482
136.000000	91.519	162.8676
138.000000	91.471	162.7899
140.000000	91.425	162.7217
143.000000	91.366	162.6130
145.000000	91.332	162.5213
147.500000	91.291	162.3827
150.000000	91.247	162.2130
152.500000	91.200	162.0042
155.000000	91.149	161.7602
157.500000	91.093	161.5105
160.000000	91.028	161.2829
162.500000	90.958	161.0926
165.000000	90.886	160.9372
167.500000	90.813	160.8079
170.000000	90.739	160.7097
172.500000	90.666	160.6415
175.000000	90.594	160.5918
177.500000	90.519	160.5649
180.000000	90.443	160.5681
182.500000	90.366	160.5834
185.000000	90.291	160.5932
187.500000	90.218	160.6064
190.000000	90.144	160.6432
192.500000	90.072	160.7062
195.000000	90.002	160.7828
197.500000	89.934	160.8633
200.000000	89.868	160.9458
203.000000	89.790	161.0483
206.000000	89.712	161.1529
209.000000	89.637	161.2614
212.000000	89.564	161.3762
214.000000	89.518	161.4535
218.000000	89.429	161.6031
220.000000	89.385	161.6786
224.000000	89.298	161.8428
227.000000	89.233	161.9748
230.000000	89.169	162.1108
233.000000	89.106	162.2545
236.000000	89.045	162.4082
240.000000	88.967	162.6222
243.000000	88.910	162.7845
247.000000	88.836	163.0050
250.000000	88.782	163.1749
254.000000	88.712	163.4037
258.000000	88.643	163.6353
262.000000	88.576	163.8777
265.000000	88.526	164.0691
269.000000	88.463	164.3324
272.000000	88.418	164.5300
276.000000	88.361	164.7876
280.000000	88.308	165.0343
285.000000	88.243	165.3231
290.000000	88.177	165.5988
295.000000	88.109	165.8762
300.000000	88.041	166.1584
304.000000	87.987	166.3902
307.000000	87.947	166.5704
311.000000	87.894	166.8207
315.000000	87.842	167.0796
320.000000	87.779	167.4072
325.000000	87.719	167.7377
330.000000	87.660	168.0750
335.000000	87.603	168.4182
340.000000	87.549	168.7623
345.000000	87.496	169.1049
350.000000	87.444	169.4500
355.000000	87.394	169.8017
360.000000	87.345	170.1561
365.000000	87.298	170.5074
370.000000	87.253	170.8574
375.000000	87.209	171.2100
382.000000	87.149	171.7077
387.000000	87.108	172.0642
395.000000	87.044	172.6381
400.000000	87.006	172.9981
406.000000	86.962	173.4279
412.000000	86.920	173.8572
418.000000	86.878	174.2913
425.000000	86.832	174.8026
431.000000	86.794	175.2411
437.000000	86.757	175.6753
444.000000	86.716	176.1767
450.000000	86.681	176.6082
455.000000	86.654	176.9706
462.000000	86.617	177.4799
468.000000	86.586	177.9169
475.000000	86.552	178.4270
482.000000	86.519	178.9336
487.000000	86.496	179.2916
494.000000	86.466	179.7898
500.000000	86.441	-179.7817
508.000000	86.408	-179.2058
515.000000	86.381	-178.6998
522.000000	86.356	-178.1928
530.000000	86.329	-177.6127
538.000000	86.304	-177.0321
545.000000	86.282	-176.5243
552.000000	86.262	-176.0201
560.000000	86.241	-175.4498
570.000000	86.215	-174.7401
580.000000	86.193	-174.0261
590.000000	86.175	-173.3070
600.000000	86.157	-172.5889
608.000000	86.144	-172.0153
615.000000	86.134	-171.5134
622.000000	86.126	-171.0121
630.000000	86.117	-170.4395
640.000000	86.107	-169.7203
650.000000	86.100	-168.9975
660.000000	86.095	-168.2749
670.000000	86.093	-167.5526
680.000000	86.094	-166.8296
690.000000	86.096	-166.1105
700.000000	86.101	-165.3990
710.000000	86.107	-164.6896
720.000000	86.116	-163.9741
730.000000	86.126	-163.2558
740.000000	86.139	-162.5411
750.000000	86.155	-161.8291
762.000000	86.177	-160.9760
775.000000	86.205	-160.0567
788.000000	86.238	-159.1468
800.000000	86.273	-158.3156
812.000000	86.310	-157.4929
825.000000	86.354	-156.6095
838.000000	86.403	-155.7310
850.000000	86.452	-154.9270
862.000000	86.504	-154.1336
875.000000	86.565	-153.2892
885.000000	86.614	-152.6524
900.000000	86.692	-151.7203
912.000000	86.757	-150.9943
925.000000	86.833	-150.2272
938.000000	86.912	-149.4840
950.000000	86.988	-148.8227
962.000000	87.066	-148.1845
975.000000	87.155	-147.5157
988.000000	87.246	-146.8701
1000.000000	87.333	-146.3002
1015.000000	87.443	-145.6297
1030.000000	87.555	-145.0009
1044.000000	87.662	-144.4484
1060.000000	87.787	-143.8690
1075.000000	87.906	-143.3870
1090.000000	88.025	-142.9683
1106.000000	88.153	-142.6056
1120.000000	88.258	-142.3736
1138.000000	88.377	-142.1779
1150.000000	88.439	-142.0605
1172.000000	88.528	-141.6815
1180.000000	88.561	-141.4692
1206.000000	88.703	-140.6842
1220.000000	88.796	-140.3281
1241.000000	88.935	-139.9443
1250.000000	88.989	-139.8189
1265.000000	89.073	-139.6301
1280.000000	89.148	-139.4392
1315.000000	89.311	-138.9138
1320.000000	89.334	-138.8299
1340.000000	89.431	-138.4810
1360.000000	89.531	-138.1218
1380.000000	89.632	-137.7670
1400.000000	89.735	-137.4285
1430.000000	89.889	-136.9532
1450.000000	89.991	-136.6539
1475.000000	90.119	-136.2985
1500.000000	90.248	-135.9594
1525.000000	90.376	-135.6309
1550.000000	90.505	-135.3163
1575.000000	90.634	-135.0189
1600.000000	90.764	-134.7344
1625.000000	90.895	-134.4618
1650.000000	91.027	-134.2039
1675.000000	91.161	-133.9648
1700.000000	91.295	-133.7472
1725.000000	91.431	-133.5507
1750.000000	91.568	-133.3744
1775.000000	91.707	-133.2207
1800.000000	91.846	-133.0933
1825.000000	91.986	-132.9920
1850.000000	92.127	-132.9152
1875.000000	92.269	-132.8648
1900.000000	92.411	-132.8450
1925.000000	92.553	-132.8570
1950.000000	92.696	-132.8999
1975.000000	92.839	-132.9756
2000.000000	92.982	-133.0872
2030.000000	93.153	-133.2693
2060.000000	93.324	-133.5018
2090.000000	93.493	-133.7851
2120.000000	93.660	-134.1230
2140.000000	93.770	-134.3799
2180.000000	93.987	-134.9659
2200.000000	94.093	-135.2940
2240.000000	94.302	-136.0257
2270.000000	94.453	-136.6405
2300.000000	94.599	-137.3087
2330.000000	94.740	-138.0287
2360.000000	94.875	-138.8001
2400.000000	95.045	-139.9054
2430.000000	95.164	-140.7857
2470.000000	95.312	-142.0218
2500.000000	95.413	-142.9948
2540.000000	95.536	-144.3451
2580.000000	95.642	-145.7399
2620.000000	95.734	-147.1682
2650.000000	95.793	-148.2571
2690.000000	95.857	-149.7226
2720.000000	95.896	-150.8216
2760.000000	95.934	-152.2770
2800.000000	95.958	-153.7160
2850.000000	95.969	-155.4742
2900.000000	95.961	-157.1646
2950.000000	95.937	-158.7764
3000.000000	95.898	-160.3035
3040.000000	95.859	-161.4564
3070.000000	95.825	-162.2793
3110.000000	95.776	-163.3227
3150.000000	95.721	-164.3047
3200.000000	95.647	-165.4416
3250.000000	95.570	-166.4785
3300.000000	95.490	-167.4261
3350.000000	95.409	-168.2924
3400.000000	95.329	-169.0782
3450.000000	95.249	-169.7903
3500.000000	95.172	-170.4413
3550.000000	95.097	-171.0377
3600.000000	95.025	-171.5813
3650.000000	94.956	-172.0786
3700.000000	94.890	-172.5403
3750.000000	94.828	-172.9711
3820.000000	94.745	-173.5228
3870.000000	94.690	-173.8880
3950.000000	94.607	-174.4435
4000.000000	94.559	-174.7741
4060.000000	94.505	-175.1530
4120.000000	94.454	-175.5190
4180.000000	94.406	-175.8770
4250.000000	94.354	-176.2849
4310.000000	94.314	-176.6346
4370.000000	94.278	-177.0004
4440.000000	94.240	-177.4628
4500.000000	94.207	-177.8963
4550.000000	94.179	-178.2861
4620.000000	94.134	-178.8742
4680.000000	94.090	-179.4078
4750.000000	94.029	179.9558
4820.000000	93.957	179.3215
4870.000000	93.899	178.8762
4940.000000	93.809	178.2757
5000.000000	93.723	177.7957
5080.000000	93.597	177.2247
5150.000000	93.477	176.8004
5220.000000	93.351	176.4543
5300.000000	93.200	176.1638
5380.000000	93.046	175.9874
5450.000000	92.910	175.9211
5520.000000	92.774	175.9344
5600.000000	92.619	176.0491
5700.000000	92.429	176.3416
5800.000000	92.246	176.7963
5900.000000	92.077	177.4120
6000.000000	91.930	178.1680
6080.000000	91.833	178.8206
6150.000000	91.764	179.3748
6220.000000	91.705	179.8880
6300.000000	91.644	-179.5809
6400.000000	91.570	-179.0005
6500.000000	91.487	-178.4808
6600.000000	91.386	-177.9038
6700.000000	91.273	-177.1060
6800.000000	91.174	-175.9861
6900.000000	91.125	-174.5807
7000.000000	91.150	-173.0542
7100.000000	91.256	-171.6251
7200.000000	91.436	-170.4942
7300.000000	91.674	-169.8073
7400.000000	91.949	-169.6578
7500.000000	92.243	-170.1119
7620.000000	92.595	-171.5325
7750.000000	92.936	-174.2142
7880.000000	93.183	-178.0645
8000.000000	93.284	177.4832
8120.000000	93.228	172.4519
8250.000000	92.967	166.8194
8380.000000	92.497	161.5565
8500.000000	91.900	157.4560
8620.000000	91.180	154.3460
8750.000000	90.310	152.2127
8850.000000	89.610	151.4238
9000.000000	88.558	151.4649
9120.000000	87.750	152.3850
9250.000000	86.930	154.0988
9380.000000	86.183	156.4087
9500.000000	85.570	158.9493
9620.000000	85.035	161.7679
9750.000000	84.543	165.0062
9880.000000	84.128	168.3725
10000.000000	83.810	171.5966
10150.000000	83.505	175.7568
10300.000000	83.306	179.9864
10440.000000	83.217	-176.0779
10600.000000	83.233	-171.6849
10750.000000	83.364	-167.7578
10900.000000	83.608	-164.1082
11060.000000	83.995	-160.6507
11200.000000	84.440	-158.1423
11380.000000	85.147	-155.9138
11500.000000	85.682	-155.2552
11720.000000	86.713	-156.3457
11800.000000	87.069	-157.6213
12060.000000	87.961	-165.2592
12200.000000	88.166	-171.2282
12410.000000	87.998	178.9144
12500.000000	87.749	174.9034
12650.000000	87.122	169.1547
12800.000000	86.286	164.9901
13150.000000	83.938	161.7023
13200.000000	83.595	161.8538
13400.000000	82.283	163.5798
13600.000000	81.120	166.6311
13800.000000	80.148	170.5026
14000.000000	79.381	174.8082
14300.000000	78.634	-178.5900
14500.000000	78.408	-174.5226
14750.000000	78.418	-170.3986
15000.000000	78.700	-168.0334
15250.000000	79.135	-168.2098
15500.000000	79.540	-171.5040
15750.000000	79.703	-177.7823
16000.000000	79.455	174.1913
16250.000000	78.736	166.4223
16500.000000	77.617	160.6290
16750.000000	76.260	157.4271
17000.000000	74.852	156.3968
17250.000000	73.543	156.6053
17500.000000	72.407	157.0211
17750.000000	71.433	156.7600
18000.000000	70.531	155.2735
18250.000000	69.574	152.4867
18500.000000	68.439	148.8489
18750.000000	67.039	145.2020
19000.000000	65.335	142.4711
19250.000000	63.341	141.3141
19500.000000	61.135	141.8058
19750.000000	58.946	143.2703
20000.000000	57.335	144.5156
