* Measurement data measured by REW V5.20.13
* Source: EXCL: Microphone (USB Sound Device        ), MICROPHONE (Master Volume), L, volume: 0.250. Timing signal peak level -43.0 dBFS, measurement signal peak level -26.1 dBFS
* Format: 128k Log Swept Sine, 1 sweep at -12.0 dBFS using an acoustic timing reference
* Dated: Jul 29, 2023 12:54:50 PM
* REW Settings:
*  C-weighting compensation: Off
*  Target level: 75.0 dB
* Note: Delay -0.0103 ms (-3.5 mm, -0.14 in) using estimated IR delay relative to Acoustic reference played from SPEAKER R with no timing offset
* Measurement: GAEA L
* Smoothing: 1/12 octave
* Frequency Step: 1/48 octave
* Start Frequency: 20.000 Hz
*
* Freq(Hz)	SPL(dB)	Phase(degrees)
20.000000	86.200	-160.9734
20.299999	86.382	-161.9259
20.600000	86.525	-163.2585
20.900000	86.619	-164.7529
21.200001	86.670	-166.1935
21.400000	86.690	-167.0484
21.799999	86.717	-168.4742
22.000000	86.734	-169.0540
22.400000	86.787	-170.0314
22.700001	86.843	-170.6934
23.000000	86.906	-171.3591
23.299999	86.967	-172.0446
23.600000	87.018	-172.7372
24.000000	87.065	-173.6267
24.299999	87.083	-174.2273
24.700001	87.093	-174.9092
25.000000	87.094	-175.3398
25.400000	87.095	-175.8528
25.799999	87.096	-176.3713
26.200001	87.092	-176.9505
26.500000	87.080	-177.4258
26.900000	87.050	-178.0822
27.200001	87.020	-178.5598
27.600000	86.975	-179.1497
28.000000	86.936	-179.6944
28.500000	86.905	179.6193
29.000000	86.892	178.8443
29.500000	86.886	177.9684
30.000000	86.879	177.0505
30.400000	86.874	176.3268
30.700001	86.871	175.7971
31.100000	86.870	175.1029
31.500000	86.870	174.4178
32.000000	86.867	173.5844
32.500000	86.862	172.8029
33.000000	86.858	172.0776
33.500000	86.859	171.3709
34.000000	86.862	170.6396
34.500000	86.858	169.8920
35.000000	86.847	169.1820
35.500000	86.837	168.5526
36.000000	86.839	167.9813
36.500000	86.856	167.3980
37.000000	86.878	166.7449
37.500000	86.894	166.0288
38.200001	86.891	165.0528
38.700001	86.874	164.4766
39.500000	86.849	163.8099
40.000000	86.844	163.4664
40.599998	86.848	163.0099
41.200001	86.846	162.4534
41.799999	86.829	161.8265
42.500000	86.792	161.0658
43.099998	86.753	160.4004
43.700001	86.711	159.7167
44.400002	86.661	158.9069
45.000000	86.621	158.2134
45.500000	86.593	157.6316
46.200001	86.559	156.8050
46.799999	86.533	156.1006
47.500000	86.503	155.3169
48.200001	86.475	154.5859
48.700001	86.457	154.0911
49.400002	86.432	153.4313
50.000000	86.413	152.8917
50.799999	86.391	152.1828
51.500000	86.373	151.5420
52.200001	86.354	150.8743
53.000000	86.327	150.1007
53.799999	86.296	149.3561
54.500000	86.268	148.7487
55.200001	86.244	148.1688
56.000000	86.219	147.5060
57.000000	86.183	146.6717
58.000000	86.143	145.8572
59.000000	86.102	145.0374
60.000000	86.061	144.1851
60.799999	86.027	143.4922
61.500000	85.998	142.8887
62.200001	85.971	142.2922
63.000000	85.941	141.6225
64.000000	85.906	140.8080
65.000000	85.870	140.0215
66.000000	85.832	139.2645
67.000000	85.794	138.5263
68.000000	85.757	137.7794
69.000000	85.717	137.0092
70.000000	85.672	136.2397
71.000000	85.624	135.5012
72.000000	85.578	134.7909
73.000000	85.530	134.0905
74.000000	85.479	133.3983
75.000000	85.422	132.7343
76.199997	85.355	131.9768
77.500000	85.292	131.1297
78.800003	85.234	130.1814
80.000000	85.175	129.2657
81.199997	85.116	128.3832
82.500000	85.056	127.4701
83.800003	85.001	126.5973
85.000000	84.951	125.8275
86.199997	84.901	125.0833
87.500000	84.842	124.3124
88.500000	84.795	123.7514
90.000000	84.725	122.9468
91.199997	84.668	122.3218
92.500000	84.604	121.6660
93.800003	84.538	121.0349
95.000000	84.473	120.4664
96.199997	84.406	119.8930
97.500000	84.328	119.2439
98.800003	84.244	118.5690
100.000000	84.167	117.9414
101.500000	84.082	117.1398
103.000000	84.011	116.2929
104.400002	83.952	115.4945
106.000000	83.890	114.6403
107.500000	83.835	113.9228
109.000000	83.781	113.2741
110.599998	83.718	112.6373
112.000000	83.657	112.1174
113.800003	83.567	111.4778
115.000000	83.501	111.0460
117.199997	83.373	110.1766
118.000000	83.325	109.8291
120.599998	83.190	108.6358
122.000000	83.135	108.0106
124.099998	83.069	107.2151
125.000000	83.043	106.9415
126.500000	82.995	106.5535
128.000000	82.937	106.1998
131.500000	82.777	105.3197
132.000000	82.755	105.1923
134.000000	82.680	104.7193
136.000000	82.624	104.3216
138.000000	82.581	103.9512
140.000000	82.543	103.5167
143.000000	82.494	102.6607
145.000000	82.469	101.9780
147.500000	82.444	101.0288
150.000000	82.410	100.0246
152.500000	82.361	99.0416
155.000000	82.301	98.1081
157.500000	82.232	97.2047
160.000000	82.155	96.3131
162.500000	82.073	95.4325
165.000000	81.991	94.5940
167.500000	81.914	93.8249
170.000000	81.837	93.1251
172.500000	81.757	92.4744
175.000000	81.675	91.8465
177.500000	81.593	91.2296
180.000000	81.514	90.6210
182.500000	81.440	90.0151
185.000000	81.373	89.4199
187.500000	81.311	88.8613
190.000000	81.252	88.3481
192.500000	81.198	87.8516
195.000000	81.147	87.3326
197.500000	81.096	86.7979
200.000000	81.037	86.2967
203.000000	80.961	85.7597
206.000000	80.885	85.2484
209.000000	80.817	84.7441
212.000000	80.757	84.2639
214.000000	80.720	83.9576
218.000000	80.647	83.3491
220.000000	80.611	83.0377
224.000000	80.539	82.4078
227.000000	80.490	81.9450
230.000000	80.445	81.4991
233.000000	80.403	81.0721
236.000000	80.364	80.6652
240.000000	80.316	80.1612
243.000000	80.281	79.8105
247.000000	80.232	79.3592
250.000000	80.197	79.0218
254.000000	80.157	78.5676
258.000000	80.125	78.1301
262.000000	80.096	77.7192
265.000000	80.073	77.3954
269.000000	80.042	76.9370
272.000000	80.025	76.6046
276.000000	80.011	76.1876
280.000000	79.999	75.7613
285.000000	79.976	75.2168
290.000000	79.951	74.7375
295.000000	79.931	74.2872
300.000000	79.916	73.8160
304.000000	79.905	73.4319
307.000000	79.899	73.1473
311.000000	79.895	72.7744
315.000000	79.893	72.4030
320.000000	79.892	71.9419
325.000000	79.894	71.4944
330.000000	79.895	71.0554
335.000000	79.897	70.6227
340.000000	79.900	70.1974
345.000000	79.906	69.7641
350.000000	79.914	69.3177
355.000000	79.923	68.8753
360.000000	79.932	68.4591
365.000000	79.944	68.0690
370.000000	79.959	67.6812
375.000000	79.974	67.2720
382.000000	79.992	66.6672
387.000000	80.003	66.2396
395.000000	80.020	65.5680
400.000000	80.034	65.1540
406.000000	80.055	64.6708
412.000000	80.077	64.2057
418.000000	80.098	63.7655
425.000000	80.121	63.2719
431.000000	80.141	62.8398
437.000000	80.162	62.3951
444.000000	80.187	61.8678
450.000000	80.213	61.4099
455.000000	80.236	61.0219
462.000000	80.269	60.4642
468.000000	80.295	59.9712
475.000000	80.319	59.3848
482.000000	80.337	58.7993
487.000000	80.348	58.3881
494.000000	80.359	57.8272
500.000000	80.366	57.3593
508.000000	80.370	56.7474
515.000000	80.371	56.2222
522.000000	80.371	55.7132
530.000000	80.372	55.1616
538.000000	80.375	54.6456
545.000000	80.376	54.2219
552.000000	80.375	53.8140
560.000000	80.372	53.3478
570.000000	80.369	52.7635
580.000000	80.361	52.2074
590.000000	80.350	51.6970
600.000000	80.336	51.2268
608.000000	80.325	50.8730
615.000000	80.315	50.5867
622.000000	80.303	50.3284
630.000000	80.286	50.0610
640.000000	80.263	49.7477
650.000000	80.239	49.4502
660.000000	80.215	49.1781
670.000000	80.189	48.9507
680.000000	80.166	48.7670
690.000000	80.145	48.6155
700.000000	80.123	48.4945
710.000000	80.099	48.3976
720.000000	80.076	48.3231
730.000000	80.054	48.2808
740.000000	80.033	48.2815
750.000000	80.013	48.3281
762.000000	79.992	48.4360
775.000000	79.971	48.6093
788.000000	79.950	48.8329
800.000000	79.933	49.0672
812.000000	79.920	49.3297
825.000000	79.911	49.6667
838.000000	79.908	50.0648
850.000000	79.911	50.4767
862.000000	79.920	50.9229
875.000000	79.934	51.4443
885.000000	79.950	51.8764
900.000000	79.983	52.5678
912.000000	80.019	53.1408
925.000000	80.066	53.7769
938.000000	80.122	54.4338
950.000000	80.181	55.0546
962.000000	80.249	55.6808
975.000000	80.334	56.3611
988.000000	80.429	57.0403
1000.000000	80.526	57.6656
1015.000000	80.657	58.4437
1030.000000	80.801	59.2098
1044.000000	80.947	59.9047
1060.000000	81.127	60.6578
1075.000000	81.308	61.3087
1090.000000	81.500	61.8985
1106.000000	81.717	62.4594
1120.000000	81.914	62.8934
1138.000000	82.176	63.3696
1150.000000	82.356	63.6273
1172.000000	82.697	63.9539
1180.000000	82.824	64.0223
1206.000000	83.242	64.0594
1220.000000	83.469	63.9649
1241.000000	83.809	63.6714
1250.000000	83.955	63.4896
1265.000000	84.195	63.1145
1280.000000	84.432	62.6535
1315.000000	84.959	61.2612
1320.000000	85.031	61.0274
1340.000000	85.308	60.0108
1360.000000	85.569	58.8773
1380.000000	85.813	57.6493
1400.000000	86.037	56.3434
1430.000000	86.333	54.2758
1450.000000	86.505	52.8480
1475.000000	86.694	51.0345
1500.000000	86.855	49.2195
1525.000000	86.991	47.4269
1550.000000	87.102	45.6777
1575.000000	87.192	43.9857
1600.000000	87.262	42.3585
1625.000000	87.316	40.8036
1650.000000	87.357	39.3322
1675.000000	87.388	37.9556
1700.000000	87.411	36.6707
1725.000000	87.425	35.4695
1750.000000	87.434	34.3466
1775.000000	87.437	33.2959
1800.000000	87.437	32.3146
1825.000000	87.436	31.4028
1850.000000	87.434	30.5573
1875.000000	87.431	29.7721
1900.000000	87.430	29.0424
1925.000000	87.430	28.3650
1950.000000	87.432	27.7347
1975.000000	87.438	27.1461
2000.000000	87.447	26.5949
2030.000000	87.462	25.9793
2060.000000	87.483	25.4094
2090.000000	87.510	24.8809
2120.000000	87.543	24.3905
2140.000000	87.570	24.0841
2180.000000	87.638	23.5127
2200.000000	87.680	23.2387
2240.000000	87.783	22.6769
2270.000000	87.876	22.2063
2300.000000	87.979	21.6578
2330.000000	88.087	21.0084
2360.000000	88.196	20.2512
2400.000000	88.334	19.0880
2430.000000	88.428	18.1222
2470.000000	88.539	16.7453
2500.000000	88.612	15.6660
2540.000000	88.694	14.1856
2580.000000	88.760	12.6758
2620.000000	88.811	11.1571
2650.000000	88.840	10.0239
2690.000000	88.865	8.5341
2720.000000	88.874	7.4395
2760.000000	88.875	6.0208
2800.000000	88.864	4.6615
2850.000000	88.834	3.0647
2900.000000	88.791	1.5952
2950.000000	88.737	0.2599
3000.000000	88.675	-0.9318
3040.000000	88.621	-1.7683
3070.000000	88.581	-2.3208
3110.000000	88.532	-2.9561
3150.000000	88.491	-3.4855
3200.000000	88.460	-4.0344
3250.000000	88.452	-4.5157
3300.000000	88.466	-4.9900
3350.000000	88.499	-5.4963
3400.000000	88.545	-6.0485
3450.000000	88.599	-6.6473
3500.000000	88.660	-7.2906
3550.000000	88.728	-7.9730
3600.000000	88.801	-8.6895
3650.000000	88.879	-9.4399
3700.000000	88.963	-10.2279
3750.000000	89.050	-11.0597
3820.000000	89.180	-12.3115
3870.000000	89.277	-13.2756
3950.000000	89.436	-14.9564
4000.000000	89.537	-16.1040
4060.000000	89.659	-17.5873
4120.000000	89.778	-19.1923
4180.000000	89.892	-20.9261
4250.000000	90.014	-23.1240
4310.000000	90.106	-25.1666
4370.000000	90.182	-27.3572
4440.000000	90.244	-30.0890
4500.000000	90.268	-32.5603
4550.000000	90.265	-34.6913
4620.000000	90.220	-37.7431
4680.000000	90.141	-40.3752
4750.000000	90.001	-43.3990
4820.000000	89.810	-46.3045
4870.000000	89.645	-48.2725
4940.000000	89.376	-50.8386
5000.000000	89.117	-52.8367
5080.000000	88.736	-55.1820
5150.000000	88.379	-56.9193
5220.000000	88.004	-58.3577
5300.000000	87.565	-59.6382
5380.000000	87.121	-60.5427
5450.000000	86.738	-61.0445
5520.000000	86.363	-61.3024
5600.000000	85.951	-61.3357
5700.000000	85.467	-61.0494
5800.000000	85.020	-60.4728
5900.000000	84.610	-59.6731
6000.000000	84.236	-58.7037
6080.000000	83.959	-57.8313
6150.000000	83.732	-57.0089
6220.000000	83.516	-56.1377
6300.000000	83.284	-55.0860
6400.000000	83.015	-53.6871
6500.000000	82.770	-52.1998
6600.000000	82.546	-50.6364
6700.000000	82.344	-48.9932
6800.000000	82.165	-47.2336
6900.000000	82.023	-45.3091
7000.000000	81.946	-43.2802
7100.000000	81.953	-41.4136
7200.000000	82.023	-40.0212
7300.000000	82.117	-39.2606
7400.000000	82.188	-39.1588
7500.000000	82.185	-39.5945
7620.000000	82.035	-40.3821
7750.000000	81.680	-40.8364
7880.000000	81.146	-40.0609
8000.000000	80.563	-37.5059
8120.000000	80.055	-32.7987
8250.000000	79.863	-25.8201
8380.000000	80.223	-18.5291
8500.000000	80.952	-13.0869
8620.000000	81.851	-9.6818
8750.000000	82.830	-8.3567
8850.000000	83.520	-8.7753
9000.000000	84.401	-11.2252
9120.000000	84.949	-14.3567
9250.000000	85.368	-18.5262
9380.000000	85.596	-23.0922
9500.000000	85.641	-27.2488
9620.000000	85.550	-30.9999
9750.000000	85.341	-34.4028
9880.000000	85.049	-37.0808
10000.000000	84.723	-38.8312
10150.000000	84.285	-39.9478
10300.000000	83.873	-39.9612
10440.000000	83.560	-39.1833
10600.000000	83.322	-37.6481
10750.000000	83.234	-35.8547
10900.000000	83.281	-33.9727
11060.000000	83.477	-32.1328
11200.000000	83.759	-30.8820
11380.000000	84.244	-30.0742
11500.000000	84.617	-30.2000
11720.000000	85.320	-32.1384
11800.000000	85.555	-33.4402
12060.000000	86.120	-39.7527
12200.000000	86.241	-44.1562
12410.000000	86.131	-51.2091
12500.000000	85.977	-54.1292
12650.000000	85.593	-58.5448
12800.000000	85.080	-62.1738
13150.000000	83.599	-67.1603
13200.000000	83.375	-67.5038
13400.000000	82.489	-68.1396
13600.000000	81.654	-67.8445
13800.000000	80.896	-66.9264
14000.000000	80.225	-65.6323
14300.000000	79.384	-63.3773
14500.000000	78.926	-61.8581
14750.000000	78.455	-60.1119
15000.000000	78.079	-58.6546
15250.000000	77.775	-57.5378
15500.000000	77.526	-56.6888
15750.000000	77.336	-55.8785
16000.000000	77.276	-54.7538
16250.000000	77.563	-53.1184
16500.000000	78.514	-51.7679
16750.000000	80.105	-53.5526
17000.000000	81.726	-62.8753
17250.000000	82.646	-81.8400
17500.000000	82.448	-106.4176
17750.000000	81.108	-129.1767
18000.000000	78.858	-145.4547
18250.000000	75.983	-154.5555
18500.000000	72.699	-156.7320
18750.000000	69.130	-151.6553
19000.000000	65.393	-140.6132
19250.000000	61.756	-128.2261
19500.000000	58.641	-118.6761
19750.000000	56.352	-112.7515
20000.000000	55.041	-109.8272
