* Measurement data measured by REW V5.20.13
* Source: Microphone (USB Sound Device        ), MICROPHONE (Master Volume), L, volume: 0.250
* Format: 128k Log Swept Sine, 1 sweep at -12.0 dBFS with no timing reference
* Dated: Aug 2, 2023 10:38:36 AM
* REW Settings:
*  C-weighting compensation: Off
*  Target level: 75.0 dB
* Note: 
* Measurement: EPZ Q5 R
* Smoothing: 1/12 octave
* Frequency Step: 1/48 octave
* Start Frequency: 20.000 Hz
*
* Freq(Hz)	SPL(dB)	Phase(degrees)
20.000000	95.328	-162.2937
20.299999	95.312	-163.1552
20.600000	95.303	-164.0120
20.900000	95.301	-164.8582
21.200001	95.306	-165.6878
21.400000	95.312	-166.2271
21.799999	95.329	-167.2629
22.000000	95.339	-167.7536
22.400000	95.362	-168.6702
22.700001	95.380	-169.2972
23.000000	95.398	-169.8729
23.299999	95.415	-170.4020
23.600000	95.430	-170.8903
24.000000	95.445	-171.4877
24.299999	95.451	-171.9029
24.700001	95.450	-172.4208
25.000000	95.444	-172.7888
25.400000	95.428	-173.2620
25.799999	95.404	-173.7298
26.200001	95.375	-174.2092
26.500000	95.349	-174.5851
26.900000	95.311	-175.1143
27.200001	95.281	-175.5326
27.600000	95.239	-176.1147
28.000000	95.198	-176.7183
28.500000	95.151	-177.4956
29.000000	95.113	-178.2956
29.500000	95.083	-179.1132
30.000000	95.060	-179.9299
30.400000	95.045	179.4368
30.700001	95.034	178.9828
31.100000	95.022	178.4136
31.500000	95.010	177.8888
32.000000	94.996	177.2936
32.500000	94.980	176.7596
33.000000	94.961	176.2780
33.500000	94.939	175.8361
34.000000	94.912	175.4145
34.500000	94.881	174.9919
35.000000	94.844	174.5564
35.500000	94.801	174.1085
36.000000	94.755	173.6557
36.500000	94.709	173.2001
37.000000	94.665	172.7342
37.500000	94.625	172.2487
38.200001	94.574	171.5403
38.700001	94.538	171.0342
39.500000	94.486	170.2661
40.000000	94.456	169.8154
40.599998	94.422	169.2988
41.200001	94.386	168.8139
41.799999	94.348	168.3730
42.500000	94.303	167.9110
43.099998	94.264	167.5356
43.700001	94.225	167.1605
44.400002	94.176	166.7237
45.000000	94.132	166.3555
45.500000	94.095	166.0495
46.200001	94.045	165.6119
46.799999	94.000	165.2260
47.500000	93.943	164.7785
48.200001	93.882	164.3666
48.700001	93.838	164.1096
49.400002	93.784	163.7901
50.000000	93.746	163.5082
50.799999	93.700	163.0566
51.500000	93.654	162.6061
52.200001	93.600	162.1700
53.000000	93.537	161.7307
53.799999	93.480	161.3316
54.500000	93.433	160.9953
55.200001	93.386	160.6753
56.000000	93.333	160.3371
57.000000	93.265	159.9496
58.000000	93.197	159.5861
59.000000	93.130	159.2120
60.000000	93.061	158.8048
60.799999	93.004	158.4696
61.500000	92.954	158.1794
62.200001	92.905	157.8961
63.000000	92.850	157.5892
64.000000	92.782	157.2411
65.000000	92.718	156.9264
66.000000	92.653	156.6325
67.000000	92.588	156.3530
68.000000	92.522	156.0800
69.000000	92.455	155.8066
70.000000	92.388	155.5334
71.000000	92.321	155.2700
72.000000	92.255	155.0269
73.000000	92.190	154.8030
74.000000	92.125	154.5917
75.000000	92.061	154.3895
76.199997	91.984	154.1526
77.500000	91.902	153.8883
78.800003	91.822	153.6078
80.000000	91.748	153.3560
81.199997	91.674	153.1415
82.500000	91.598	152.9510
83.800003	91.523	152.7803
85.000000	91.452	152.6411
86.199997	91.382	152.5234
87.500000	91.308	152.3999
88.500000	91.251	152.3004
90.000000	91.168	152.1443
91.199997	91.103	152.0105
92.500000	91.031	151.8628
93.800003	90.958	151.7383
95.000000	90.891	151.6586
96.199997	90.828	151.6052
97.500000	90.763	151.5590
98.800003	90.699	151.5011
100.000000	90.639	151.4224
101.500000	90.556	151.3091
103.000000	90.469	151.2067
104.400002	90.388	151.1180
106.000000	90.300	151.0184
107.500000	90.220	150.9346
109.000000	90.143	150.8717
110.599998	90.062	150.8419
112.000000	89.992	150.8561
113.800003	89.904	150.9174
115.000000	89.848	150.9512
117.199997	89.747	150.9086
118.000000	89.708	150.8632
120.599998	89.575	150.7228
122.000000	89.506	150.6993
124.099998	89.408	150.7346
125.000000	89.367	150.7662
126.500000	89.297	150.8321
128.000000	89.224	150.9071
131.500000	89.049	151.0972
132.000000	89.024	151.1240
134.000000	88.925	151.2338
136.000000	88.827	151.3602
138.000000	88.730	151.5150
140.000000	88.630	151.7206
143.000000	88.472	152.1416
145.000000	88.361	152.4609
147.500000	88.222	152.8990
150.000000	88.098	153.4930
152.500000	88.007	154.3340
155.000000	87.946	155.3989
157.500000	87.925	156.6030
160.000000	87.959	157.7234
162.500000	88.040	158.4984
165.000000	88.136	158.7975
167.500000	88.221	158.6760
170.000000	88.282	158.2840
172.500000	88.308	157.7891
175.000000	88.294	157.3170
177.500000	88.247	156.9205
180.000000	88.183	156.6006
182.500000	88.112	156.3605
185.000000	88.037	156.2165
187.500000	87.962	156.1677
190.000000	87.891	156.1795
192.500000	87.821	156.2153
195.000000	87.753	156.2627
197.500000	87.689	156.3226
200.000000	87.627	156.4022
203.000000	87.551	156.5310
206.000000	87.473	156.6901
209.000000	87.397	156.8662
212.000000	87.327	157.0555
214.000000	87.282	157.1884
218.000000	87.192	157.4637
220.000000	87.148	157.6044
224.000000	87.065	157.8948
227.000000	87.008	158.1255
230.000000	86.951	158.3663
233.000000	86.896	158.6122
236.000000	86.841	158.8603
240.000000	86.768	159.1928
243.000000	86.711	159.4433
247.000000	86.633	159.7803
250.000000	86.581	160.0313
254.000000	86.522	160.3565
258.000000	86.470	160.6808
262.000000	86.415	161.0124
265.000000	86.372	161.2639
269.000000	86.314	161.6052
272.000000	86.271	161.8682
276.000000	86.216	162.2271
280.000000	86.163	162.5878
285.000000	86.097	163.0373
290.000000	86.034	163.4918
295.000000	85.974	163.9593
300.000000	85.916	164.4461
304.000000	85.873	164.8478
307.000000	85.843	165.1523
311.000000	85.807	165.5562
315.000000	85.774	165.9521
320.000000	85.737	166.4318
325.000000	85.704	166.8923
330.000000	85.673	167.3291
335.000000	85.642	167.7416
340.000000	85.610	168.1335
345.000000	85.578	168.5083
350.000000	85.546	168.8779
355.000000	85.518	169.2513
360.000000	85.491	169.6215
365.000000	85.461	169.9865
370.000000	85.430	170.3517
375.000000	85.397	170.7205
382.000000	85.351	171.2384
387.000000	85.319	171.6075
395.000000	85.272	172.2031
400.000000	85.243	172.5802
406.000000	85.210	173.0387
412.000000	85.178	173.5048
418.000000	85.148	173.9741
425.000000	85.115	174.5168
431.000000	85.088	174.9782
437.000000	85.061	175.4386
444.000000	85.030	175.9726
450.000000	85.005	176.4243
455.000000	84.986	176.7964
462.000000	84.964	177.3181
468.000000	84.946	177.7711
475.000000	84.925	178.3028
482.000000	84.904	178.8293
487.000000	84.891	179.2009
494.000000	84.872	179.7177
500.000000	84.858	-179.8396
508.000000	84.840	-179.2461
515.000000	84.826	-178.7266
522.000000	84.813	-178.2133
530.000000	84.800	-177.6349
538.000000	84.790	-177.0625
545.000000	84.782	-176.5661
552.000000	84.774	-176.0684
560.000000	84.764	-175.4946
570.000000	84.755	-174.7793
580.000000	84.749	-174.0754
590.000000	84.747	-173.3778
600.000000	84.749	-172.6833
608.000000	84.753	-172.1387
615.000000	84.759	-171.6738
622.000000	84.767	-171.2199
630.000000	84.779	-170.7157
640.000000	84.799	-170.1169
650.000000	84.823	-169.5789
660.000000	84.847	-169.1381
670.000000	84.864	-168.8372
680.000000	84.856	-168.6875
690.000000	84.801	-168.5730
700.000000	84.693	-168.2044
710.000000	84.570	-167.3323
720.000000	84.491	-166.0428
730.000000	84.478	-164.6581
740.000000	84.511	-163.4120
750.000000	84.563	-162.3580
762.000000	84.626	-161.2859
775.000000	84.690	-160.2507
788.000000	84.752	-159.2763
800.000000	84.808	-158.4131
812.000000	84.865	-157.5798
825.000000	84.929	-156.7052
838.000000	84.993	-155.8505
850.000000	85.055	-155.0751
862.000000	85.117	-154.3119
875.000000	85.188	-153.4977
885.000000	85.244	-152.8810
900.000000	85.331	-151.9747
912.000000	85.403	-151.2702
925.000000	85.485	-150.5330
938.000000	85.570	-149.8224
950.000000	85.651	-149.1864
962.000000	85.733	-148.5689
975.000000	85.824	-147.9215
988.000000	85.918	-147.2989
1000.000000	86.006	-146.7515
1015.000000	86.117	-146.1061
1030.000000	86.229	-145.4965
1044.000000	86.333	-144.9587
1060.000000	86.453	-144.3829
1075.000000	86.566	-143.8766
1090.000000	86.680	-143.4028
1106.000000	86.800	-142.9352
1120.000000	86.904	-142.5544
1138.000000	87.037	-142.1002
1150.000000	87.124	-141.8188
1172.000000	87.279	-141.3420
1180.000000	87.335	-141.1802
1206.000000	87.512	-140.6971
1220.000000	87.605	-140.4647
1241.000000	87.741	-140.1438
1250.000000	87.799	-140.0125
1265.000000	87.893	-139.7993
1280.000000	87.985	-139.5934
1315.000000	88.194	-139.1465
1320.000000	88.223	-139.0863
1340.000000	88.337	-138.8544
1360.000000	88.450	-138.6366
1380.000000	88.560	-138.4279
1400.000000	88.669	-138.2222
1430.000000	88.829	-137.9181
1450.000000	88.934	-137.7214
1475.000000	89.065	-137.4848
1500.000000	89.195	-137.2601
1525.000000	89.325	-137.0455
1550.000000	89.455	-136.8372
1575.000000	89.584	-136.6342
1600.000000	89.713	-136.4410
1625.000000	89.843	-136.2624
1650.000000	89.974	-136.1015
1675.000000	90.106	-135.9580
1700.000000	90.238	-135.8316
1725.000000	90.371	-135.7226
1750.000000	90.504	-135.6316
1775.000000	90.639	-135.5616
1800.000000	90.775	-135.5164
1825.000000	90.911	-135.4991
1850.000000	91.049	-135.5082
1875.000000	91.187	-135.5418
1900.000000	91.325	-135.6007
1925.000000	91.462	-135.6867
1950.000000	91.599	-135.8017
1975.000000	91.736	-135.9486
2000.000000	91.873	-136.1308
2030.000000	92.037	-136.3965
2060.000000	92.200	-136.7105
2090.000000	92.359	-137.0694
2120.000000	92.515	-137.4723
2140.000000	92.618	-137.7664
2180.000000	92.819	-138.4188
2200.000000	92.917	-138.7773
2240.000000	93.107	-139.5576
2270.000000	93.244	-140.1973
2300.000000	93.374	-140.8811
2330.000000	93.498	-141.6067
2360.000000	93.616	-142.3719
2400.000000	93.762	-143.4486
2430.000000	93.862	-144.2939
2470.000000	93.984	-145.4645
2500.000000	94.067	-146.3690
2540.000000	94.163	-147.5989
2580.000000	94.245	-148.8426
2620.000000	94.312	-150.0900
2650.000000	94.353	-151.0229
2690.000000	94.395	-152.2561
2720.000000	94.419	-153.1689
2760.000000	94.440	-154.3642
2800.000000	94.448	-155.5258
2850.000000	94.443	-156.9163
2900.000000	94.422	-158.2292
2950.000000	94.388	-159.4568
3000.000000	94.342	-160.5925
3040.000000	94.300	-161.4328
3070.000000	94.264	-162.0222
3110.000000	94.212	-162.7513
3150.000000	94.157	-163.4128
3200.000000	94.083	-164.1422
3250.000000	94.006	-164.7599
3300.000000	93.931	-165.2597
3350.000000	93.860	-165.6421
3400.000000	93.799	-165.9246
3450.000000	93.750	-166.1403
3500.000000	93.714	-166.3323
3550.000000	93.686	-166.5364
3600.000000	93.661	-166.7617
3650.000000	93.635	-166.9876
3700.000000	93.607	-167.1798
3750.000000	93.579	-167.3121
3820.000000	93.549	-167.3894
3870.000000	93.539	-167.3896
3950.000000	93.545	-167.3584
4000.000000	93.560	-167.3465
4060.000000	93.589	-167.3545
4120.000000	93.627	-167.3917
4180.000000	93.674	-167.4607
4250.000000	93.738	-167.5850
4310.000000	93.801	-167.7355
4370.000000	93.870	-167.9356
4440.000000	93.958	-168.2421
4500.000000	94.040	-168.5753
4550.000000	94.111	-168.9095
4620.000000	94.213	-169.4743
4680.000000	94.301	-170.0533
4750.000000	94.402	-170.8448
4820.000000	94.498	-171.7676
4870.000000	94.563	-172.5090
4940.000000	94.644	-173.6624
5000.000000	94.704	-174.7573
5080.000000	94.763	-176.3628
5150.000000	94.792	-177.8902
5220.000000	94.794	-179.5112
5300.000000	94.762	178.5585
5380.000000	94.688	176.6005
5450.000000	94.587	174.9137
5520.000000	94.453	173.2963
5600.000000	94.260	171.5944
5700.000000	93.968	169.8017
5800.000000	93.638	168.4898
5900.000000	93.305	167.6294
6000.000000	92.987	167.0141
6080.000000	92.734	166.5970
6150.000000	92.505	166.3067
6220.000000	92.268	166.1271
6300.000000	91.988	166.0906
6400.000000	91.633	166.3159
6500.000000	91.284	166.8254
6600.000000	90.947	167.5832
6700.000000	90.626	168.5553
6800.000000	90.321	169.7228
6900.000000	90.031	171.0905
7000.000000	89.759	172.6788
7100.000000	89.512	174.4993
7200.000000	89.299	176.5392
7300.000000	89.130	178.7645
7400.000000	89.013	-178.8703
7500.000000	88.954	-176.4181
7620.000000	88.966	-173.4453
7750.000000	89.087	-170.3105
7880.000000	89.323	-167.4051
8000.000000	89.644	-165.0565
8120.000000	90.066	-163.1628
8250.000000	90.633	-161.8141
8380.000000	91.297	-161.4691
8500.000000	91.966	-162.3405
8620.000000	92.635	-164.6494
8750.000000	93.279	-169.0205
8850.000000	93.655	-173.7165
9000.000000	93.920	177.5259
9120.000000	93.822	169.8497
9250.000000	93.395	161.9711
9380.000000	92.679	155.4905
9500.000000	91.832	151.2098
9620.000000	90.888	148.5919
9750.000000	89.842	147.3133
9880.000000	88.824	147.2641
10000.000000	87.928	148.1225
10150.000000	86.896	150.2071
10300.000000	85.982	153.1457
10440.000000	85.244	156.4402
10600.000000	84.535	160.6674
10750.000000	83.992	164.9537
10900.000000	83.561	169.4702
11060.000000	83.219	174.4705
11200.000000	83.014	178.9491
11380.000000	82.881	-175.2157
11500.000000	82.873	-171.3093
11720.000000	83.033	-164.1873
11800.000000	83.150	-161.6319
12060.000000	83.784	-153.5973
12200.000000	84.312	-149.5535
12410.000000	85.400	-144.1564
12500.000000	85.987	-142.2205
12650.000000	87.128	-139.7746
12800.000000	88.438	-138.7607
13150.000000	91.561	-146.2281
13200.000000	91.931	-148.8443
13400.000000	92.971	-163.3861
13600.000000	93.096	178.0849
13800.000000	92.241	161.1196
14000.000000	90.608	149.9786
14300.000000	87.444	144.6634
14500.000000	85.331	146.1235
14750.000000	83.070	150.7074
15000.000000	81.369	156.6648
15250.000000	80.198	163.0409
15500.000000	79.472	169.3029
15750.000000	79.122	175.0458
16000.000000	79.097	179.8223
16250.000000	79.330	-176.9280
16500.000000	79.703	-175.7938
16750.000000	80.052	-177.1497
17000.000000	80.202	179.1854
17250.000000	80.025	174.1515
17500.000000	79.471	169.1831
17750.000000	78.582	165.5502
18000.000000	77.451	163.8937
18250.000000	76.190	164.2587
18500.000000	74.899	166.3408
18750.000000	73.662	169.6650
19000.000000	72.541	173.6838
19250.000000	71.584	177.8240
19500.000000	70.822	-178.4914
19750.000000	70.283	-175.7625
20000.000000	69.989	-174.2851
