* Measurement data measured by REW V5.20.13
* Source: Microphone (USB Sound Device        ), MICROPHONE (Master Volume), L, volume: 0.250
* Format: 128k Log Swept Sine, 1 sweep at -12.0 dBFS with no timing reference
* Dated: Jul 31, 2023 12:02:44 AM
* REW Settings:
*  C-weighting compensation: Off
*  Target level: 75.0 dB
* Note: 
* Measurement: T2 L
* Smoothing: 1/12 octave
* Frequency Step: 1/48 octave
* Start Frequency: 20.000 Hz
*
* Freq(Hz)	SPL(dB)	Phase(degrees)
20.000000	92.245	-140.1225
20.299999	92.263	-140.8510
20.600000	92.285	-141.5743
20.900000	92.310	-142.2862
21.200001	92.339	-142.9808
21.400000	92.360	-143.4311
21.799999	92.407	-144.2969
22.000000	92.432	-144.7102
22.400000	92.485	-145.4943
22.700001	92.525	-146.0437
23.000000	92.565	-146.5586
23.299999	92.604	-147.0390
23.600000	92.641	-147.4859
24.000000	92.687	-148.0345
24.299999	92.719	-148.4161
24.700001	92.755	-148.8942
25.000000	92.779	-149.2359
25.400000	92.804	-149.6758
25.799999	92.823	-150.1049
26.200001	92.836	-150.5306
26.500000	92.843	-150.8524
26.900000	92.849	-151.2902
27.200001	92.852	-151.6275
27.600000	92.855	-152.0906
28.000000	92.858	-152.5684
28.500000	92.862	-153.1833
29.000000	92.870	-153.8115
29.500000	92.882	-154.4434
30.000000	92.898	-155.0655
30.400000	92.913	-155.5477
30.700001	92.925	-155.8972
31.100000	92.943	-156.3443
31.500000	92.962	-156.7676
32.000000	92.984	-157.2604
32.500000	93.006	-157.7123
33.000000	93.026	-158.1281
33.500000	93.043	-158.5173
34.000000	93.057	-158.8911
34.500000	93.067	-159.2585
35.000000	93.074	-159.6242
35.500000	93.078	-159.9911
36.000000	93.080	-160.3617
36.500000	93.081	-160.7386
37.000000	93.083	-161.1233
37.500000	93.085	-161.5139
38.200001	93.090	-162.0606
38.700001	93.094	-162.4420
39.500000	93.102	-163.0215
40.000000	93.108	-163.3611
40.599998	93.117	-163.7462
41.200001	93.126	-164.1117
41.799999	93.134	-164.4636
42.500000	93.141	-164.8634
43.099998	93.144	-165.1982
43.700001	93.145	-165.5260
44.400002	93.146	-165.9024
45.000000	93.146	-166.2229
45.500000	93.147	-166.4892
46.200001	93.150	-166.8602
46.799999	93.153	-167.1758
47.500000	93.157	-167.5388
48.200001	93.163	-167.8955
48.700001	93.166	-168.1497
49.400002	93.169	-168.5060
50.000000	93.168	-168.8015
50.799999	93.162	-169.1595
51.500000	93.157	-169.4405
52.200001	93.154	-169.7119
53.000000	93.152	-170.0257
53.799999	93.150	-170.3426
54.500000	93.150	-170.6199
55.200001	93.149	-170.8960
56.000000	93.148	-171.2063
57.000000	93.147	-171.5815
58.000000	93.145	-171.9431
59.000000	93.141	-172.2960
60.000000	93.137	-172.6422
60.799999	93.132	-172.9135
61.500000	93.128	-173.1471
62.200001	93.125	-173.3778
63.000000	93.121	-173.6378
64.000000	93.117	-173.9561
65.000000	93.113	-174.2650
66.000000	93.108	-174.5634
67.000000	93.102	-174.8523
68.000000	93.096	-175.1355
69.000000	93.090	-175.4162
70.000000	93.084	-175.6925
71.000000	93.078	-175.9632
72.000000	93.072	-176.2297
73.000000	93.066	-176.4905
74.000000	93.059	-176.7432
75.000000	93.052	-176.9882
76.199997	93.043	-177.2746
77.500000	93.034	-177.5784
78.800003	93.025	-177.8759
80.000000	93.016	-178.1434
81.199997	93.007	-178.4052
82.500000	92.996	-178.6848
83.800003	92.984	-178.9592
85.000000	92.974	-179.2103
86.199997	92.965	-179.4666
87.500000	92.955	-179.7499
88.500000	92.947	-179.9625
90.000000	92.934	179.7477
91.199997	92.925	179.5395
92.500000	92.918	179.3170
93.800003	92.911	179.0884
95.000000	92.905	178.8737
96.199997	92.900	178.6588
97.500000	92.894	178.4260
98.800003	92.888	178.1914
100.000000	92.878	177.9788
101.500000	92.863	177.7382
103.000000	92.846	177.5233
104.400002	92.831	177.3236
106.000000	92.815	177.0840
107.500000	92.800	176.8524
109.000000	92.787	176.6236
110.599998	92.774	176.3880
112.000000	92.763	176.1877
113.800003	92.748	175.9346
115.000000	92.737	175.7681
117.199997	92.716	175.4686
118.000000	92.708	175.3619
120.599998	92.686	175.0223
122.000000	92.674	174.8452
124.099998	92.656	174.5866
125.000000	92.647	174.4773
126.500000	92.633	174.2958
128.000000	92.619	174.1148
131.500000	92.587	173.6991
132.000000	92.583	173.6414
134.000000	92.565	173.4166
136.000000	92.547	173.1978
138.000000	92.528	172.9793
140.000000	92.509	172.7585
143.000000	92.480	172.4314
145.000000	92.461	172.2220
147.500000	92.437	171.9672
150.000000	92.413	171.7209
152.500000	92.389	171.4853
155.000000	92.366	171.2521
157.500000	92.342	171.0198
160.000000	92.319	170.7944
162.500000	92.295	170.5790
165.000000	92.271	170.3697
167.500000	92.246	170.1607
170.000000	92.221	169.9509
172.500000	92.197	169.7433
175.000000	92.172	169.5417
177.500000	92.147	169.3472
180.000000	92.122	169.1571
182.500000	92.097	168.9683
185.000000	92.072	168.7830
187.500000	92.046	168.6059
190.000000	92.021	168.4374
192.500000	91.996	168.2744
195.000000	91.970	168.1163
197.500000	91.944	167.9630
200.000000	91.918	167.8098
203.000000	91.887	167.6202
206.000000	91.855	167.4320
209.000000	91.824	167.2533
212.000000	91.792	167.0823
214.000000	91.771	166.9708
218.000000	91.728	166.7577
220.000000	91.707	166.6577
224.000000	91.666	166.4682
227.000000	91.636	166.3336
230.000000	91.607	166.2033
233.000000	91.579	166.0744
236.000000	91.550	165.9485
240.000000	91.510	165.7943
243.000000	91.481	165.6887
247.000000	91.444	165.5545
250.000000	91.417	165.4566
254.000000	91.383	165.3267
258.000000	91.350	165.1938
262.000000	91.319	165.0577
265.000000	91.295	164.9536
269.000000	91.264	164.8107
272.000000	91.239	164.6995
276.000000	91.207	164.5459
280.000000	91.173	164.3882
285.000000	91.129	164.1921
290.000000	91.083	164.0019
295.000000	91.036	163.8181
300.000000	90.989	163.6440
304.000000	90.949	163.5151
307.000000	90.919	163.4246
311.000000	90.879	163.3107
315.000000	90.839	163.2038
320.000000	90.789	163.0789
325.000000	90.740	162.9622
330.000000	90.690	162.8529
335.000000	90.642	162.7531
340.000000	90.593	162.6656
345.000000	90.545	162.5915
350.000000	90.498	162.5288
355.000000	90.452	162.4721
360.000000	90.406	162.4171
365.000000	90.361	162.3631
370.000000	90.317	162.3099
375.000000	90.274	162.2565
382.000000	90.213	162.1790
387.000000	90.167	162.1223
395.000000	90.091	162.0414
400.000000	90.043	162.0002
406.000000	89.986	161.9592
412.000000	89.929	161.9325
418.000000	89.872	161.9243
425.000000	89.806	161.9346
431.000000	89.749	161.9557
437.000000	89.693	161.9861
444.000000	89.628	162.0350
450.000000	89.573	162.0912
455.000000	89.527	162.1481
462.000000	89.463	162.2433
468.000000	89.409	162.3420
475.000000	89.347	162.4818
482.000000	89.287	162.6498
487.000000	89.246	162.7867
494.000000	89.193	163.0004
500.000000	89.153	163.1990
508.000000	89.107	163.4662
515.000000	89.076	163.6783
522.000000	89.050	163.8481
530.000000	89.021	163.9792
538.000000	88.990	164.0548
545.000000	88.957	164.0970
552.000000	88.918	164.1376
560.000000	88.869	164.2001
570.000000	88.803	164.3126
580.000000	88.735	164.4608
590.000000	88.668	164.6439
600.000000	88.602	164.8629
608.000000	88.551	165.0623
615.000000	88.508	165.2502
622.000000	88.466	165.4463
630.000000	88.420	165.6770
640.000000	88.363	165.9763
650.000000	88.310	166.2897
660.000000	88.259	166.6167
670.000000	88.210	166.9568
680.000000	88.164	167.3076
690.000000	88.119	167.6681
700.000000	88.077	168.0388
710.000000	88.037	168.4194
720.000000	88.000	168.8071
730.000000	87.966	169.2009
740.000000	87.934	169.6026
750.000000	87.906	170.0115
762.000000	87.876	170.5087
775.000000	87.848	171.0536
788.000000	87.825	171.6051
800.000000	87.808	172.1204
812.000000	87.795	172.6403
825.000000	87.786	173.2017
838.000000	87.782	173.7560
850.000000	87.783	174.2644
862.000000	87.788	174.7697
875.000000	87.798	175.3070
885.000000	87.809	175.7117
900.000000	87.830	176.3072
912.000000	87.851	176.7715
925.000000	87.878	177.2578
938.000000	87.909	177.7229
950.000000	87.942	178.1321
962.000000	87.977	178.5224
975.000000	88.018	178.9241
988.000000	88.062	179.3032
1000.000000	88.105	179.6301
1015.000000	88.162	-179.9961
1030.000000	88.220	-179.6610
1044.000000	88.277	-179.3831
1060.000000	88.343	-179.1060
1075.000000	88.407	-178.8817
1090.000000	88.470	-178.6891
1106.000000	88.536	-178.5188
1120.000000	88.594	-178.3993
1138.000000	88.666	-178.2850
1150.000000	88.713	-178.2313
1172.000000	88.797	-178.1733
1180.000000	88.826	-178.1640
1206.000000	88.917	-178.1719
1220.000000	88.963	-178.1963
1241.000000	89.029	-178.2538
1250.000000	89.056	-178.2852
1265.000000	89.099	-178.3459
1280.000000	89.139	-178.4163
1315.000000	89.225	-178.6040
1320.000000	89.236	-178.6321
1340.000000	89.279	-178.7448
1360.000000	89.318	-178.8537
1380.000000	89.354	-178.9545
1400.000000	89.387	-179.0450
1430.000000	89.433	-179.1526
1450.000000	89.463	-179.1989
1475.000000	89.503	-179.2259
1500.000000	89.546	-179.2256
1525.000000	89.594	-179.2140
1550.000000	89.649	-179.2151
1575.000000	89.708	-179.2484
1600.000000	89.768	-179.3161
1625.000000	89.829	-179.4130
1650.000000	89.888	-179.5331
1675.000000	89.947	-179.6699
1700.000000	90.003	-179.8178
1725.000000	90.060	-179.9720
1750.000000	90.117	179.8709
1775.000000	90.175	179.7111
1800.000000	90.235	179.5472
1825.000000	90.298	179.3763
1850.000000	90.364	179.1914
1875.000000	90.433	178.9842
1900.000000	90.507	178.7472
1925.000000	90.585	178.4728
1950.000000	90.666	178.1516
1975.000000	90.750	177.7737
2000.000000	90.835	177.3293
2030.000000	90.937	176.6942
2060.000000	91.034	175.9347
2090.000000	91.122	175.0475
2120.000000	91.196	174.0392
2140.000000	91.235	173.3075
2180.000000	91.283	171.7361
2200.000000	91.291	170.9158
2240.000000	91.271	169.2612
2270.000000	91.226	168.0539
2300.000000	91.156	166.9158
2330.000000	91.066	165.8759
2360.000000	90.958	164.9550
2400.000000	90.793	163.9354
2430.000000	90.658	163.3350
2470.000000	90.470	162.7504
2500.000000	90.328	162.4655
2540.000000	90.143	162.2733
2580.000000	89.964	162.2716
2620.000000	89.798	162.4339
2650.000000	89.681	162.6477
2690.000000	89.540	163.0352
2720.000000	89.445	163.3884
2760.000000	89.333	163.9189
2800.000000	89.237	164.4962
2850.000000	89.137	165.2654
2900.000000	89.057	166.0784
2950.000000	88.996	166.9333
3000.000000	88.953	167.8273
3040.000000	88.932	168.5639
3070.000000	88.925	169.1231
3110.000000	88.925	169.8719
3150.000000	88.938	170.6208
3200.000000	88.969	171.5524
3250.000000	89.018	172.4706
3300.000000	89.085	173.3583
3350.000000	89.171	174.1899
3400.000000	89.274	174.9390
3450.000000	89.389	175.5886
3500.000000	89.514	176.1304
3550.000000	89.644	176.5631
3600.000000	89.776	176.8918
3650.000000	89.906	177.1237
3700.000000	90.034	177.2689
3750.000000	90.157	177.3418
3820.000000	90.319	177.3544
3870.000000	90.427	177.3197
3950.000000	90.588	177.2303
4000.000000	90.682	177.1786
4060.000000	90.793	177.1399
4120.000000	90.907	177.1260
4180.000000	91.030	177.1159
4250.000000	91.187	177.0539
4310.000000	91.334	176.8938
4370.000000	91.486	176.5766
4440.000000	91.661	175.9536
4500.000000	91.795	175.1780
4550.000000	91.888	174.3636
4620.000000	91.979	173.0067
4680.000000	92.012	171.7073
4750.000000	91.993	170.1357
4820.000000	91.913	168.6221
4870.000000	91.820	167.6430
4940.000000	91.650	166.4962
5000.000000	91.474	165.7748
5080.000000	91.213	165.2454
5150.000000	90.976	165.2086
5220.000000	90.746	165.5570
5300.000000	90.506	166.3754
5380.000000	90.304	167.5658
5450.000000	90.164	168.8478
5520.000000	90.060	170.2999
5600.000000	89.986	172.1080
5700.000000	89.962	174.5042
5800.000000	90.012	176.9540
5900.000000	90.133	179.3553
6000.000000	90.318	-178.3901
6080.000000	90.504	-176.7504
6150.000000	90.690	-175.4648
6220.000000	90.890	-174.3335
6300.000000	91.131	-173.2336
6400.000000	91.437	-172.1293
6500.000000	91.740	-171.2733
6600.000000	92.035	-170.6002
6700.000000	92.321	-170.0653
6800.000000	92.599	-169.6381
6900.000000	92.874	-169.2926
7000.000000	93.155	-169.0175
7100.000000	93.450	-168.8280
7200.000000	93.772	-168.7778
7300.000000	94.127	-168.9655
7400.000000	94.520	-169.5379
7500.000000	94.945	-170.6924
7620.000000	95.474	-173.1759
7750.000000	96.002	-177.6548
7880.000000	96.377	175.7191
8000.000000	96.481	167.8863
8120.000000	96.270	159.1723
8250.000000	95.647	150.1299
8380.000000	94.643	142.9905
8500.000000	93.451	138.9265
8620.000000	92.104	137.4703
8750.000000	90.588	138.5400
8850.000000	89.448	140.9421
9000.000000	87.879	146.7158
9120.000000	86.839	152.9122
9250.000000	86.064	160.6436
9380.000000	85.776	168.3531
9500.000000	85.903	174.1789
9620.000000	86.208	177.9076
9750.000000	86.486	179.7199
9880.000000	86.598	-179.6376
10000.000000	86.600	-179.1142
10150.000000	86.609	-178.2454
10300.000000	86.722	-177.7828
10440.000000	86.900	-178.5490
10600.000000	87.067	178.5045
10750.000000	87.052	173.6667
10900.000000	86.744	167.3877
11060.000000	86.000	160.4656
11200.000000	84.983	155.5753
11380.000000	83.243	152.3666
11500.000000	81.875	152.5758
11720.000000	79.139	157.8601
11800.000000	78.131	161.1404
12060.000000	75.116	175.0400
12200.000000	73.767	-176.3371
12410.000000	72.143	-162.8888
12500.000000	71.577	-157.0552
12650.000000	70.778	-147.3052
12800.000000	70.133	-137.5502
13150.000000	69.136	-114.8947
13200.000000	69.047	-111.6791
13400.000000	68.823	-98.9056
13600.000000	68.821	-86.3434
13800.000000	69.067	-74.0807
14000.000000	69.608	-62.2084
14300.000000	71.132	-45.5050
14500.000000	72.724	-35.6462
14750.000000	75.315	-26.0544
15000.000000	78.222	-21.8587
15250.000000	80.885	-26.4446
15500.000000	82.763	-42.1781
15750.000000	83.494	-67.1509
16000.000000	82.968	-94.9884
16250.000000	81.271	-118.6392
16500.000000	78.586	-133.3312
16750.000000	75.144	-137.5571
17000.000000	71.184	-132.3415
17250.000000	66.936	-119.7337
17500.000000	62.638	-102.1373
17750.000000	58.597	-82.1781
18000.000000	55.194	-62.1194
18250.000000	52.712	-43.1991
18500.000000	51.089	-25.8363
18750.000000	50.045	-10.3729
19000.000000	49.303	2.5627
19250.000000	48.600	12.6734
19500.000000	47.749	20.6727
19750.000000	46.794	27.1173
20000.000000	46.064	31.1363
