* Measurement data measured by REW V5.20.13
* Source: Microphone (USB Sound Device        ), MICROPHONE (Master Volume), L, volume: 0.250
* Format: 128k Log Swept Sine, 1 sweep at -12.0 dBFS with no timing reference
* Dated: Nov 16, 2023 12:32:21 AM
* REW Settings:
*  C-weighting compensation: Off
*  Target level: 75.0 dB
* Note: 
* Measurement: KLANAR L
* Smoothing: 1/12 octave
* Frequency Step: 1/48 octave
* Start Frequency: 20.000 Hz
*
* Freq(Hz)	SPL(dB)	Phase(degrees)
20.000000	92.888	-153.2748
20.299999	92.892	-154.1525
20.600000	92.898	-155.0214
20.900000	92.907	-155.8694
21.200001	92.918	-156.6872
21.400000	92.928	-157.2134
21.799999	92.953	-158.2215
22.000000	92.968	-158.7052
22.400000	93.002	-159.6378
22.700001	93.029	-160.3098
23.000000	93.055	-160.9582
23.299999	93.079	-161.5800
23.600000	93.099	-162.1724
24.000000	93.121	-162.9149
24.299999	93.133	-163.4388
24.700001	93.144	-164.1028
25.000000	93.148	-164.5836
25.400000	93.148	-165.2125
25.799999	93.142	-165.8366
26.200001	93.131	-166.4628
26.500000	93.120	-166.9371
26.900000	93.102	-167.5794
27.200001	93.086	-168.0704
27.600000	93.065	-168.7377
28.000000	93.044	-169.4162
28.500000	93.018	-170.2698
29.000000	92.996	-171.1170
29.500000	92.979	-171.9501
30.000000	92.969	-172.7667
30.400000	92.964	-173.4073
30.700001	92.961	-173.8788
31.100000	92.958	-174.4905
31.500000	92.953	-175.0768
32.000000	92.945	-175.7657
32.500000	92.935	-176.4045
33.000000	92.922	-177.0020
33.500000	92.905	-177.5717
34.000000	92.885	-178.1251
34.500000	92.862	-178.6697
35.000000	92.835	-179.2106
35.500000	92.806	-179.7537
36.000000	92.776	179.6960
36.500000	92.747	179.1367
37.000000	92.717	178.5697
37.500000	92.689	177.9987
38.200001	92.650	177.2028
38.700001	92.623	176.6466
39.500000	92.582	175.7987
40.000000	92.556	175.3004
40.599998	92.527	174.7315
41.200001	92.497	174.1869
41.799999	92.466	173.6593
42.500000	92.428	173.0573
43.099998	92.392	172.5482
43.700001	92.354	172.0448
44.400002	92.308	171.4645
45.000000	92.268	170.9735
45.500000	92.235	170.5711
46.200001	92.190	170.0219
46.799999	92.154	169.5621
47.500000	92.115	169.0274
48.200001	92.077	168.4874
48.700001	92.048	168.1022
49.400002	92.005	167.5767
50.000000	91.964	167.1505
50.799999	91.909	166.6241
51.500000	91.861	166.1934
52.200001	91.815	165.7711
53.000000	91.764	165.2860
53.799999	91.710	164.8094
54.500000	91.663	164.4132
55.200001	91.617	164.0351
56.000000	91.566	163.6117
57.000000	91.502	163.0855
58.000000	91.436	162.5718
59.000000	91.370	162.0703
60.000000	91.303	161.5666
60.799999	91.249	161.1700
61.500000	91.201	160.8387
62.200001	91.155	160.5209
63.000000	91.104	160.1663
64.000000	91.041	159.7356
65.000000	90.977	159.3271
66.000000	90.913	158.9352
67.000000	90.848	158.5491
68.000000	90.781	158.1675
69.000000	90.714	157.7935
70.000000	90.648	157.4282
71.000000	90.582	157.0752
72.000000	90.517	156.7368
73.000000	90.452	156.4167
74.000000	90.387	156.1179
75.000000	90.323	155.8317
76.199997	90.245	155.4969
77.500000	90.161	155.1439
78.800003	90.079	154.7907
80.000000	90.004	154.4611
81.199997	89.930	154.1345
82.500000	89.852	153.7878
83.800003	89.772	153.4497
85.000000	89.694	153.1816
86.199997	89.616	152.9730
87.500000	89.535	152.7655
88.500000	89.472	152.5965
90.000000	89.375	152.3237
91.199997	89.295	152.1003
92.500000	89.213	151.8840
93.800003	89.143	151.6970
95.000000	89.090	151.5291
96.199997	89.042	151.3701
97.500000	88.990	151.2253
98.800003	88.934	151.0874
100.000000	88.869	150.9431
101.500000	88.761	150.7975
103.000000	88.640	150.7392
104.400002	88.528	150.7081
106.000000	88.408	150.6734
107.500000	88.308	150.6695
109.000000	88.227	150.6987
110.599998	88.156	150.7444
112.000000	88.098	150.7996
113.800003	88.020	150.9363
115.000000	87.968	151.0781
117.199997	87.890	151.3343
118.000000	87.868	151.3881
120.599998	87.810	151.3476
122.000000	87.779	151.2253
124.099998	87.726	151.0067
125.000000	87.701	150.9116
126.500000	87.654	150.7590
128.000000	87.602	150.6178
131.500000	87.467	150.3258
132.000000	87.447	150.2894
134.000000	87.366	150.1638
136.000000	87.283	150.0803
138.000000	87.201	150.0262
140.000000	87.119	149.9768
143.000000	86.995	149.9039
145.000000	86.914	149.8638
147.500000	86.816	149.8320
150.000000	86.719	149.8240
152.500000	86.620	149.8379
155.000000	86.523	149.8761
157.500000	86.430	149.9400
160.000000	86.340	150.0184
162.500000	86.249	150.1021
165.000000	86.159	150.1911
167.500000	86.071	150.2908
170.000000	85.986	150.4036
172.500000	85.902	150.5314
175.000000	85.819	150.6761
177.500000	85.738	150.8355
180.000000	85.660	151.0046
182.500000	85.585	151.1780
185.000000	85.511	151.3562
187.500000	85.437	151.5422
190.000000	85.365	151.7325
192.500000	85.295	151.9243
195.000000	85.227	152.1219
197.500000	85.162	152.3306
200.000000	85.099	152.5500
203.000000	85.027	152.8210
206.000000	84.959	153.0888
209.000000	84.895	153.3448
212.000000	84.835	153.5875
214.000000	84.798	153.7423
218.000000	84.727	154.0325
220.000000	84.692	154.1646
224.000000	84.620	154.4000
227.000000	84.564	154.5571
230.000000	84.504	154.7052
233.000000	84.441	154.8524
236.000000	84.376	155.0108
240.000000	84.289	155.2520
243.000000	84.225	155.4490
247.000000	84.141	155.7207
250.000000	84.080	155.9350
254.000000	83.998	156.2455
258.000000	83.917	156.5838
262.000000	83.839	156.9503
265.000000	83.781	157.2456
269.000000	83.708	157.6667
272.000000	83.658	158.0022
276.000000	83.597	158.4656
280.000000	83.545	158.9174
285.000000	83.490	159.4139
290.000000	83.440	159.8243
295.000000	83.387	160.1884
300.000000	83.327	160.5445
304.000000	83.276	160.8340
307.000000	83.238	161.0533
311.000000	83.186	161.3491
315.000000	83.134	161.6541
320.000000	83.071	162.0516
325.000000	83.011	162.4578
330.000000	82.953	162.8693
335.000000	82.897	163.2895
340.000000	82.841	163.7173
345.000000	82.788	164.1499
350.000000	82.735	164.5835
355.000000	82.685	165.0169
360.000000	82.637	165.4520
365.000000	82.590	165.8874
370.000000	82.545	166.3226
375.000000	82.501	166.7601
382.000000	82.443	167.3753
387.000000	82.405	167.8158
395.000000	82.346	168.5211
400.000000	82.308	168.9614
406.000000	82.261	169.4873
412.000000	82.216	170.0048
418.000000	82.175	170.5080
425.000000	82.134	171.0902
431.000000	82.103	171.6110
437.000000	82.071	172.1448
444.000000	82.031	172.7553
450.000000	81.999	173.2680
455.000000	81.975	173.6944
462.000000	81.944	174.2925
468.000000	81.919	174.8047
475.000000	81.890	175.3992
482.000000	81.861	175.9887
487.000000	81.839	176.4047
494.000000	81.809	176.9767
500.000000	81.786	177.4591
508.000000	81.764	178.1122
515.000000	81.750	178.7196
522.000000	81.735	179.3606
530.000000	81.710	-179.9090
538.000000	81.680	-179.2289
545.000000	81.654	-178.6730
552.000000	81.633	-178.1236
560.000000	81.618	-177.4783
570.000000	81.611	-176.6625
580.000000	81.611	-175.8723
590.000000	81.608	-175.0962
600.000000	81.604	-174.3180
608.000000	81.601	-173.6921
615.000000	81.598	-173.1434
622.000000	81.595	-172.5963
630.000000	81.595	-171.9760
640.000000	81.597	-171.2005
650.000000	81.603	-170.4172
660.000000	81.609	-169.6309
670.000000	81.618	-168.8499
680.000000	81.630	-168.0763
690.000000	81.644	-167.3070
700.000000	81.661	-166.5386
710.000000	81.681	-165.7711
720.000000	81.703	-165.0076
730.000000	81.729	-164.2518
740.000000	81.756	-163.5071
750.000000	81.784	-162.7715
762.000000	81.820	-161.8940
775.000000	81.864	-160.9467
788.000000	81.914	-160.0034
800.000000	81.963	-159.1382
812.000000	82.016	-158.2791
825.000000	82.077	-157.3533
838.000000	82.143	-156.4408
850.000000	82.207	-155.6174
862.000000	82.274	-154.8148
875.000000	82.349	-153.9686
885.000000	82.409	-153.3316
900.000000	82.503	-152.3924
912.000000	82.583	-151.6568
925.000000	82.673	-150.8807
938.000000	82.767	-150.1266
950.000000	82.857	-149.4528
962.000000	82.948	-148.8033
975.000000	83.049	-148.1260
988.000000	83.153	-147.4738
1000.000000	83.250	-146.8955
1015.000000	83.371	-146.2088
1030.000000	83.495	-145.5592
1044.000000	83.613	-144.9835
1060.000000	83.749	-144.3625
1075.000000	83.878	-143.8171
1090.000000	84.006	-143.3056
1106.000000	84.143	-142.7940
1120.000000	84.263	-142.3733
1138.000000	84.416	-141.8682
1150.000000	84.518	-141.5524
1172.000000	84.702	-141.0094
1180.000000	84.769	-140.8221
1206.000000	84.986	-140.2481
1220.000000	85.103	-139.9606
1241.000000	85.277	-139.5559
1250.000000	85.351	-139.3921
1265.000000	85.473	-139.1315
1280.000000	85.596	-138.8853
1315.000000	85.883	-138.3616
1320.000000	85.924	-138.2924
1340.000000	86.090	-138.0300
1360.000000	86.256	-137.7896
1380.000000	86.422	-137.5701
1400.000000	86.590	-137.3747
1430.000000	86.844	-137.1331
1450.000000	87.016	-137.0058
1475.000000	87.234	-136.8865
1500.000000	87.454	-136.8156
1525.000000	87.677	-136.7986
1550.000000	87.902	-136.8415
1575.000000	88.128	-136.9491
1600.000000	88.357	-137.1184
1625.000000	88.586	-137.3473
1650.000000	88.816	-137.6361
1675.000000	89.046	-137.9849
1700.000000	89.278	-138.3957
1725.000000	89.513	-138.8701
1750.000000	89.750	-139.4154
1775.000000	89.991	-140.0466
1800.000000	90.235	-140.7804
1825.000000	90.480	-141.6325
1850.000000	90.726	-142.6179
1875.000000	90.968	-143.7492
1900.000000	91.204	-145.0355
1925.000000	91.431	-146.4799
1950.000000	91.645	-148.0823
1975.000000	91.844	-149.8408
2000.000000	92.024	-151.7505
2030.000000	92.210	-154.2265
2060.000000	92.357	-156.8736
2090.000000	92.462	-159.6489
2120.000000	92.520	-162.4996
2140.000000	92.533	-164.4104
2180.000000	92.496	-168.1657
2200.000000	92.451	-169.9774
2240.000000	92.314	-173.4294
2270.000000	92.179	-175.8648
2300.000000	92.017	-178.1682
2330.000000	91.828	179.6681
2360.000000	91.612	177.6618
2400.000000	91.281	175.2828
2430.000000	91.005	173.7680
2470.000000	90.609	172.1729
2500.000000	90.299	171.3296
2540.000000	89.885	170.6979
2580.000000	89.493	170.5938
2620.000000	89.144	170.8998
2650.000000	88.920	171.2978
2690.000000	88.672	171.9198
2720.000000	88.519	172.3832
2760.000000	88.345	172.9346
2800.000000	88.195	173.3961
2850.000000	88.021	173.8842
2900.000000	87.855	174.3347
2950.000000	87.696	174.7961
3000.000000	87.547	175.2842
3040.000000	87.435	175.6913
3070.000000	87.356	176.0065
3110.000000	87.254	176.4447
3150.000000	87.157	176.9117
3200.000000	87.043	177.5453
3250.000000	86.940	178.2385
3300.000000	86.850	178.9893
3350.000000	86.775	179.7786
3400.000000	86.715	-179.4160
3450.000000	86.671	-178.6079
3500.000000	86.640	-177.8072
3550.000000	86.620	-177.0188
3600.000000	86.611	-176.2430
3650.000000	86.613	-175.4774
3700.000000	86.625	-174.7184
3750.000000	86.650	-173.9675
3820.000000	86.707	-172.9575
3870.000000	86.764	-172.2945
3950.000000	86.879	-171.3683
4000.000000	86.966	-170.8761
4060.000000	87.086	-170.3843
4120.000000	87.221	-170.0449
4180.000000	87.363	-169.9292
4250.000000	87.517	-170.1522
4310.000000	87.611	-170.6241
4370.000000	87.651	-171.1967
4440.000000	87.628	-171.6667
4500.000000	87.574	-171.6510
4550.000000	87.538	-171.2808
4620.000000	87.549	-170.3440
4680.000000	87.640	-169.4098
4750.000000	87.838	-168.5289
4820.000000	88.098	-168.1484
4870.000000	88.295	-168.2519
4940.000000	88.556	-168.9010
5000.000000	88.747	-169.8415
5080.000000	88.942	-171.4680
5150.000000	89.056	-173.0959
5220.000000	89.123	-174.8264
5300.000000	89.145	-176.8798
5380.000000	89.107	-178.9868
5450.000000	89.018	179.1581
5520.000000	88.869	177.3700
5600.000000	88.619	175.5880
5700.000000	88.202	174.0984
5800.000000	87.726	173.6667
5900.000000	87.256	174.2432
6000.000000	86.836	175.6189
6080.000000	86.551	177.1555
6150.000000	86.346	178.7390
6220.000000	86.185	-179.5146
6300.000000	86.054	-177.3801
6400.000000	85.970	-174.5585
6500.000000	85.982	-171.6023
6600.000000	86.107	-168.6434
6700.000000	86.347	-165.9637
6800.000000	86.669	-163.8131
6900.000000	87.032	-162.2312
7000.000000	87.417	-161.0876
7100.000000	87.831	-160.2399
7200.000000	88.294	-159.6511
7300.000000	88.826	-159.4315
7400.000000	89.430	-159.8110
7500.000000	90.085	-161.0656
7620.000000	90.885	-164.0992
7750.000000	91.672	-169.6894
7880.000000	92.231	-177.8577
8000.000000	92.417	172.7921
8120.000000	92.213	162.8917
8250.000000	91.556	153.2225
8380.000000	90.538	145.9697
8500.000000	89.400	141.8370
8620.000000	88.190	139.9894
8750.000000	86.917	140.0520
8850.000000	86.025	141.1486
9000.000000	84.887	143.8085
9120.000000	84.155	146.3781
9250.000000	83.516	149.3500
9380.000000	83.013	152.4322
9500.000000	82.663	155.3210
9620.000000	82.427	158.1235
9750.000000	82.293	160.8290
9880.000000	82.253	162.9995
10000.000000	82.261	164.4865
10150.000000	82.292	165.7025
10300.000000	82.317	166.3141
10440.000000	82.322	166.4206
10600.000000	82.299	166.0099
10750.000000	82.226	165.0956
10900.000000	82.067	163.7581
11060.000000	81.766	162.1798
11200.000000	81.379	161.0446
11380.000000	80.738	160.4133
11500.000000	80.248	160.6801
11720.000000	79.294	162.7502
11800.000000	78.947	164.0230
12060.000000	77.915	170.0236
12200.000000	77.490	174.2461
12410.000000	77.132	-178.7606
12500.000000	77.096	-175.7438
12650.000000	77.190	-171.0029
12800.000000	77.452	-166.9439
13150.000000	78.387	-161.8115
13200.000000	78.518	-161.6713
13400.000000	78.935	-162.5487
13600.000000	79.074	-165.1277
13800.000000	78.861	-168.0775
14000.000000	78.317	-169.8815
14300.000000	77.127	-168.2699
14500.000000	76.344	-163.9853
14750.000000	75.779	-155.7626
15000.000000	76.078	-146.1161
15250.000000	77.323	-137.6267
15500.000000	79.161	-132.7203
15750.000000	81.166	-132.9777
16000.000000	82.998	-139.4120
16250.000000	84.340	-152.5233
16500.000000	84.904	-171.0820
16750.000000	84.522	168.8585
17000.000000	83.237	152.1309
17250.000000	81.264	141.3570
17500.000000	78.877	136.3656
17750.000000	76.324	135.7284
18000.000000	73.785	138.0839
18250.000000	71.356	142.5895
18500.000000	69.063	148.9067
18750.000000	66.899	157.0140
19000.000000	64.861	166.8665
19250.000000	62.988	178.0539
19500.000000	61.379	-170.4100
19750.000000	60.171	-160.2978
20000.000000	59.488	-154.0224
