* Measurement data measured by REW V5.20.13
* Source: Microphone (USB Sound Device        ), MICROPHONE (Master Volume), L, volume: 0.250
* Format: 256k Log Swept Sine, 1 sweep at -12.0 dBFS with no timing reference
* Dated: Jun 26, 2023 10:09:54 PM
* REW Settings:
*  C-weighting compensation: Off
*  Target level: 75.0 dB
* Note: 
* Measurement: KZ AS24 DDDD DDUD R
* Smoothing: 1/12 octave
* Frequency Step: 1/48 octave
* Start Frequency: 20.000 Hz
*
* Freq(Hz)	SPL(dB)	Phase(degrees)
20.000000	86.297	8.2173
20.299999	86.300	7.8008
20.600000	86.306	7.4002
20.900000	86.318	7.0245
21.200001	86.336	6.6777
21.400000	86.351	6.4617
21.799999	86.387	6.0646
22.000000	86.408	5.8839
22.400000	86.454	5.5621
22.700001	86.490	5.3590
23.000000	86.529	5.1866
23.299999	86.570	5.0327
23.600000	86.613	4.8804
24.000000	86.669	4.6537
24.299999	86.706	4.4540
24.700001	86.744	4.1536
25.000000	86.762	3.9185
25.400000	86.774	3.6159
25.799999	86.774	3.3406
26.200001	86.771	3.0859
26.500000	86.767	2.8948
26.900000	86.763	2.6217
27.200001	86.760	2.3942
27.600000	86.756	2.0580
28.000000	86.752	1.6916
28.500000	86.748	1.2110
29.000000	86.746	0.7272
29.500000	86.749	0.2530
30.000000	86.757	-0.2025
30.400000	86.766	-0.5468
30.700001	86.775	-0.7903
31.100000	86.789	-1.0945
31.500000	86.805	-1.3781
32.000000	86.825	-1.7114
32.500000	86.843	-2.0273
33.000000	86.857	-2.3254
33.500000	86.867	-2.6040
34.000000	86.873	-2.8687
34.500000	86.877	-3.1323
35.000000	86.879	-3.4068
35.500000	86.878	-3.6984
36.000000	86.875	-4.0057
36.500000	86.870	-4.3225
37.000000	86.866	-4.6422
37.500000	86.863	-4.9608
38.200001	86.865	-5.4056
38.700001	86.870	-5.7258
39.500000	86.882	-6.2457
40.000000	86.890	-6.5698
40.599998	86.898	-6.9472
41.200001	86.903	-7.3032
41.799999	86.908	-7.6377
42.500000	86.911	-8.0113
43.099998	86.913	-8.3273
43.700001	86.914	-8.6439
44.400002	86.913	-9.0142
45.000000	86.911	-9.3334
45.500000	86.910	-9.6033
46.200001	86.908	-9.9895
46.799999	86.907	-10.3264
47.500000	86.904	-10.7245
48.200001	86.901	-11.1281
48.700001	86.897	-11.4138
49.400002	86.890	-11.7932
50.000000	86.885	-12.0938
50.799999	86.883	-12.4827
51.500000	86.886	-12.8386
52.200001	86.887	-13.2096
53.000000	86.888	-13.6337
53.799999	86.887	-14.0475
54.500000	86.886	-14.4013
55.200001	86.884	-14.7476
56.000000	86.880	-15.1353
57.000000	86.874	-15.6146
58.000000	86.866	-16.0974
59.000000	86.856	-16.5874
60.000000	86.846	-17.0818
60.799999	86.837	-17.4760
61.500000	86.830	-17.8171
62.200001	86.824	-18.1544
63.000000	86.817	-18.5363
64.000000	86.808	-19.0053
65.000000	86.798	-19.4620
66.000000	86.787	-19.9117
67.000000	86.775	-20.3627
68.000000	86.763	-20.8188
69.000000	86.750	-21.2813
70.000000	86.737	-21.7472
71.000000	86.724	-22.2095
72.000000	86.710	-22.6624
73.000000	86.697	-23.1046
74.000000	86.684	-23.5380
75.000000	86.670	-23.9666
76.199997	86.653	-24.4809
77.500000	86.632	-25.0411
78.800003	86.609	-25.6000
80.000000	86.588	-26.1147
81.199997	86.567	-26.6348
82.500000	86.544	-27.1991
83.800003	86.520	-27.7408
85.000000	86.497	-28.2058
86.199997	86.476	-28.6511
87.500000	86.453	-29.1366
88.500000	86.434	-29.5198
90.000000	86.402	-30.1136
91.199997	86.375	-30.5999
92.500000	86.345	-31.1254
93.800003	86.316	-31.6423
95.000000	86.289	-32.1123
96.199997	86.261	-32.5790
97.500000	86.226	-33.0774
98.800003	86.189	-33.5469
100.000000	86.158	-33.9467
101.500000	86.134	-34.4480
103.000000	86.120	-34.9818
104.400002	86.110	-35.4793
106.000000	86.096	-36.0271
107.500000	86.076	-36.5259
109.000000	86.044	-37.0175
110.599998	86.001	-37.5464
112.000000	85.958	-38.0226
113.800003	85.902	-38.6400
115.000000	85.869	-39.0378
117.199997	85.823	-39.7381
118.000000	85.810	-39.9917
120.599998	85.766	-40.8096
122.000000	85.738	-41.2381
124.099998	85.691	-41.8745
125.000000	85.670	-42.1485
126.500000	85.635	-42.6068
128.000000	85.599	-43.0641
131.500000	85.518	-44.1046
132.000000	85.507	-44.2487
134.000000	85.461	-44.8135
136.000000	85.414	-45.3587
138.000000	85.366	-45.8885
140.000000	85.317	-46.4135
143.000000	85.242	-47.2103
145.000000	85.192	-47.7445
147.500000	85.133	-48.3997
150.000000	85.078	-49.0123
152.500000	85.027	-49.5787
155.000000	84.973	-50.1372
157.500000	84.911	-50.7167
160.000000	84.849	-51.3124
162.500000	84.789	-51.8732
165.000000	84.736	-52.3803
167.500000	84.686	-52.8548
170.000000	84.641	-53.2995
172.500000	84.598	-53.7132
175.000000	84.552	-54.1122
177.500000	84.504	-54.5170
180.000000	84.460	-54.9256
182.500000	84.428	-55.3293
185.000000	84.407	-55.7523
187.500000	84.389	-56.2368
190.000000	84.371	-56.7965
192.500000	84.350	-57.4067
195.000000	84.326	-58.0385
197.500000	84.296	-58.6767
200.000000	84.263	-59.3101
203.000000	84.217	-60.0472
206.000000	84.163	-60.7365
209.000000	84.102	-61.3754
212.000000	84.038	-61.9874
214.000000	83.996	-62.3877
218.000000	83.913	-63.1692
220.000000	83.873	-63.5488
224.000000	83.792	-64.2840
227.000000	83.733	-64.8152
230.000000	83.677	-65.3312
233.000000	83.622	-65.8300
236.000000	83.569	-66.3081
240.000000	83.501	-66.9142
243.000000	83.450	-67.3488
247.000000	83.386	-67.9127
250.000000	83.338	-68.3354
254.000000	83.274	-68.9053
258.000000	83.210	-69.4696
262.000000	83.148	-70.0192
265.000000	83.104	-70.4193
269.000000	83.047	-70.9341
272.000000	83.005	-71.3087
276.000000	82.950	-71.7984
280.000000	82.896	-72.2797
285.000000	82.832	-72.8707
290.000000	82.770	-73.4482
295.000000	82.709	-74.0099
300.000000	82.650	-74.5614
304.000000	82.603	-74.9966
307.000000	82.570	-75.3182
311.000000	82.526	-75.7395
315.000000	82.484	-76.1496
320.000000	82.433	-76.6419
325.000000	82.384	-77.1144
330.000000	82.338	-77.5755
335.000000	82.293	-78.0310
340.000000	82.250	-78.4770
345.000000	82.209	-78.9070
350.000000	82.169	-79.3281
355.000000	82.128	-79.7505
360.000000	82.088	-80.1690
365.000000	82.051	-80.5767
370.000000	82.015	-80.9718
375.000000	81.981	-81.3521
382.000000	81.937	-81.8608
387.000000	81.908	-82.2153
395.000000	81.864	-82.7750
400.000000	81.838	-83.1170
406.000000	81.807	-83.5167
412.000000	81.777	-83.9047
418.000000	81.748	-84.2803
425.000000	81.716	-84.7002
431.000000	81.691	-85.0426
437.000000	81.669	-85.3682
444.000000	81.645	-85.7282
450.000000	81.628	-86.0220
455.000000	81.616	-86.2603
462.000000	81.602	-86.5926
468.000000	81.591	-86.8789
475.000000	81.581	-87.2109
482.000000	81.573	-87.5396
487.000000	81.569	-87.7721
494.000000	81.563	-88.0905
500.000000	81.559	-88.3553
508.000000	81.556	-88.6973
515.000000	81.554	-88.9870
522.000000	81.553	-89.2686
530.000000	81.552	-89.5811
538.000000	81.552	-89.8835
545.000000	81.552	-90.1389
552.000000	81.555	-90.3877
560.000000	81.560	-90.6667
570.000000	81.570	-91.0071
580.000000	81.581	-91.3377
590.000000	81.592	-91.6589
600.000000	81.603	-91.9602
608.000000	81.612	-92.1820
615.000000	81.620	-92.3627
622.000000	81.629	-92.5321
630.000000	81.642	-92.7127
640.000000	81.659	-92.9223
650.000000	81.678	-93.1217
660.000000	81.698	-93.3167
670.000000	81.720	-93.5014
680.000000	81.744	-93.6682
690.000000	81.770	-93.8165
700.000000	81.797	-93.9511
710.000000	81.827	-94.0728
720.000000	81.858	-94.1793
730.000000	81.891	-94.2743
740.000000	81.926	-94.3613
750.000000	81.962	-94.4352
762.000000	82.008	-94.5024
775.000000	82.061	-94.5582
788.000000	82.118	-94.6024
800.000000	82.173	-94.6344
812.000000	82.231	-94.6583
825.000000	82.298	-94.6784
838.000000	82.368	-94.6949
850.000000	82.436	-94.7062
862.000000	82.506	-94.7120
875.000000	82.586	-94.7132
885.000000	82.650	-94.7126
900.000000	82.749	-94.7144
912.000000	82.833	-94.7218
925.000000	82.926	-94.7367
938.000000	83.023	-94.7580
950.000000	83.113	-94.7873
962.000000	83.206	-94.8320
975.000000	83.308	-94.8994
988.000000	83.411	-94.9840
1000.000000	83.509	-95.0757
1015.000000	83.634	-95.2090
1030.000000	83.760	-95.3630
1044.000000	83.878	-95.5258
1060.000000	84.013	-95.7356
1075.000000	84.139	-95.9568
1090.000000	84.263	-96.2026
1106.000000	84.395	-96.4927
1120.000000	84.508	-96.7694
1138.000000	84.652	-97.1524
1150.000000	84.746	-97.4210
1172.000000	84.915	-97.9335
1180.000000	84.975	-98.1258
1206.000000	85.166	-98.7699
1220.000000	85.266	-99.1257
1241.000000	85.411	-99.6679
1250.000000	85.471	-99.9034
1265.000000	85.569	-100.2993
1280.000000	85.666	-100.6972
1315.000000	85.884	-101.6226
1320.000000	85.914	-101.7541
1340.000000	86.034	-102.2775
1360.000000	86.150	-102.7949
1380.000000	86.264	-103.3049
1400.000000	86.376	-103.8087
1430.000000	86.541	-104.5542
1450.000000	86.650	-105.0458
1475.000000	86.784	-105.6556
1500.000000	86.916	-106.2607
1525.000000	87.047	-106.8610
1550.000000	87.177	-107.4603
1575.000000	87.307	-108.0634
1600.000000	87.436	-108.6750
1625.000000	87.564	-109.2940
1650.000000	87.691	-109.9184
1675.000000	87.817	-110.5506
1700.000000	87.942	-111.1945
1725.000000	88.065	-111.8513
1750.000000	88.187	-112.5180
1775.000000	88.307	-113.1938
1800.000000	88.424	-113.8792
1825.000000	88.539	-114.5716
1850.000000	88.652	-115.2679
1875.000000	88.763	-115.9663
1900.000000	88.872	-116.6661
1925.000000	88.979	-117.3665
1950.000000	89.084	-118.0659
1975.000000	89.190	-118.7627
2000.000000	89.295	-119.4578
2030.000000	89.423	-120.2941
2060.000000	89.553	-121.1369
2090.000000	89.685	-121.9913
2120.000000	89.820	-122.8653
2140.000000	89.912	-123.4642
2180.000000	90.101	-124.7176
2200.000000	90.196	-125.3784
2240.000000	90.388	-126.7818
2270.000000	90.531	-127.9164
2300.000000	90.671	-129.1283
2330.000000	90.807	-130.4210
2360.000000	90.936	-131.7957
2400.000000	91.095	-133.7525
2430.000000	91.202	-135.3051
2470.000000	91.325	-137.4719
2500.000000	91.402	-139.1557
2540.000000	91.480	-141.4579
2580.000000	91.531	-143.8018
2620.000000	91.555	-146.1587
2650.000000	91.556	-147.9172
2690.000000	91.535	-150.2291
2720.000000	91.505	-151.9265
2760.000000	91.447	-154.1264
2800.000000	91.372	-156.2422
2850.000000	91.259	-158.7571
2900.000000	91.129	-161.1277
2950.000000	90.984	-163.3587
3000.000000	90.830	-165.4560
3040.000000	90.701	-167.0448
3070.000000	90.601	-168.1888
3110.000000	90.464	-169.6555
3150.000000	90.324	-171.0602
3200.000000	90.142	-172.7352
3250.000000	89.952	-174.3218
3300.000000	89.750	-175.8096
3350.000000	89.535	-177.1711
3400.000000	89.306	-178.3629
3450.000000	89.067	-179.3303
3500.000000	88.826	179.9740
3550.000000	88.597	179.5630
3600.000000	88.399	179.3904
3650.000000	88.245	179.3431
3700.000000	88.138	179.2650
3750.000000	88.069	179.0131
3820.000000	87.996	178.2469
3870.000000	87.935	177.4446
3950.000000	87.794	175.9649
4000.000000	87.680	175.0547
4060.000000	87.525	174.0723
4120.000000	87.363	173.2433
4180.000000	87.205	172.5598
4250.000000	87.036	171.8998
4310.000000	86.908	171.4020
4370.000000	86.798	170.9243
4440.000000	86.689	170.3505
4500.000000	86.612	169.8114
4550.000000	86.559	169.3028
4620.000000	86.495	168.4501
4680.000000	86.444	167.5412
4750.000000	86.372	166.2387
4820.000000	86.270	164.7010
4870.000000	86.169	163.5092
4940.000000	85.981	161.8151
5000.000000	85.777	160.4375
5080.000000	85.449	158.8492
5150.000000	85.122	157.7851
5220.000000	84.772	157.0719
5300.000000	84.362	156.6929
5380.000000	83.960	156.7423
5450.000000	83.628	157.0846
5520.000000	83.321	157.6495
5600.000000	83.007	158.4974
5700.000000	82.672	159.7563
5800.000000	82.394	161.1313
5900.000000	82.168	162.5447
6000.000000	81.986	163.9587
6080.000000	81.869	165.0733
6150.000000	81.784	166.0260
6220.000000	81.716	166.9505
6300.000000	81.654	167.9675
6400.000000	81.599	169.1776
6500.000000	81.565	170.3220
6600.000000	81.548	171.4037
6700.000000	81.545	172.4258
6800.000000	81.553	173.3966
6900.000000	81.569	174.3306
7000.000000	81.590	175.2529
7100.000000	81.615	176.2083
7200.000000	81.647	177.2577
7300.000000	81.692	178.4616
7400.000000	81.764	179.8638
7500.000000	81.883	-178.5182
7620.000000	82.116	-176.3192
7750.000000	82.531	-173.7449
7880.000000	83.177	-171.2713
8000.000000	84.004	-169.5909
8120.000000	85.012	-169.1616
8250.000000	86.191	-170.8246
8380.000000	87.312	-175.1814
8500.000000	88.171	178.3351
8620.000000	88.764	169.8267
8750.000000	89.037	159.1838
8850.000000	88.971	150.7667
9000.000000	88.455	139.1144
9120.000000	87.747	131.4208
9250.000000	86.775	125.0860
9380.000000	85.680	120.8055
9500.000000	84.630	118.4830
9620.000000	83.597	117.4487
9750.000000	82.545	117.4016
9880.000000	81.576	118.1633
10000.000000	80.752	119.4661
10150.000000	79.821	121.7653
10300.000000	79.000	124.6252
10440.000000	78.325	127.6704
10600.000000	77.647	131.5306
10750.000000	77.097	135.4981
10900.000000	76.631	139.7629
11060.000000	76.233	144.5497
11200.000000	75.968	148.8393
11380.000000	75.728	154.3627
11500.000000	75.619	158.0165
11720.000000	75.501	164.7188
11800.000000	75.485	167.1887
12060.000000	75.560	175.3882
12200.000000	75.703	179.8542
12410.000000	76.088	-173.6013
12500.000000	76.323	-170.9416
12650.000000	76.808	-166.8499
12800.000000	77.404	-163.3800
13150.000000	79.070	-159.2839
13200.000000	79.312	-159.3215
13400.000000	80.185	-161.3689
13600.000000	80.762	-166.3517
13800.000000	80.885	-173.1874
14000.000000	80.489	-179.7679
14300.000000	79.104	175.2986
14500.000000	77.972	176.2926
14750.000000	76.834	-179.4203
15000.000000	76.291	-175.0467
15250.000000	76.132	-173.0577
15500.000000	75.944	-173.6741
15750.000000	75.473	-175.4804
16000.000000	74.671	-176.7173
16250.000000	73.618	-176.2518
16500.000000	72.447	-173.8304
16750.000000	71.271	-169.7655
17000.000000	70.153	-164.4774
17250.000000	69.097	-158.1788
17500.000000	68.082	-150.6860
17750.000000	67.121	-141.3621
18000.000000	66.402	-129.4620
18250.000000	66.402	-115.3204
18500.000000	67.440	-101.5685
18750.000000	69.062	-92.2548
19000.000000	70.559	-90.1648
19250.000000	71.560	-94.7412
19500.000000	72.046	-102.8345
19750.000000	72.177	-110.9922
