* Measurement data measured by REW V5.20.13
* Source: Microphone (USB Sound Device        ), MICROPHONE (Master Volume), L, volume: 0.250
* Format: 128k Log Swept Sine, 1 sweep at -12.0 dBFS with no timing reference
* Dated: Aug 10, 2023 11:30:17 AM
* REW Settings:
*  C-weighting compensation: Off
*  Target level: 75.0 dB
* Note: 
* Measurement: KRILLA R DDDD
* Smoothing: 1/12 octave
* Frequency Step: 1/48 octave
* Start Frequency: 20.000 Hz
*
* Freq(Hz)	SPL(dB)	Phase(degrees)
20.000000	86.006	-156.3840
20.299999	85.994	-156.9764
20.600000	85.990	-157.5866
20.900000	85.993	-158.2010
21.200001	86.004	-158.8059
21.400000	86.015	-159.1975
21.799999	86.046	-159.9420
22.000000	86.065	-160.2894
22.400000	86.108	-160.9233
22.700001	86.144	-161.3395
23.000000	86.180	-161.7025
23.299999	86.217	-162.0155
23.600000	86.253	-162.2836
24.000000	86.296	-162.5788
24.299999	86.323	-162.7586
24.700001	86.351	-162.9486
25.000000	86.366	-163.0615
25.400000	86.379	-163.1892
25.799999	86.384	-163.3163
26.200001	86.382	-163.4639
26.500000	86.374	-163.5931
26.900000	86.357	-163.7890
27.200001	86.342	-163.9522
27.600000	86.320	-164.1949
28.000000	86.300	-164.4767
28.500000	86.278	-164.8964
29.000000	86.259	-165.3757
29.500000	86.242	-165.8664
30.000000	86.232	-166.3167
30.400000	86.233	-166.6370
30.700001	86.241	-166.8607
31.100000	86.259	-167.1518
31.500000	86.281	-167.4435
32.000000	86.310	-167.8025
32.500000	86.334	-168.1272
33.000000	86.352	-168.3930
33.500000	86.366	-168.6026
34.000000	86.376	-168.7777
34.500000	86.383	-168.9378
35.000000	86.384	-169.0917
35.500000	86.382	-169.2465
36.000000	86.378	-169.4122
36.500000	86.373	-169.5979
37.000000	86.368	-169.8067
37.500000	86.361	-170.0346
38.200001	86.353	-170.3701
38.700001	86.347	-170.6090
39.500000	86.342	-170.9744
40.000000	86.341	-171.1937
40.599998	86.341	-171.4523
41.200001	86.341	-171.7021
41.799999	86.340	-171.9364
42.500000	86.338	-172.1911
43.099998	86.337	-172.4014
43.700001	86.337	-172.6107
44.400002	86.338	-172.8593
45.000000	86.340	-173.0765
45.500000	86.341	-173.2528
46.200001	86.344	-173.4760
46.799999	86.347	-173.6358
47.500000	86.353	-173.7822
48.200001	86.366	-173.8979
48.700001	86.379	-173.9914
49.400002	86.398	-174.1944
50.000000	86.403	-174.4409
50.799999	86.384	-174.7673
51.500000	86.355	-174.9539
52.200001	86.330	-175.0692
53.000000	86.315	-175.2189
53.799999	86.303	-175.4317
54.500000	86.291	-175.6312
55.200001	86.279	-175.8027
56.000000	86.273	-175.9648
57.000000	86.274	-176.1726
58.000000	86.276	-176.4010
59.000000	86.274	-176.6237
60.000000	86.267	-176.8395
60.799999	86.259	-177.0025
61.500000	86.253	-177.1408
62.200001	86.249	-177.2846
63.000000	86.244	-177.4585
64.000000	86.238	-177.6802
65.000000	86.232	-177.8969
66.000000	86.225	-178.1019
67.000000	86.216	-178.2886
68.000000	86.208	-178.4614
69.000000	86.198	-178.6346
70.000000	86.188	-178.8161
71.000000	86.176	-179.0013
72.000000	86.163	-179.1812
73.000000	86.151	-179.3513
74.000000	86.142	-179.5188
75.000000	86.135	-179.6884
76.199997	86.126	-179.8879
77.500000	86.115	179.9087
78.800003	86.101	179.7252
80.000000	86.087	179.5735
81.199997	86.075	179.4264
82.500000	86.063	179.2545
83.800003	86.051	179.0692
85.000000	86.041	178.9006
86.199997	86.029	178.7466
87.500000	86.015	178.5983
88.500000	86.004	178.4908
90.000000	85.984	178.3285
91.199997	85.968	178.1906
92.500000	85.954	178.0308
93.800003	85.943	177.8765
95.000000	85.935	177.7632
96.199997	85.928	177.6937
97.500000	85.921	177.6628
98.800003	85.915	177.6328
100.000000	85.906	177.5478
101.500000	85.882	177.3563
103.000000	85.846	177.1432
104.400002	85.814	176.9597
106.000000	85.785	176.7668
107.500000	85.764	176.6014
109.000000	85.743	176.4582
110.599998	85.721	176.3311
112.000000	85.703	176.2322
113.800003	85.680	176.1102
115.000000	85.666	176.0298
117.199997	85.643	175.8842
118.000000	85.634	175.8315
120.599998	85.603	175.6638
122.000000	85.586	175.5775
124.099998	85.559	175.4565
125.000000	85.547	175.4079
126.500000	85.529	175.3293
128.000000	85.510	175.2526
131.500000	85.464	175.0840
132.000000	85.457	175.0602
134.000000	85.429	174.9655
136.000000	85.402	174.8737
138.000000	85.376	174.7881
140.000000	85.352	174.7117
143.000000	85.316	174.6166
145.000000	85.291	174.5614
147.500000	85.261	174.4890
150.000000	85.230	174.4151
152.500000	85.196	174.3566
155.000000	85.162	174.3081
157.500000	85.129	174.2567
160.000000	85.096	174.2096
162.500000	85.065	174.1699
165.000000	85.036	174.1337
167.500000	85.008	174.1026
170.000000	84.978	174.0797
172.500000	84.948	174.0632
175.000000	84.917	174.0503
177.500000	84.886	174.0437
180.000000	84.856	174.0403
182.500000	84.827	174.0335
185.000000	84.799	174.0264
187.500000	84.770	174.0280
190.000000	84.742	174.0378
192.500000	84.712	174.0395
195.000000	84.680	174.0211
197.500000	84.648	173.9971
200.000000	84.617	174.0005
203.000000	84.587	174.0586
206.000000	84.560	174.1398
209.000000	84.529	174.2087
212.000000	84.498	174.2645
214.000000	84.477	174.3003
218.000000	84.437	174.3741
220.000000	84.417	174.4124
224.000000	84.378	174.4919
227.000000	84.350	174.5506
230.000000	84.322	174.6095
233.000000	84.295	174.6733
236.000000	84.268	174.7444
240.000000	84.232	174.8484
243.000000	84.205	174.9308
247.000000	84.169	175.0459
250.000000	84.143	175.1365
254.000000	84.108	175.2601
258.000000	84.074	175.3839
262.000000	84.041	175.5097
265.000000	84.017	175.6069
269.000000	83.984	175.7411
272.000000	83.960	175.8438
276.000000	83.928	175.9804
280.000000	83.898	176.1168
285.000000	83.859	176.2943
290.000000	83.821	176.4875
295.000000	83.783	176.6887
300.000000	83.747	176.8831
304.000000	83.722	177.0330
307.000000	83.705	177.1467
311.000000	83.682	177.3052
315.000000	83.659	177.4715
320.000000	83.629	177.6840
325.000000	83.599	177.8962
330.000000	83.570	178.1083
335.000000	83.540	178.3204
340.000000	83.512	178.5335
345.000000	83.485	178.7490
350.000000	83.458	178.9667
355.000000	83.432	179.1865
360.000000	83.407	179.4096
365.000000	83.382	179.6360
370.000000	83.358	179.8666
375.000000	83.335	-179.8989
382.000000	83.305	-179.5699
387.000000	83.283	-179.3333
395.000000	83.248	-178.9406
400.000000	83.228	-178.6962
406.000000	83.206	-178.4213
412.000000	83.183	-178.1544
418.000000	83.162	-177.8809
425.000000	83.139	-177.5518
431.000000	83.119	-177.2629
437.000000	83.100	-176.9723
444.000000	83.077	-176.6390
450.000000	83.059	-176.3560
455.000000	83.044	-176.1163
462.000000	83.024	-175.7733
468.000000	83.007	-175.4785
475.000000	82.988	-175.1372
482.000000	82.969	-174.7914
487.000000	82.957	-174.5362
494.000000	82.941	-174.1708
500.000000	82.927	-173.8592
508.000000	82.910	-173.4567
515.000000	82.896	-173.1134
522.000000	82.883	-172.7685
530.000000	82.868	-172.3635
538.000000	82.855	-171.9469
545.000000	82.843	-171.5779
552.000000	82.831	-171.2120
560.000000	82.819	-170.8008
570.000000	82.805	-170.2886
580.000000	82.793	-169.7695
590.000000	82.782	-169.2409
600.000000	82.772	-168.7047
608.000000	82.765	-168.2722
615.000000	82.758	-167.8951
622.000000	82.753	-167.5194
630.000000	82.747	-167.0882
640.000000	82.740	-166.5432
650.000000	82.733	-165.9921
660.000000	82.724	-165.4369
670.000000	82.715	-164.8715
680.000000	82.704	-164.2852
690.000000	82.691	-163.6614
700.000000	82.677	-162.9771
710.000000	82.664	-162.2022
720.000000	82.662	-161.3011
730.000000	82.686	-160.2852
740.000000	82.752	-159.2836
750.000000	82.851	-158.4982
762.000000	82.967	-157.9468
775.000000	83.050	-157.5969
788.000000	83.097	-157.2185
800.000000	83.129	-156.7695
812.000000	83.163	-156.2477
825.000000	83.203	-155.6367
838.000000	83.249	-154.9960
850.000000	83.295	-154.3874
862.000000	83.346	-153.7763
875.000000	83.406	-153.1200
885.000000	83.454	-152.6200
900.000000	83.532	-151.8845
912.000000	83.597	-151.3146
925.000000	83.670	-150.7136
938.000000	83.748	-150.1264
950.000000	83.822	-149.5998
962.000000	83.899	-149.0917
975.000000	83.984	-148.5637
988.000000	84.073	-148.0616
1000.000000	84.156	-147.6261
1015.000000	84.261	-147.1232
1030.000000	84.368	-146.6603
1044.000000	84.470	-146.2572
1060.000000	84.587	-145.8290
1075.000000	84.698	-145.4621
1090.000000	84.808	-145.1314
1106.000000	84.924	-144.8177
1120.000000	85.025	-144.5748
1138.000000	85.152	-144.3035
1150.000000	85.236	-144.1454
1172.000000	85.387	-143.8950
1180.000000	85.441	-143.8153
1206.000000	85.613	-143.5923
1220.000000	85.702	-143.4944
1241.000000	85.831	-143.3775
1250.000000	85.885	-143.3384
1265.000000	85.973	-143.2869
1280.000000	86.058	-143.2486
1315.000000	86.250	-143.1828
1320.000000	86.276	-143.1752
1340.000000	86.381	-143.1497
1360.000000	86.482	-143.1310
1380.000000	86.580	-143.1183
1400.000000	86.676	-143.1118
1430.000000	86.816	-143.1086
1450.000000	86.907	-143.1100
1475.000000	87.019	-143.1163
1500.000000	87.130	-143.1238
1525.000000	87.238	-143.1342
1550.000000	87.344	-143.1534
1575.000000	87.449	-143.1778
1600.000000	87.555	-143.2089
1625.000000	87.660	-143.2497
1650.000000	87.764	-143.2980
1675.000000	87.868	-143.3551
1700.000000	87.973	-143.4267
1725.000000	88.077	-143.5141
1750.000000	88.182	-143.6137
1775.000000	88.286	-143.7231
1800.000000	88.390	-143.8452
1825.000000	88.493	-143.9835
1850.000000	88.596	-144.1402
1875.000000	88.698	-144.3168
1900.000000	88.800	-144.5126
1925.000000	88.900	-144.7259
1950.000000	89.000	-144.9560
1975.000000	89.098	-145.2040
2000.000000	89.196	-145.4709
2030.000000	89.312	-145.8176
2060.000000	89.425	-146.1938
2090.000000	89.536	-146.5974
2120.000000	89.644	-147.0252
2140.000000	89.715	-147.3229
2180.000000	89.852	-147.9474
2200.000000	89.918	-148.2740
2240.000000	90.047	-148.9556
2270.000000	90.139	-149.4919
2300.000000	90.228	-150.0483
2330.000000	90.314	-150.6222
2360.000000	90.396	-151.2108
2400.000000	90.498	-152.0151
2430.000000	90.570	-152.6313
2470.000000	90.660	-153.4691
2500.000000	90.723	-154.1083
2540.000000	90.802	-154.9694
2580.000000	90.875	-155.8362
2620.000000	90.940	-156.7082
2650.000000	90.986	-157.3635
2690.000000	91.041	-158.2358
2720.000000	91.079	-158.8886
2760.000000	91.125	-159.7569
2800.000000	91.167	-160.6209
2850.000000	91.213	-161.6907
2900.000000	91.252	-162.7452
2950.000000	91.286	-163.7832
3000.000000	91.315	-164.8096
3040.000000	91.334	-165.6243
3070.000000	91.347	-166.2312
3110.000000	91.363	-167.0340
3150.000000	91.376	-167.8298
3200.000000	91.389	-168.8172
3250.000000	91.399	-169.7972
3300.000000	91.407	-170.7721
3350.000000	91.411	-171.7478
3400.000000	91.412	-172.7256
3450.000000	91.410	-173.7050
3500.000000	91.405	-174.6884
3550.000000	91.396	-175.6774
3600.000000	91.383	-176.6726
3650.000000	91.366	-177.6763
3700.000000	91.344	-178.6889
3750.000000	91.317	-179.7085
3820.000000	91.271	178.8564
3870.000000	91.231	177.8261
3950.000000	91.151	176.1749
4000.000000	91.091	175.1477
4060.000000	91.009	173.9250
4120.000000	90.916	172.7209
4180.000000	90.811	171.5480
4250.000000	90.673	170.2334
4310.000000	90.542	169.1641
4370.000000	90.401	168.1613
4440.000000	90.223	167.0899
4500.000000	90.063	166.2631
4550.000000	89.926	165.6398
4620.000000	89.733	164.8563
4680.000000	89.567	164.2408
4750.000000	89.375	163.5449
4820.000000	89.175	162.8429
4870.000000	89.023	162.3409
4940.000000	88.790	161.6741
5000.000000	88.570	161.1852
5080.000000	88.250	160.7305
5150.000000	87.955	160.5609
5220.000000	87.654	160.6120
5300.000000	87.310	160.9219
5380.000000	86.972	161.4722
5450.000000	86.685	162.1305
5520.000000	86.407	162.9389
5600.000000	86.103	164.0289
5700.000000	85.745	165.6171
5800.000000	85.413	167.4292
5900.000000	85.108	169.4398
6000.000000	84.832	171.6284
6080.000000	84.633	173.4947
6150.000000	84.474	175.2037
6220.000000	84.332	176.9777
6300.000000	84.189	179.0751
6400.000000	84.041	-178.2136
6500.000000	83.928	-175.4112
6600.000000	83.851	-172.5283
6700.000000	83.812	-169.5815
6800.000000	83.813	-166.5836
6900.000000	83.860	-163.5487
7000.000000	83.955	-160.4979
7100.000000	84.101	-157.4620
7200.000000	84.303	-154.4765
7300.000000	84.561	-151.5744
7400.000000	84.880	-148.7888
7500.000000	85.265	-146.1629
7620.000000	85.824	-143.3020
7750.000000	86.561	-140.7084
7880.000000	87.443	-138.8984
8000.000000	88.377	-138.2512
8120.000000	89.390	-138.9992
8250.000000	90.493	-141.9456
8380.000000	91.464	-147.6129
8500.000000	92.109	-155.2913
8620.000000	92.403	-164.6640
8750.000000	92.273	-175.2406
8850.000000	91.872	177.4416
9000.000000	90.895	169.1446
9120.000000	89.921	165.1442
9250.000000	88.810	163.1787
9380.000000	87.750	163.1452
9500.000000	86.890	164.2927
9620.000000	86.178	166.0520
9750.000000	85.560	168.2462
9880.000000	85.061	170.6346
10000.000000	84.688	173.0302
10150.000000	84.347	176.2091
10300.000000	84.145	179.4233
10440.000000	84.072	-177.6995
10600.000000	84.107	-174.7036
10750.000000	84.233	-172.2808
10900.000000	84.431	-170.3076
11060.000000	84.701	-168.7658
11200.000000	84.967	-167.9306
11380.000000	85.324	-167.5755
11500.000000	85.558	-167.7762
11720.000000	85.950	-168.9886
11800.000000	86.075	-169.6777
12060.000000	86.401	-172.7139
12200.000000	86.520	-174.8086
12410.000000	86.618	-178.5406
12500.000000	86.625	179.6365
12650.000000	86.577	176.3049
12800.000000	86.442	172.6570
13150.000000	85.696	163.7979
13200.000000	85.535	162.6213
13400.000000	84.764	158.5243
13600.000000	83.829	155.7390
13800.000000	82.807	154.4393
14000.000000	81.789	154.4467
14300.000000	80.440	155.8775
14500.000000	79.716	156.8901
14750.000000	78.965	157.2377
15000.000000	78.204	156.2621
15250.000000	77.148	155.6797
15500.000000	75.731	158.8485
15750.000000	74.458	165.6180
16000.000000	73.786	172.7001
16250.000000	73.645	178.2151
16500.000000	73.784	-178.4580
16750.000000	73.980	-177.5472
17000.000000	74.047	-178.7889
17250.000000	73.863	178.6883
17500.000000	73.383	176.1032
17750.000000	72.638	174.5728
18000.000000	71.728	174.6890
18250.000000	70.812	176.1867
18500.000000	70.035	177.9202
18750.000000	69.385	178.7840
19000.000000	68.723	178.8668
19250.000000	67.989	178.9103
19500.000000	67.249	179.1581
19750.000000	66.621	179.4153
20000.000000	66.236	179.5530
