* Measurement data measured by REW V5.20.13
* Source: Microphone (USB Sound Device        ), MICROPHONE (Master Volume), L, volume: 0.250. Timing signal peak level -43.1 dBFS, measurement signal peak level -26.3 dBFS
* Format: 128k Log Swept Sine, 1 sweep at -12.0 dBFS using an acoustic timing reference
* Dated: Jul 29, 2023 1:42:19 PM
* REW Settings:
*  C-weighting compensation: Off
*  Target level: 75.0 dB
* Note: Delay -0.0024 ms (-0.84 mm, -0.03 in) using estimated IR delay relative to Acoustic reference played from SPEAKER R with no timing offset
* Measurement: SHUOER DZ4 L
* Smoothing: 1/12 octave
* Frequency Step: 1/48 octave
* Start Frequency: 20.000 Hz
*
* Freq(Hz)	SPL(dB)	Phase(degrees)
20.000000	88.182	-151.2724
20.299999	88.172	-152.2860
20.600000	88.166	-153.3015
20.900000	88.164	-154.2993
21.200001	88.168	-155.2610
21.400000	88.175	-155.8781
21.799999	88.200	-157.0623
22.000000	88.217	-157.6353
22.400000	88.258	-158.7578
22.700001	88.289	-159.5816
23.000000	88.316	-160.3795
23.299999	88.336	-161.1314
23.600000	88.349	-161.8196
24.000000	88.356	-162.6214
24.299999	88.358	-163.1408
24.700001	88.358	-163.7540
25.000000	88.356	-164.1837
25.400000	88.350	-164.7482
25.799999	88.335	-165.3176
26.200001	88.311	-165.8876
26.500000	88.289	-166.3132
26.900000	88.258	-166.8861
27.200001	88.236	-167.3344
27.600000	88.207	-167.9767
28.000000	88.178	-168.6775
28.500000	88.137	-169.6065
29.000000	88.093	-170.5287
29.500000	88.054	-171.3995
30.000000	88.026	-172.2224
30.400000	88.013	-172.8653
30.700001	88.006	-173.3445
31.100000	87.996	-173.9744
31.500000	87.984	-174.5794
32.000000	87.963	-175.2715
32.500000	87.936	-175.8679
33.000000	87.905	-176.3665
33.500000	87.875	-176.7926
34.000000	87.847	-177.1908
34.500000	87.819	-177.6038
35.000000	87.788	-178.0512
35.500000	87.752	-178.5292
36.000000	87.711	-179.0241
36.500000	87.669	-179.5325
37.000000	87.628	179.9372
37.500000	87.587	179.3797
38.200001	87.526	178.5856
38.700001	87.479	178.0526
39.500000	87.408	177.3185
40.000000	87.372	176.9211
40.599998	87.336	176.4705
41.200001	87.304	176.0190
41.799999	87.272	175.5545
42.500000	87.226	175.0014
43.099998	87.178	174.5388
43.700001	87.123	174.1102
44.400002	87.057	173.6645
45.000000	87.003	173.3156
45.500000	86.963	173.0271
46.200001	86.913	172.5919
46.799999	86.871	172.1734
47.500000	86.813	171.6583
48.200001	86.742	171.1858
48.700001	86.687	170.9139
49.400002	86.612	170.6426
50.000000	86.557	170.4856
50.799999	86.502	170.2992
51.500000	86.464	170.0897
52.200001	86.428	169.8260
53.000000	86.383	169.4941
53.799999	86.333	169.1626
54.500000	86.287	168.8837
55.200001	86.239	168.6162
56.000000	86.184	168.3147
57.000000	86.110	167.9425
58.000000	86.036	167.5938
59.000000	85.971	167.2391
60.000000	85.913	166.8329
60.799999	85.867	166.4571
61.500000	85.819	166.1263
62.200001	85.763	165.8685
63.000000	85.697	165.7203
64.000000	85.632	165.6835
65.000000	85.581	165.6594
66.000000	85.528	165.5977
67.000000	85.469	165.5022
68.000000	85.404	165.3751
69.000000	85.337	165.2293
70.000000	85.276	165.0689
71.000000	85.223	164.8850
72.000000	85.176	164.6767
73.000000	85.128	164.4748
74.000000	85.075	164.3273
75.000000	85.021	164.2443
76.199997	84.954	164.1926
77.500000	84.880	164.1577
78.800003	84.806	164.1158
80.000000	84.740	164.0534
81.199997	84.678	163.9739
82.500000	84.615	163.8887
83.800003	84.556	163.8218
85.000000	84.502	163.7824
86.199997	84.449	163.7677
87.500000	84.389	163.7767
88.500000	84.343	163.7886
90.000000	84.275	163.7884
91.199997	84.222	163.7549
92.500000	84.167	163.6889
93.800003	84.114	163.6166
95.000000	84.069	163.5583
96.199997	84.027	163.5148
97.500000	83.981	163.4912
98.800003	83.931	163.5032
100.000000	83.882	163.5558
101.500000	83.820	163.6599
103.000000	83.763	163.7629
104.400002	83.712	163.8475
106.000000	83.658	163.9391
107.500000	83.610	164.0338
109.000000	83.565	164.1400
110.599998	83.517	164.2485
112.000000	83.475	164.3267
113.800003	83.423	164.3943
115.000000	83.391	164.4116
117.199997	83.330	164.4052
118.000000	83.305	164.4122
120.599998	83.217	164.5012
122.000000	83.161	164.5870
124.099998	83.070	164.8724
125.000000	83.040	165.0489
126.500000	83.007	165.3357
128.000000	82.989	165.5524
131.500000	82.931	165.8256
132.000000	82.918	165.8630
134.000000	82.864	166.0471
136.000000	82.816	166.2299
138.000000	82.772	166.3731
140.000000	82.732	166.4969
143.000000	82.673	166.6273
145.000000	82.635	166.6677
147.500000	82.598	166.6941
150.000000	82.573	166.7749
152.500000	82.554	166.9809
155.000000	82.530	167.3170
157.500000	82.494	167.7065
160.000000	82.450	168.0143
162.500000	82.401	168.1674
165.000000	82.357	168.2294
167.500000	82.331	168.3386
170.000000	82.319	168.5916
172.500000	82.306	168.9368
175.000000	82.281	169.2273
177.500000	82.250	169.4045
180.000000	82.226	169.5511
182.500000	82.206	169.7605
185.000000	82.179	170.0227
187.500000	82.147	170.2591
190.000000	82.122	170.4449
192.500000	82.109	170.6205
195.000000	82.100	170.8044
197.500000	82.090	170.9842
200.000000	82.078	171.1587
203.000000	82.061	171.3762
206.000000	82.041	171.5751
209.000000	82.016	171.7371
212.000000	81.991	171.9171
214.000000	81.976	172.0581
218.000000	81.954	172.3382
220.000000	81.948	172.4672
224.000000	81.939	172.7490
227.000000	81.925	173.0123
230.000000	81.912	173.2882
233.000000	81.903	173.5480
236.000000	81.897	173.7972
240.000000	81.890	174.0600
243.000000	81.885	174.1729
247.000000	81.863	174.3549
250.000000	81.832	174.5623
254.000000	81.785	174.7372
258.000000	81.752	174.6396
262.000000	81.743	174.4842
265.000000	81.754	174.5433
269.000000	81.770	174.8992
272.000000	81.772	175.2037
276.000000	81.774	175.4394
280.000000	81.783	175.5654
285.000000	81.778	175.7836
290.000000	81.759	176.0252
295.000000	81.749	176.2157
300.000000	81.752	176.3815
304.000000	81.754	176.5304
307.000000	81.754	176.6341
311.000000	81.753	176.7428
315.000000	81.749	176.8344
320.000000	81.741	176.9837
325.000000	81.730	177.1874
330.000000	81.722	177.3745
335.000000	81.722	177.4875
340.000000	81.719	177.5505
345.000000	81.705	177.6066
350.000000	81.680	177.6869
355.000000	81.650	177.7908
360.000000	81.623	177.8799
365.000000	81.605	177.9548
370.000000	81.597	178.0277
375.000000	81.599	178.1238
382.000000	81.610	178.3885
387.000000	81.616	178.6844
395.000000	81.607	179.1898
400.000000	81.587	179.4501
406.000000	81.559	179.6442
412.000000	81.535	179.7528
418.000000	81.523	179.9207
425.000000	81.514	-179.8069
431.000000	81.500	-179.5933
437.000000	81.483	-179.3878
444.000000	81.468	-179.1371
450.000000	81.454	-178.9345
455.000000	81.441	-178.7725
462.000000	81.422	-178.5254
468.000000	81.408	-178.2907
475.000000	81.394	-178.0177
482.000000	81.376	-177.7563
487.000000	81.364	-177.5687
494.000000	81.352	-177.3078
500.000000	81.346	-177.1063
508.000000	81.333	-176.8661
515.000000	81.317	-176.6410
522.000000	81.298	-176.3750
530.000000	81.281	-176.0382
538.000000	81.270	-175.6930
545.000000	81.263	-175.3970
552.000000	81.257	-175.1081
560.000000	81.251	-174.7817
570.000000	81.244	-174.3742
580.000000	81.236	-173.9654
590.000000	81.226	-173.5243
600.000000	81.215	-173.0433
608.000000	81.207	-172.6644
615.000000	81.202	-172.3366
622.000000	81.200	-172.0005
630.000000	81.203	-171.6180
640.000000	81.209	-171.1436
650.000000	81.214	-170.6517
660.000000	81.218	-170.1638
670.000000	81.225	-169.6922
680.000000	81.235	-169.2173
690.000000	81.247	-168.7216
700.000000	81.262	-168.2020
710.000000	81.281	-167.6916
720.000000	81.301	-167.2059
730.000000	81.323	-166.7248
740.000000	81.345	-166.2388
750.000000	81.370	-165.7568
762.000000	81.401	-165.1833
775.000000	81.438	-164.5504
788.000000	81.484	-163.9124
800.000000	81.532	-163.3367
812.000000	81.582	-162.7686
825.000000	81.635	-162.1548
838.000000	81.690	-161.5520
850.000000	81.745	-161.0092
862.000000	81.804	-160.4761
875.000000	81.873	-159.9085
885.000000	81.929	-159.4778
900.000000	82.018	-158.8472
912.000000	82.092	-158.3663
925.000000	82.177	-157.8707
938.000000	82.266	-157.3988
950.000000	82.350	-156.9866
962.000000	82.436	-156.5984
975.000000	82.532	-156.2048
988.000000	82.630	-155.8382
1000.000000	82.723	-155.5233
1015.000000	82.841	-155.1630
1030.000000	82.959	-154.8407
1044.000000	83.070	-154.5758
1060.000000	83.197	-154.3207
1075.000000	83.316	-154.1291
1090.000000	83.436	-153.9775
1106.000000	83.563	-153.8508
1120.000000	83.673	-153.7676
1138.000000	83.813	-153.6978
1150.000000	83.904	-153.6752
1172.000000	84.068	-153.6882
1180.000000	84.126	-153.7094
1206.000000	84.310	-153.8251
1220.000000	84.406	-153.9112
1241.000000	84.545	-154.0677
1250.000000	84.603	-154.1448
1265.000000	84.698	-154.2863
1280.000000	84.791	-154.4425
1315.000000	84.999	-154.8463
1320.000000	85.028	-154.9084
1340.000000	85.141	-155.1714
1360.000000	85.249	-155.4581
1380.000000	85.351	-155.7625
1400.000000	85.449	-156.0783
1430.000000	85.590	-156.5639
1450.000000	85.679	-156.8947
1475.000000	85.786	-157.3231
1500.000000	85.886	-157.7671
1525.000000	85.979	-158.2098
1550.000000	86.065	-158.6326
1575.000000	86.146	-159.0269
1600.000000	86.225	-159.3923
1625.000000	86.302	-159.7319
1650.000000	86.380	-160.0461
1675.000000	86.458	-160.3367
1700.000000	86.537	-160.6080
1725.000000	86.618	-160.8662
1750.000000	86.701	-161.1164
1775.000000	86.786	-161.3595
1800.000000	86.875	-161.5965
1825.000000	86.968	-161.8340
1850.000000	87.066	-162.0779
1875.000000	87.168	-162.3316
1900.000000	87.275	-162.6008
1925.000000	87.386	-162.8928
1950.000000	87.503	-163.2150
1975.000000	87.624	-163.5762
2000.000000	87.748	-163.9845
2030.000000	87.901	-164.5440
2060.000000	88.056	-165.1866
2090.000000	88.212	-165.9164
2120.000000	88.366	-166.7347
2140.000000	88.466	-167.3299
2180.000000	88.659	-168.6380
2200.000000	88.751	-169.3486
2240.000000	88.923	-170.8757
2270.000000	89.041	-172.1042
2300.000000	89.147	-173.3926
2330.000000	89.242	-174.7303
2360.000000	89.323	-176.1076
2400.000000	89.412	-177.9902
2430.000000	89.462	-179.4234
2470.000000	89.509	178.6612
2500.000000	89.529	177.2347
2540.000000	89.536	175.3613
2580.000000	89.523	173.5375
2620.000000	89.493	171.7775
2650.000000	89.459	170.5066
2690.000000	89.402	168.8866
2720.000000	89.352	167.7315
2760.000000	89.276	166.2739
2800.000000	89.193	164.9100
2850.000000	89.082	163.3345
2900.000000	88.966	161.8991
2950.000000	88.849	160.5970
3000.000000	88.732	159.4183
3040.000000	88.640	158.5551
3070.000000	88.574	157.9492
3110.000000	88.488	157.1920
3150.000000	88.407	156.4872
3200.000000	88.311	155.6702
3250.000000	88.223	154.9119
3300.000000	88.143	154.1979
3350.000000	88.074	153.5146
3400.000000	88.013	152.8506
3450.000000	87.960	152.1960
3500.000000	87.915	151.5397
3550.000000	87.877	150.8695
3600.000000	87.845	150.1737
3650.000000	87.818	149.4393
3700.000000	87.795	148.6527
3750.000000	87.774	147.8047
3820.000000	87.741	146.5055
3870.000000	87.710	145.4956
3950.000000	87.638	143.7567
4000.000000	87.571	142.6230
4060.000000	87.466	141.2747
4120.000000	87.328	140.0258
4180.000000	87.162	138.9736
4250.000000	86.948	138.0996
4310.000000	86.769	137.6931
4370.000000	86.615	137.5694
4440.000000	86.487	137.6509
4500.000000	86.428	137.7649
4550.000000	86.412	137.7960
4620.000000	86.429	137.6382
4680.000000	86.463	137.2659
4750.000000	86.510	136.5450
4820.000000	86.546	135.5511
4870.000000	86.559	134.7055
4940.000000	86.553	133.3795
5000.000000	86.524	132.1561
5080.000000	86.449	130.4721
5150.000000	86.350	129.0058
5220.000000	86.223	127.5956
5300.000000	86.047	126.1009
5380.000000	85.843	124.7643
5450.000000	85.645	123.7457
5520.000000	85.434	122.8840
5600.000000	85.181	122.1035
5700.000000	84.855	121.4373
5800.000000	84.529	121.1056
5900.000000	84.213	121.0923
6000.000000	83.914	121.3690
6080.000000	83.691	121.7743
6150.000000	83.510	122.2479
6220.000000	83.344	122.8220
6300.000000	83.176	123.5876
6400.000000	82.998	124.6813
6500.000000	82.858	125.8949
6600.000000	82.761	127.1958
6700.000000	82.709	128.5501
6800.000000	82.706	129.9246
6900.000000	82.755	131.2850
7000.000000	82.861	132.5938
7100.000000	83.032	133.8022
7200.000000	83.272	134.8403
7300.000000	83.583	135.6187
7400.000000	83.967	136.0330
7500.000000	84.424	135.9548
7620.000000	85.060	134.9744
7750.000000	85.824	132.4105
7880.000000	86.586	127.7620
8000.000000	87.176	121.2727
8120.000000	87.536	112.7264
8250.000000	87.549	101.9113
8380.000000	87.113	90.9529
8500.000000	86.335	82.0838
8620.000000	85.276	75.2306
8750.000000	83.932	70.3038
8850.000000	82.839	68.1168
9000.000000	81.213	66.9241
9120.000000	79.985	67.3313
9250.000000	78.763	68.7473
9380.000000	77.664	70.9047
9500.000000	76.759	73.3889
9620.000000	75.957	76.2203
9750.000000	75.200	79.5272
9880.000000	74.538	82.9963
10000.000000	73.996	86.3695
10150.000000	73.412	90.8112
10300.000000	72.937	95.4017
10440.000000	72.589	99.7402
10600.000000	72.290	104.7292
10750.000000	72.098	109.4119
10900.000000	71.989	114.0659
11060.000000	71.959	118.9676
11200.000000	72.005	123.1881
11380.000000	72.161	128.5135
11500.000000	72.326	131.9968
11720.000000	72.759	138.1929
11800.000000	72.961	140.3632
12060.000000	73.801	147.0015
12200.000000	74.382	150.2441
12410.000000	75.451	154.4853
12500.000000	75.987	155.9901
12650.000000	76.980	157.9075
12800.000000	78.083	158.8261
13150.000000	80.783	154.9127
13200.000000	81.139	153.4427
13400.000000	82.344	144.9667
13600.000000	83.035	132.9490
13800.000000	83.092	119.5648
14000.000000	82.544	107.6766
14300.000000	80.978	96.2898
14500.000000	79.778	92.9256
14750.000000	78.449	91.8386
15000.000000	77.505	92.4849
15250.000000	77.003	93.4561
15500.000000	76.894	93.6763
15750.000000	77.061	92.2297
16000.000000	77.326	88.4002
16250.000000	77.474	81.9890
16500.000000	77.318	73.7018
16750.000000	76.758	65.0842
17000.000000	75.802	57.7933
17250.000000	74.544	52.8256
17500.000000	73.114	50.3609
17750.000000	71.639	50.0634
18000.000000	70.212	51.4049
18250.000000	68.893	53.8693
18500.000000	67.706	57.0529
18750.000000	66.658	60.6591
19000.000000	65.754	64.4071
19250.000000	65.007	67.9377
19500.000000	64.426	70.8593
19750.000000	64.021	72.8907
20000.000000	63.800	73.9415
