* Measurement data measured by REW V5.20.13
* Source: Microphone (USB Sound Device        ), MICROPHONE (Master Volume), L, volume: 0.250
* Format: 128k Log Swept Sine, 1 sweep at -12.0 dBFS with no timing reference
* Dated: Oct 17, 2023 2:48:31 PM
* REW Settings:
*  C-weighting compensation: Off
*  Target level: 75.0 dB
* Note: 
* Measurement: E1000 GOLD L
* Smoothing: 1/12 octave
* Frequency Step: 1/48 octave
* Start Frequency: 20.000 Hz
*
* Freq(Hz)	SPL(dB)	Phase(degrees)
20.000000	87.797	-117.9324
20.299999	87.823	-118.8489
20.600000	87.852	-119.7806
20.900000	87.887	-120.7248
21.200001	87.928	-121.6811
21.400000	87.959	-122.3251
21.799999	88.030	-123.6238
22.000000	88.069	-124.2735
22.400000	88.151	-125.5579
22.700001	88.214	-126.4906
23.000000	88.278	-127.3799
23.299999	88.342	-128.2155
23.600000	88.406	-128.9941
24.000000	88.491	-129.9475
24.299999	88.553	-130.6089
24.700001	88.633	-131.4336
25.000000	88.688	-132.0169
25.400000	88.752	-132.7524
25.799999	88.806	-133.4417
26.200001	88.851	-134.0928
26.500000	88.880	-134.5673
26.900000	88.913	-135.1992
27.200001	88.934	-135.6844
27.600000	88.957	-136.3544
28.000000	88.973	-137.0478
28.500000	88.988	-137.9316
29.000000	89.002	-138.8231
29.500000	89.020	-139.7311
30.000000	89.044	-140.6682
30.400000	89.064	-141.4317
30.700001	89.079	-142.0004
31.100000	89.099	-142.7339
31.500000	89.120	-143.4252
32.000000	89.149	-144.2270
32.500000	89.182	-144.9751
33.000000	89.217	-145.6844
33.500000	89.248	-146.3537
34.000000	89.277	-146.9792
34.500000	89.304	-147.5743
35.000000	89.330	-148.1651
35.500000	89.351	-148.7716
36.000000	89.365	-149.3904
36.500000	89.372	-150.0042
37.000000	89.377	-150.6027
37.500000	89.383	-151.1922
38.200001	89.393	-152.0289
38.700001	89.402	-152.6411
39.500000	89.413	-153.6204
40.000000	89.419	-154.2147
40.599998	89.426	-154.9006
41.200001	89.433	-155.5549
41.799999	89.439	-156.1792
42.500000	89.446	-156.8762
43.099998	89.450	-157.4538
43.700001	89.453	-158.0151
44.400002	89.454	-158.6496
45.000000	89.455	-159.1792
45.500000	89.455	-159.6144
46.200001	89.455	-160.2184
46.799999	89.454	-160.7358
47.500000	89.450	-161.3423
48.200001	89.441	-161.9371
48.700001	89.431	-162.3369
49.400002	89.417	-162.8482
50.000000	89.410	-163.2561
50.799999	89.406	-163.8049
51.500000	89.406	-164.3188
52.200001	89.405	-164.8601
53.000000	89.399	-165.4845
53.799999	89.391	-166.0916
54.500000	89.383	-166.6032
55.200001	89.373	-167.0915
56.000000	89.361	-167.6070
57.000000	89.348	-168.1931
58.000000	89.339	-168.7727
59.000000	89.327	-169.3865
60.000000	89.306	-170.0035
60.799999	89.285	-170.4665
61.500000	89.267	-170.8492
62.200001	89.251	-171.2234
63.000000	89.235	-171.6485
64.000000	89.215	-172.1696
65.000000	89.195	-172.6723
66.000000	89.174	-173.1592
67.000000	89.151	-173.6296
68.000000	89.127	-174.0730
69.000000	89.103	-174.4968
70.000000	89.082	-174.9289
71.000000	89.058	-175.3704
72.000000	89.031	-175.7950
73.000000	89.003	-176.1911
74.000000	88.979	-176.5654
75.000000	88.958	-176.9369
76.199997	88.934	-177.4040
77.500000	88.903	-177.9169
78.800003	88.868	-178.3992
80.000000	88.835	-178.8214
81.199997	88.801	-179.2323
82.500000	88.764	-179.6612
83.800003	88.729	179.9233
85.000000	88.698	179.5475
86.199997	88.667	179.1767
87.500000	88.630	178.7844
88.500000	88.599	178.4958
90.000000	88.551	178.0843
91.199997	88.512	177.7704
92.500000	88.472	177.4594
93.800003	88.440	177.1819
95.000000	88.415	176.9396
96.199997	88.391	176.7051
97.500000	88.361	176.4678
98.800003	88.330	176.2372
100.000000	88.299	175.9910
101.500000	88.255	175.6159
103.000000	88.204	175.2218
104.400002	88.158	174.8820
106.000000	88.110	174.5436
107.500000	88.071	174.2661
109.000000	88.030	174.0128
110.599998	87.983	173.7684
112.000000	87.939	173.5753
113.800003	87.883	173.3434
115.000000	87.848	173.1823
117.199997	87.784	172.8486
118.000000	87.758	172.7309
120.599998	87.675	172.4254
122.000000	87.635	172.2657
124.099998	87.578	171.9983
125.000000	87.553	171.8873
126.500000	87.513	171.7167
128.000000	87.474	171.5605
131.500000	87.376	171.2392
132.000000	87.362	171.1978
134.000000	87.303	171.0425
136.000000	87.244	170.9070
138.000000	87.188	170.7985
140.000000	87.133	170.7244
143.000000	87.054	170.6711
145.000000	87.004	170.6351
147.500000	86.941	170.5720
150.000000	86.878	170.5184
152.500000	86.815	170.5123
155.000000	86.755	170.5518
157.500000	86.706	170.5964
160.000000	86.669	170.6013
162.500000	86.636	170.5546
165.000000	86.598	170.5151
167.500000	86.557	170.5364
170.000000	86.522	170.5979
172.500000	86.490	170.6702
175.000000	86.461	170.7366
177.500000	86.435	170.7816
180.000000	86.412	170.7835
182.500000	86.383	170.7278
185.000000	86.344	170.6400
187.500000	86.300	170.5423
190.000000	86.255	170.4503
192.500000	86.210	170.3810
195.000000	86.166	170.3369
197.500000	86.122	170.3053
200.000000	86.079	170.2716
203.000000	86.026	170.2295
206.000000	85.971	170.2044
209.000000	85.917	170.2056
212.000000	85.865	170.2268
214.000000	85.831	170.2498
218.000000	85.765	170.3222
220.000000	85.732	170.3720
224.000000	85.669	170.4792
227.000000	85.623	170.5563
230.000000	85.577	170.6378
233.000000	85.531	170.7275
236.000000	85.485	170.8235
240.000000	85.426	170.9624
243.000000	85.383	171.0759
247.000000	85.328	171.2384
250.000000	85.286	171.3680
254.000000	85.230	171.5497
258.000000	85.174	171.7401
262.000000	85.119	171.9388
265.000000	85.080	172.0932
269.000000	85.029	172.3093
272.000000	84.991	172.4807
276.000000	84.941	172.7235
280.000000	84.893	172.9886
285.000000	84.836	173.3511
290.000000	84.786	173.7348
295.000000	84.747	174.1243
300.000000	84.717	174.4830
304.000000	84.697	174.7235
307.000000	84.682	174.8759
311.000000	84.658	175.0574
315.000000	84.631	175.2355
320.000000	84.594	175.4699
325.000000	84.556	175.7175
330.000000	84.517	175.9781
335.000000	84.478	176.2497
340.000000	84.439	176.5289
345.000000	84.399	176.8157
350.000000	84.361	177.1122
355.000000	84.324	177.4178
360.000000	84.290	177.7272
365.000000	84.257	178.0364
370.000000	84.225	178.3470
375.000000	84.193	178.6630
382.000000	84.151	179.1158
387.000000	84.124	179.4464
395.000000	84.082	179.9854
400.000000	84.058	-179.6779
406.000000	84.029	-179.2785
412.000000	84.002	-178.8770
418.000000	83.977	-178.4704
425.000000	83.950	-177.9922
431.000000	83.928	-177.5799
437.000000	83.907	-177.1690
444.000000	83.884	-176.6964
450.000000	83.864	-176.2973
455.000000	83.849	-175.9654
462.000000	83.830	-175.4934
468.000000	83.814	-175.0792
475.000000	83.798	-174.5932
482.000000	83.782	-174.1121
487.000000	83.770	-173.7712
494.000000	83.756	-173.2976
500.000000	83.745	-172.8934
508.000000	83.731	-172.3546
515.000000	83.721	-171.8866
522.000000	83.712	-171.4210
530.000000	83.704	-170.8872
538.000000	83.698	-170.3505
545.000000	83.693	-169.8814
552.000000	83.688	-169.4159
560.000000	83.684	-168.8867
570.000000	83.681	-168.2274
580.000000	83.679	-167.5684
590.000000	83.681	-166.9127
600.000000	83.685	-166.2646
608.000000	83.688	-165.7470
615.000000	83.691	-165.2899
622.000000	83.695	-164.8271
630.000000	83.700	-164.2941
640.000000	83.708	-163.6299
650.000000	83.718	-162.9746
660.000000	83.730	-162.3228
670.000000	83.743	-161.6597
680.000000	83.759	-160.9856
690.000000	83.776	-160.3129
700.000000	83.795	-159.6454
710.000000	83.815	-158.9792
720.000000	83.836	-158.3151
730.000000	83.860	-157.6563
740.000000	83.888	-157.0029
750.000000	83.919	-156.3513
762.000000	83.959	-155.5673
775.000000	84.005	-154.7183
788.000000	84.056	-153.8760
800.000000	84.107	-153.1083
812.000000	84.160	-152.3477
825.000000	84.221	-151.5279
838.000000	84.286	-150.7127
850.000000	84.350	-149.9694
862.000000	84.418	-149.2413
875.000000	84.496	-148.4732
885.000000	84.558	-147.8963
900.000000	84.656	-147.0591
912.000000	84.738	-146.4220
925.000000	84.833	-145.7748
938.000000	84.931	-145.1877
950.000000	85.020	-144.7148
962.000000	85.103	-144.3154
975.000000	85.175	-143.9384
988.000000	85.224	-143.5203
1000.000000	85.256	-142.9763
1015.000000	85.313	-142.0349
1030.000000	85.415	-140.9909
1044.000000	85.543	-140.1255
1060.000000	85.700	-139.3249
1075.000000	85.845	-138.7008
1090.000000	85.986	-138.1475
1106.000000	86.134	-137.6172
1120.000000	86.263	-137.1984
1138.000000	86.426	-136.7130
1150.000000	86.532	-136.4185
1172.000000	86.724	-135.9269
1180.000000	86.792	-135.7615
1206.000000	87.012	-135.2704
1220.000000	87.127	-135.0324
1241.000000	87.298	-134.7045
1250.000000	87.370	-134.5741
1265.000000	87.489	-134.3690
1280.000000	87.607	-134.1774
1315.000000	87.877	-133.7833
1320.000000	87.915	-133.7329
1340.000000	88.066	-133.5420
1360.000000	88.216	-133.3645
1380.000000	88.365	-133.2014
1400.000000	88.512	-133.0537
1430.000000	88.730	-132.8576
1450.000000	88.876	-132.7438
1475.000000	89.057	-132.6241
1500.000000	89.238	-132.5296
1525.000000	89.419	-132.4571
1550.000000	89.601	-132.4072
1575.000000	89.783	-132.3843
1600.000000	89.966	-132.3933
1625.000000	90.151	-132.4353
1650.000000	90.335	-132.5098
1675.000000	90.521	-132.6198
1700.000000	90.707	-132.7678
1725.000000	90.894	-132.9565
1750.000000	91.081	-133.1890
1775.000000	91.270	-133.4683
1800.000000	91.458	-133.7964
1825.000000	91.646	-134.1752
1850.000000	91.833	-134.6074
1875.000000	92.019	-135.0969
1900.000000	92.204	-135.6465
1925.000000	92.387	-136.2569
1950.000000	92.567	-136.9286
1975.000000	92.745	-137.6626
2000.000000	92.920	-138.4609
2030.000000	93.125	-139.5081
2060.000000	93.323	-140.6578
2090.000000	93.514	-141.9149
2120.000000	93.696	-143.2854
2140.000000	93.811	-144.2654
2180.000000	94.024	-146.3907
2200.000000	94.120	-147.5377
2240.000000	94.288	-149.9983
2270.000000	94.388	-151.9766
2300.000000	94.464	-154.0453
2330.000000	94.512	-156.1758
2360.000000	94.532	-158.3360
2400.000000	94.518	-161.2045
2430.000000	94.479	-163.3091
2470.000000	94.393	-166.0102
2500.000000	94.307	-167.9356
2540.000000	94.168	-170.3440
2580.000000	94.007	-172.5551
2620.000000	93.828	-174.5641
2650.000000	93.685	-175.9386
2690.000000	93.487	-177.5991
2720.000000	93.336	-178.7209
2760.000000	93.132	179.9417
2800.000000	92.928	178.7777
2850.000000	92.675	177.5483
2900.000000	92.428	176.5436
2950.000000	92.190	175.7371
3000.000000	91.963	175.1008
3040.000000	91.791	174.6992
3070.000000	91.667	174.4556
3110.000000	91.508	174.2014
3150.000000	91.357	174.0194
3200.000000	91.180	173.8774
3250.000000	91.016	173.8132
3300.000000	90.865	173.8129
3350.000000	90.726	173.8703
3400.000000	90.599	173.9848
3450.000000	90.484	174.1512
3500.000000	90.381	174.3560
3550.000000	90.291	174.5847
3600.000000	90.216	174.8230
3650.000000	90.155	175.0522
3700.000000	90.102	175.2546
3750.000000	90.057	175.4258
3820.000000	89.999	175.6340
3870.000000	89.962	175.7815
3950.000000	89.917	176.0364
4000.000000	89.900	176.1960
4060.000000	89.892	176.3570
4120.000000	89.895	176.4591
4180.000000	89.904	176.4890
4250.000000	89.920	176.4303
4310.000000	89.936	176.3046
4370.000000	89.951	176.1146
4440.000000	89.966	175.8179
4500.000000	89.976	175.5035
4550.000000	89.980	175.2025
4620.000000	89.980	174.7304
4680.000000	89.973	174.2875
4750.000000	89.955	173.7390
4820.000000	89.926	173.1754
4870.000000	89.898	172.7753
4940.000000	89.849	172.2318
5000.000000	89.798	171.7935
5080.000000	89.720	171.2740
5150.000000	89.647	170.8981
5220.000000	89.573	170.5999
5300.000000	89.495	170.3442
5380.000000	89.430	170.1447
5450.000000	89.390	169.9625
5520.000000	89.366	169.7039
5600.000000	89.352	169.2189
5700.000000	89.331	168.1999
5800.000000	89.259	166.7115
5900.000000	89.095	164.9849
6000.000000	88.827	163.3924
6080.000000	88.551	162.4016
6150.000000	88.274	161.8150
6220.000000	87.975	161.5433
6300.000000	87.622	161.6369
6400.000000	87.190	162.2825
6500.000000	86.785	163.3919
6600.000000	86.417	164.8638
6700.000000	86.092	166.6133
6800.000000	85.813	168.5695
6900.000000	85.578	170.6772
7000.000000	85.390	172.8938
7100.000000	85.247	175.1827
7200.000000	85.152	177.5094
7300.000000	85.105	179.8360
7400.000000	85.107	-177.8783
7500.000000	85.154	-175.6651
7620.000000	85.270	-173.1344
7750.000000	85.473	-170.5920
7880.000000	85.762	-168.3372
8000.000000	86.110	-166.6069
8120.000000	86.540	-165.3316
8250.000000	87.089	-164.6590
8380.000000	87.706	-164.9819
8500.000000	88.305	-166.4162
8620.000000	88.884	-169.1710
8750.000000	89.417	-173.8021
8850.000000	89.706	-178.4902
9000.000000	89.860	173.1113
9120.000000	89.698	165.9352
9250.000000	89.234	158.6479
9380.000000	88.510	152.6525
9500.000000	87.675	148.6527
9620.000000	86.750	146.1708
9750.000000	85.725	144.9387
9880.000000	84.727	144.8476
10000.000000	83.848	145.5905
10150.000000	82.825	147.4677
10300.000000	81.909	150.1562
10440.000000	81.157	153.1874
10600.000000	80.419	157.0895
10750.000000	79.837	161.0496
10900.000000	79.355	165.2170
11060.000000	78.945	169.8324
11200.000000	78.667	173.9709
11380.000000	78.417	179.3608
11500.000000	78.315	-177.0399
11720.000000	78.261	-170.5085
11800.000000	78.284	-168.1738
12060.000000	78.516	-160.8449
12200.000000	78.742	-157.1476
12410.000000	79.214	-152.1119
12500.000000	79.461	-150.1996
12650.000000	79.923	-147.4138
12800.000000	80.434	-145.1757
13150.000000	81.807	-142.0479
13200.000000	82.032	-141.8368
13400.000000	83.032	-141.8107
13600.000000	84.147	-143.9433
13800.000000	85.177	-149.6039
14000.000000	85.833	-159.2460
14300.000000	85.686	-177.2635
14500.000000	84.831	172.6339
14750.000000	83.207	165.0852
15000.000000	81.373	162.6986
15250.000000	79.672	163.6210
15500.000000	78.285	166.2271
15750.000000	77.250	169.4586
16000.000000	76.532	172.6261
16250.000000	76.064	175.2386
16500.000000	75.773	176.8337
16750.000000	75.536	176.9907
17000.000000	75.181	175.9837
17250.000000	74.571	175.1531
17500.000000	73.716	176.5070
17750.000000	72.929	-179.1552
18000.000000	72.644	-174.4255
18250.000000	72.713	-172.9752
18500.000000	72.602	-174.9720
18750.000000	72.083	-177.8751
19000.000000	71.229	-179.7406
19250.000000	70.211	179.8026
19500.000000	69.200	-179.7907
19750.000000	68.355	-179.2077
20000.000000	67.839	-178.8478
