* Measurement data measured by REW V5.20.13
* Source: Microphone (USB Sound Device        ), MICROPHONE (Master Volume), L, volume: 0.250
* Format: 128k Log Swept Sine, 1 sweep at -12.0 dBFS with no timing reference
* Dated: Nov 16, 2023 12:36:52 AM
* REW Settings:
*  C-weighting compensation: Off
*  Target level: 75.0 dB
* Note: 
* Measurement: TIN C0 L
* Smoothing: 1/12 octave
* Frequency Step: 1/48 octave
* Start Frequency: 20.000 Hz
*
* Freq(Hz)	SPL(dB)	Phase(degrees)
20.000000	85.380	-133.0202
20.299999	85.391	-133.8743
20.600000	85.406	-134.7518
20.900000	85.429	-135.6459
21.200001	85.458	-136.5507
21.400000	85.482	-137.1562
21.799999	85.536	-138.3610
22.000000	85.567	-138.9517
22.400000	85.632	-140.0882
22.700001	85.685	-140.8854
23.000000	85.739	-141.6259
23.299999	85.796	-142.3112
23.600000	85.853	-142.9467
24.000000	85.928	-143.7266
24.299999	85.980	-144.2666
24.700001	86.042	-144.9305
25.000000	86.083	-145.3896
25.400000	86.129	-145.9589
25.799999	86.165	-146.4972
26.200001	86.193	-147.0248
26.500000	86.208	-147.4232
26.900000	86.221	-147.9658
27.200001	86.227	-148.3848
27.600000	86.230	-148.9622
28.000000	86.229	-149.5603
28.500000	86.226	-150.3300
29.000000	86.226	-151.1120
29.500000	86.234	-151.9016
30.000000	86.252	-152.7031
30.400000	86.273	-153.3542
30.700001	86.290	-153.8455
31.100000	86.315	-154.4952
31.500000	86.339	-155.1268
32.000000	86.368	-155.8723
32.500000	86.394	-156.5549
33.000000	86.417	-157.1720
33.500000	86.437	-157.7344
34.000000	86.454	-158.2605
34.500000	86.466	-158.7664
35.000000	86.474	-159.2595
35.500000	86.479	-159.7454
36.000000	86.482	-160.2358
36.500000	86.485	-160.7480
37.000000	86.486	-161.2933
37.500000	86.485	-161.8653
38.200001	86.479	-162.6722
38.700001	86.474	-163.2335
39.500000	86.467	-164.1097
40.000000	86.462	-164.6437
40.599998	86.454	-165.2484
41.200001	86.444	-165.7928
41.799999	86.438	-166.2903
42.500000	86.435	-166.8557
43.099998	86.432	-167.3468
43.700001	86.427	-167.8390
44.400002	86.420	-168.4130
45.000000	86.410	-168.9039
45.500000	86.399	-169.2956
46.200001	86.383	-169.7830
46.799999	86.378	-170.1499
47.500000	86.385	-170.5998
48.200001	86.396	-171.1455
48.700001	86.396	-171.5824
49.400002	86.382	-172.1900
50.000000	86.360	-172.6592
50.799999	86.326	-173.2010
51.500000	86.298	-173.6256
52.200001	86.272	-174.0359
53.000000	86.244	-174.5060
53.799999	86.215	-174.9655
54.500000	86.192	-175.3458
55.200001	86.174	-175.7232
56.000000	86.158	-176.1944
57.000000	86.135	-176.8570
58.000000	86.100	-177.5256
59.000000	86.060	-178.1337
60.000000	86.022	-178.6781
60.799999	85.994	-179.0872
61.500000	85.970	-179.4349
62.200001	85.945	-179.7719
63.000000	85.913	179.8581
64.000000	85.870	179.4104
65.000000	85.825	178.9559
66.000000	85.778	178.4697
67.000000	85.728	177.9626
68.000000	85.676	177.4713
69.000000	85.627	177.0098
70.000000	85.577	176.5776
71.000000	85.521	176.1820
72.000000	85.461	175.8148
73.000000	85.397	175.4341
74.000000	85.329	175.0021
75.000000	85.256	174.5287
76.199997	85.164	173.9555
77.500000	85.060	173.3959
78.800003	84.941	172.9832
80.000000	84.809	172.7310
81.199997	84.645	172.5553
82.500000	84.432	172.4301
83.800003	84.202	172.3759
85.000000	83.991	172.4695
86.199997	83.784	172.9053
87.500000	83.565	174.0786
88.500000	83.406	175.6103
90.000000	83.212	178.9092
91.199997	83.161	-177.9337
92.500000	83.296	-174.7252
93.800003	83.664	-172.5545
95.000000	84.163	-171.9016
96.199997	84.732	-172.4166
97.500000	85.335	-173.8363
98.800003	85.810	-175.7920
100.000000	86.028	-177.6296
101.500000	86.013	-179.0604
103.000000	85.857	-179.5820
104.400002	85.693	179.9688
106.000000	85.530	179.1042
107.500000	85.425	178.1035
109.000000	85.370	177.2007
110.599998	85.347	176.4557
112.000000	85.334	175.9050
113.800003	85.306	175.1465
115.000000	85.273	174.5604
117.199997	85.175	173.5766
118.000000	85.133	173.3250
120.599998	85.007	172.8240
122.000000	84.945	172.6129
124.099998	84.862	172.2427
125.000000	84.831	172.0729
126.500000	84.785	171.8162
128.000000	84.744	171.6193
131.500000	84.650	171.3032
132.000000	84.636	171.2607
134.000000	84.583	171.0776
136.000000	84.533	170.8900
138.000000	84.488	170.7317
140.000000	84.449	170.5758
143.000000	84.392	170.2596
145.000000	84.348	170.0286
147.500000	84.288	169.7660
150.000000	84.227	169.5400
152.500000	84.169	169.3487
155.000000	84.112	169.1876
157.500000	84.055	169.0597
160.000000	83.997	168.9489
162.500000	83.937	168.8400
165.000000	83.874	168.7407
167.500000	83.811	168.6615
170.000000	83.753	168.5834
172.500000	83.698	168.4969
175.000000	83.643	168.4270
177.500000	83.587	168.3963
180.000000	83.532	168.3976
182.500000	83.480	168.4114
185.000000	83.431	168.4208
187.500000	83.384	168.4247
190.000000	83.338	168.4265
192.500000	83.292	168.4287
195.000000	83.248	168.4413
197.500000	83.205	168.4700
200.000000	83.161	168.5073
203.000000	83.108	168.5470
206.000000	83.054	168.5766
209.000000	83.001	168.6074
212.000000	82.950	168.6508
214.000000	82.918	168.6885
218.000000	82.854	168.7820
220.000000	82.823	168.8367
224.000000	82.760	168.9605
227.000000	82.714	169.0632
230.000000	82.669	169.1720
233.000000	82.625	169.2841
236.000000	82.581	169.3970
240.000000	82.525	169.5568
243.000000	82.485	169.6849
247.000000	82.431	169.8524
250.000000	82.393	169.9711
254.000000	82.344	170.1234
258.000000	82.299	170.2742
262.000000	82.253	170.4289
265.000000	82.218	170.5519
269.000000	82.170	170.7314
272.000000	82.136	170.8738
276.000000	82.092	171.0588
280.000000	82.051	171.2379
285.000000	82.002	171.4739
290.000000	81.954	171.7203
295.000000	81.907	171.9724
300.000000	81.861	172.2268
304.000000	81.826	172.4298
307.000000	81.801	172.5824
311.000000	81.768	172.7867
315.000000	81.734	172.9911
320.000000	81.690	173.2514
325.000000	81.648	173.5244
330.000000	81.609	173.8028
335.000000	81.573	174.0729
340.000000	81.537	174.3340
345.000000	81.503	174.5977
350.000000	81.470	174.8730
355.000000	81.438	175.1539
360.000000	81.408	175.4319
365.000000	81.379	175.7070
370.000000	81.352	175.9818
375.000000	81.325	176.2569
382.000000	81.286	176.6512
387.000000	81.258	176.9346
395.000000	81.216	177.3792
400.000000	81.192	177.6535
406.000000	81.164	177.9785
412.000000	81.139	178.3028
418.000000	81.114	178.6337
425.000000	81.084	179.0308
431.000000	81.059	179.3723
437.000000	81.034	179.7081
444.000000	81.007	-179.9048
450.000000	80.985	-179.5703
455.000000	80.969	-179.2904
462.000000	80.947	-178.8995
468.000000	80.928	-178.5624
475.000000	80.906	-178.1638
482.000000	80.886	-177.7639
487.000000	80.873	-177.4814
494.000000	80.857	-177.0903
500.000000	80.844	-176.7565
508.000000	80.826	-176.3077
515.000000	80.812	-175.9101
522.000000	80.798	-175.5118
530.000000	80.783	-175.0609
538.000000	80.768	-174.6127
545.000000	80.757	-174.2202
552.000000	80.747	-173.8293
560.000000	80.737	-173.3848
570.000000	80.724	-172.8248
580.000000	80.711	-172.2505
590.000000	80.701	-171.6654
600.000000	80.695	-171.0891
608.000000	80.691	-170.6378
615.000000	80.689	-170.2444
622.000000	80.687	-169.8475
630.000000	80.686	-169.3904
640.000000	80.688	-168.8158
650.000000	80.691	-168.2363
660.000000	80.694	-167.6605
670.000000	80.698	-167.0912
680.000000	80.704	-166.5261
690.000000	80.712	-165.9667
700.000000	80.721	-165.4068
710.000000	80.732	-164.8401
720.000000	80.747	-164.2682
730.000000	80.765	-163.6939
740.000000	80.785	-163.1170
750.000000	80.807	-162.5395
762.000000	80.836	-161.8560
775.000000	80.871	-161.1324
788.000000	80.909	-160.4221
800.000000	80.947	-159.7809
812.000000	80.988	-159.1442
825.000000	81.036	-158.4583
838.000000	81.087	-157.8006
850.000000	81.135	-157.2316
862.000000	81.181	-156.6959
875.000000	81.223	-156.1234
885.000000	81.250	-155.6336
900.000000	81.296	-154.7114
912.000000	81.367	-153.8849
925.000000	81.481	-153.1988
938.000000	81.584	-152.8634
950.000000	81.638	-152.6529
962.000000	81.663	-152.2765
975.000000	81.697	-151.6145
988.000000	81.761	-150.8365
1000.000000	81.841	-150.1596
1015.000000	81.956	-149.4474
1030.000000	82.075	-148.8628
1044.000000	82.186	-148.3955
1060.000000	82.310	-147.9273
1075.000000	82.425	-147.5367
1090.000000	82.539	-147.1885
1106.000000	82.657	-146.8638
1120.000000	82.758	-146.6125
1138.000000	82.886	-146.3247
1150.000000	82.969	-146.1559
1172.000000	83.116	-145.8896
1180.000000	83.169	-145.8027
1206.000000	83.335	-145.5536
1220.000000	83.423	-145.4419
1241.000000	83.550	-145.2957
1250.000000	83.603	-145.2393
1265.000000	83.689	-145.1547
1280.000000	83.773	-145.0820
1315.000000	83.961	-144.9381
1320.000000	83.987	-144.9196
1340.000000	84.090	-144.8543
1360.000000	84.189	-144.7981
1380.000000	84.286	-144.7429
1400.000000	84.380	-144.6909
1430.000000	84.517	-144.6223
1450.000000	84.606	-144.5786
1475.000000	84.716	-144.5322
1500.000000	84.824	-144.4926
1525.000000	84.932	-144.4434
1550.000000	85.038	-144.3859
1575.000000	85.146	-144.3280
1600.000000	85.255	-144.2667
1625.000000	85.366	-144.2094
1650.000000	85.480	-144.1709
1675.000000	85.597	-144.1575
1700.000000	85.714	-144.1757
1725.000000	85.830	-144.2330
1750.000000	85.945	-144.3259
1775.000000	86.057	-144.4414
1800.000000	86.168	-144.5699
1825.000000	86.279	-144.7072
1850.000000	86.389	-144.8560
1875.000000	86.498	-145.0209
1900.000000	86.606	-145.2041
1925.000000	86.714	-145.4070
1950.000000	86.821	-145.6305
1975.000000	86.927	-145.8764
2000.000000	87.032	-146.1476
2030.000000	87.158	-146.5080
2060.000000	87.281	-146.9032
2090.000000	87.402	-147.3274
2120.000000	87.520	-147.7793
2140.000000	87.597	-148.0985
2180.000000	87.745	-148.7826
2200.000000	87.817	-149.1447
2240.000000	87.956	-149.9037
2270.000000	88.054	-150.5044
2300.000000	88.148	-151.1328
2330.000000	88.236	-151.7856
2360.000000	88.319	-152.4591
2400.000000	88.420	-153.3840
2430.000000	88.487	-154.0927
2470.000000	88.567	-155.0478
2500.000000	88.618	-155.7647
2540.000000	88.675	-156.7056
2580.000000	88.722	-157.6073
2620.000000	88.759	-158.4458
2650.000000	88.783	-159.0198
2690.000000	88.816	-159.7061
2720.000000	88.845	-160.1741
2760.000000	88.896	-160.7769
2800.000000	88.960	-161.4129
2850.000000	89.051	-162.3399
2900.000000	89.134	-163.4538
2950.000000	89.195	-164.6994
3000.000000	89.230	-165.9780
3040.000000	89.243	-166.9788
3070.000000	89.245	-167.7055
3110.000000	89.240	-168.6350
3150.000000	89.228	-169.5197
3200.000000	89.204	-170.5712
3250.000000	89.172	-171.5588
3300.000000	89.134	-172.4636
3350.000000	89.093	-173.2823
3400.000000	89.054	-174.0283
3450.000000	89.019	-174.7133
3500.000000	88.989	-175.3594
3550.000000	88.964	-176.0004
3600.000000	88.942	-176.6520
3650.000000	88.919	-177.3089
3700.000000	88.893	-177.9681
3750.000000	88.864	-178.6259
3820.000000	88.817	-179.5133
3870.000000	88.780	179.8918
3950.000000	88.719	179.0014
4000.000000	88.680	178.4863
4060.000000	88.636	177.9120
4120.000000	88.595	177.3647
4180.000000	88.560	176.8256
4250.000000	88.523	176.2018
4310.000000	88.494	175.6543
4370.000000	88.465	175.0750
4440.000000	88.428	174.3643
4500.000000	88.392	173.7412
4550.000000	88.357	173.2159
4620.000000	88.300	172.4789
4680.000000	88.244	171.8611
4750.000000	88.171	171.1689
4820.000000	88.091	170.5063
4870.000000	88.029	170.0546
4940.000000	87.935	169.4635
5000.000000	87.848	168.9988
5080.000000	87.721	168.4502
5150.000000	87.599	168.0786
5220.000000	87.472	167.8676
5300.000000	87.341	167.8348
5380.000000	87.242	167.8719
5450.000000	87.173	167.8027
5520.000000	87.096	167.6392
5600.000000	86.987	167.4656
5700.000000	86.833	167.4348
5800.000000	86.681	167.6460
5900.000000	86.545	168.0433
6000.000000	86.431	168.5783
6080.000000	86.356	169.0832
6150.000000	86.305	169.5638
6220.000000	86.267	170.0695
6300.000000	86.241	170.6693
6400.000000	86.236	171.4303
6500.000000	86.263	172.1677
6600.000000	86.324	172.8438
6700.000000	86.422	173.4163
6800.000000	86.558	173.8351
6900.000000	86.731	174.0518
7000.000000	86.940	174.0082
7100.000000	87.184	173.6221
7200.000000	87.456	172.7940
7300.000000	87.746	171.4299
7400.000000	88.034	169.4479
7500.000000	88.301	166.7826
7620.000000	88.561	162.6385
7750.000000	88.720	157.0330
7880.000000	88.702	150.4579
8000.000000	88.492	143.8412
8120.000000	88.070	137.1236
8250.000000	87.362	130.3132
8380.000000	86.410	124.6348
8500.000000	85.352	120.8571
8620.000000	84.183	118.6665
8750.000000	82.870	117.9865
8850.000000	81.876	118.4769
9000.000000	80.470	120.4700
9120.000000	79.446	122.8448
9250.000000	78.446	125.9459
9380.000000	77.558	129.4371
9500.000000	76.829	132.9107
9620.000000	76.181	136.5427
9750.000000	75.558	140.5673
9880.000000	75.000	144.6654
10000.000000	74.534	148.5498
10150.000000	74.014	153.5481
10300.000000	73.565	158.6810
10440.000000	73.205	163.5862
10600.000000	72.859	169.3250
10750.000000	72.595	174.8405
10900.000000	72.388	-179.4891
11060.000000	72.228	-173.2144
11200.000000	72.147	-167.4593
11380.000000	72.147	-159.5997
11500.000000	72.239	-154.0481
11720.000000	72.708	-143.3328
11800.000000	73.002	-139.3728
12060.000000	74.432	-127.4492
12200.000000	75.399	-122.4285
12410.000000	76.872	-117.4559
12500.000000	77.470	-116.1660
12650.000000	78.412	-114.7715
12800.000000	79.321	-113.9232
13150.000000	81.599	-113.0936
13200.000000	81.961	-113.1739
13400.000000	83.483	-114.5312
13600.000000	85.025	-118.4273
13800.000000	86.387	-125.8908
14000.000000	87.352	-137.1227
14300.000000	87.754	-158.0038
14500.000000	87.317	-171.1617
14750.000000	86.201	176.2434
15000.000000	84.788	168.1810
15250.000000	83.399	163.1356
15500.000000	82.185	159.3773
15750.000000	81.126	155.8259
16000.000000	80.121	152.0908
16250.000000	79.064	148.2877
16500.000000	77.875	144.8402
16750.000000	76.507	142.4316
17000.000000	74.919	142.4688
17250.000000	73.135	147.4057
17500.000000	71.487	158.0383
17750.000000	70.553	169.1316
18000.000000	70.143	175.6013
18250.000000	69.687	179.1168
18500.000000	69.062	-177.3745
18750.000000	68.369	-172.9095
19000.000000	67.707	-167.6982
19250.000000	67.137	-162.2338
19500.000000	66.699	-157.0955
19750.000000	66.415	-152.9726
20000.000000	66.276	-150.5681
