* Measurement data measured by REW V5.20.13
* Source: Microphone (USB Sound Device        ), MICROPHONE (Master Volume), L, volume: 0.250. Timing signal peak level -27.6 dBFS, measurement signal peak level -26.2 dBFS
* Format: 128k Log Swept Sine, 1 sweep at -12.0 dBFS using an acoustic timing reference
* Dated: Jul 29, 2023 2:17:10 PM
* REW Settings:
*  C-weighting compensation: Off
*  Target level: 75.0 dB
* Note: Delay -0.0196 ms (-6.7 mm, -0.26 in) using estimated IR delay relative to Acoustic reference played from SPEAKER R with no timing offset
* Measurement: TRIPOWIN PICOLLO R
* Smoothing: 1/12 octave
* Frequency Step: 1/48 octave
* Start Frequency: 20.000 Hz
*
* Freq(Hz)	SPL(dB)	Phase(degrees)
20.000000	89.258	-142.9631
20.299999	89.306	-144.9169
20.600000	89.277	-146.8132
20.900000	89.175	-148.4088
21.200001	89.025	-149.4953
21.400000	88.921	-149.8988
21.799999	88.740	-150.0634
22.000000	88.680	-149.9365
22.400000	88.636	-149.5799
22.700001	88.647	-149.4290
23.000000	88.667	-149.4604
23.299999	88.675	-149.6075
23.600000	88.667	-149.7739
24.000000	88.638	-149.9018
24.299999	88.618	-149.9133
24.700001	88.611	-149.9165
25.000000	88.618	-150.0114
25.400000	88.630	-150.3405
25.799999	88.626	-150.8664
26.200001	88.601	-151.4718
26.500000	88.575	-151.9196
26.900000	88.543	-152.4955
27.200001	88.527	-152.9379
27.600000	88.518	-153.5854
28.000000	88.518	-154.3134
28.500000	88.521	-155.2833
29.000000	88.532	-156.2345
29.500000	88.553	-157.1399
30.000000	88.585	-158.0137
30.400000	88.609	-158.6805
30.700001	88.626	-159.1434
31.100000	88.644	-159.6864
31.500000	88.662	-160.1395
32.000000	88.688	-160.6136
32.500000	88.715	-161.0513
33.000000	88.736	-161.4988
33.500000	88.744	-161.9503
34.000000	88.739	-162.3779
34.500000	88.729	-162.7751
35.000000	88.720	-163.1695
35.500000	88.717	-163.6044
36.000000	88.717	-164.1063
36.500000	88.717	-164.6727
37.000000	88.717	-165.2795
37.500000	88.714	-165.8969
38.200001	88.710	-166.7327
38.700001	88.708	-167.2915
39.500000	88.705	-168.1114
40.000000	88.701	-168.5740
40.599998	88.692	-169.0691
41.200001	88.681	-169.5010
41.799999	88.671	-169.8955
42.500000	88.658	-170.3436
43.099998	88.647	-170.7247
43.700001	88.639	-171.1096
44.400002	88.635	-171.5903
45.000000	88.635	-172.0345
45.500000	88.636	-172.4079
46.200001	88.643	-172.9234
46.799999	88.653	-173.3853
47.500000	88.659	-173.9607
48.200001	88.651	-174.5064
48.700001	88.641	-174.8456
49.400002	88.625	-175.2816
50.000000	88.609	-175.6663
50.799999	88.575	-176.1841
51.500000	88.539	-176.5942
52.200001	88.506	-176.9747
53.000000	88.475	-177.4165
53.799999	88.450	-177.8587
54.500000	88.433	-178.2262
55.200001	88.423	-178.5811
56.000000	88.415	-178.9850
57.000000	88.402	-179.4903
58.000000	88.378	-179.9840
59.000000	88.342	179.5540
60.000000	88.301	179.1120
60.799999	88.269	178.7517
61.500000	88.244	178.4214
62.200001	88.223	178.0668
63.000000	88.198	177.6359
64.000000	88.164	177.1201
65.000000	88.129	176.6953
66.000000	88.099	176.3446
67.000000	88.070	176.0244
68.000000	88.040	175.7140
69.000000	88.007	175.3999
70.000000	87.975	175.0578
71.000000	87.943	174.6555
72.000000	87.907	174.2000
73.000000	87.866	173.7491
74.000000	87.825	173.3453
75.000000	87.788	172.9928
76.199997	87.749	172.6357
77.500000	87.715	172.3117
78.800003	87.682	172.0093
80.000000	87.648	171.7183
81.199997	87.606	171.4070
82.500000	87.556	171.0539
83.800003	87.504	170.6807
85.000000	87.456	170.3457
86.199997	87.414	170.0483
87.500000	87.375	169.7650
88.500000	87.347	169.5701
90.000000	87.304	169.2938
91.199997	87.264	169.0664
92.500000	87.212	168.8132
93.800003	87.152	168.5522
95.000000	87.093	168.3126
96.199997	87.033	168.0817
97.500000	86.970	167.8380
98.800003	86.909	167.6196
100.000000	86.859	167.4610
101.500000	86.810	167.2758
103.000000	86.768	167.0616
104.400002	86.729	166.8639
106.000000	86.681	166.6676
107.500000	86.633	166.5145
109.000000	86.583	166.3907
110.599998	86.527	166.2983
112.000000	86.476	166.2684
113.800003	86.414	166.2928
115.000000	86.375	166.3174
117.199997	86.312	166.3076
118.000000	86.290	166.2723
120.599998	86.223	166.0343
122.000000	86.186	165.8568
124.099998	86.126	165.6506
125.000000	86.101	165.6227
126.500000	86.066	165.6653
128.000000	86.045	165.7770
131.500000	86.031	165.8932
132.000000	86.029	165.8621
134.000000	86.005	165.6503
136.000000	85.965	165.4321
138.000000	85.932	165.2767
140.000000	85.912	165.1459
143.000000	85.887	164.9141
145.000000	85.857	164.7283
147.500000	85.797	164.5008
150.000000	85.727	164.2801
152.500000	85.657	164.0220
155.000000	85.589	163.7520
157.500000	85.526	163.5480
160.000000	85.467	163.4153
162.500000	85.404	163.3273
165.000000	85.340	163.2534
167.500000	85.278	163.1793
170.000000	85.219	163.1266
172.500000	85.160	163.0956
175.000000	85.098	163.0667
177.500000	85.033	163.0317
180.000000	84.968	162.9945
182.500000	84.909	162.9619
185.000000	84.853	162.9381
187.500000	84.797	162.9278
190.000000	84.739	162.9305
192.500000	84.680	162.9398
195.000000	84.622	162.9571
197.500000	84.564	162.9867
200.000000	84.511	163.0228
203.000000	84.451	163.0637
206.000000	84.393	163.1111
209.000000	84.333	163.1815
212.000000	84.270	163.2675
214.000000	84.227	163.3315
218.000000	84.142	163.4937
220.000000	84.101	163.5868
224.000000	84.023	163.7612
227.000000	83.966	163.8974
230.000000	83.911	164.0549
233.000000	83.860	164.1856
236.000000	83.811	164.2458
240.000000	83.743	164.2845
243.000000	83.688	164.3643
247.000000	83.622	164.5891
250.000000	83.583	164.8584
254.000000	83.538	165.2560
258.000000	83.484	165.5485
262.000000	83.425	165.7374
265.000000	83.382	165.8433
269.000000	83.323	165.9549
272.000000	83.279	166.0474
276.000000	83.223	166.2340
280.000000	83.169	166.4982
285.000000	83.102	166.8735
290.000000	83.036	167.2310
295.000000	82.972	167.5541
300.000000	82.908	167.8625
304.000000	82.856	168.1195
307.000000	82.818	168.3123
311.000000	82.769	168.5570
315.000000	82.723	168.7998
320.000000	82.672	169.1336
325.000000	82.628	169.5058
330.000000	82.588	169.8944
335.000000	82.548	170.2788
340.000000	82.510	170.6599
345.000000	82.467	171.0304
350.000000	82.416	171.4183
355.000000	82.358	171.8259
360.000000	82.289	172.1958
365.000000	82.215	172.5173
370.000000	82.162	172.8504
375.000000	82.148	173.2442
382.000000	82.152	173.8787
387.000000	82.140	174.2960
395.000000	82.104	174.8051
400.000000	82.085	175.1116
406.000000	82.059	175.5161
412.000000	82.027	175.9456
418.000000	81.991	176.4172
425.000000	81.943	176.9849
431.000000	81.901	177.4410
437.000000	81.862	177.8534
444.000000	81.820	178.2832
450.000000	81.786	178.6271
455.000000	81.760	178.9369
462.000000	81.731	179.4623
468.000000	81.710	179.9841
475.000000	81.687	-179.3761
482.000000	81.662	-178.7709
487.000000	81.646	-178.4013
494.000000	81.637	-177.9686
500.000000	81.647	-177.6001
508.000000	81.669	-176.9712
515.000000	81.674	-176.3131
522.000000	81.665	-175.7035
530.000000	81.655	-175.1205
538.000000	81.652	-174.5483
545.000000	81.649	-174.0060
552.000000	81.646	-173.4442
560.000000	81.643	-172.8130
570.000000	81.639	-172.0778
580.000000	81.639	-171.3763
590.000000	81.641	-170.6551
600.000000	81.651	-169.9503
608.000000	81.667	-169.3795
615.000000	81.683	-168.8693
622.000000	81.701	-168.3710
630.000000	81.723	-167.8189
640.000000	81.756	-167.1417
650.000000	81.789	-166.4738
660.000000	81.819	-165.8141
670.000000	81.849	-165.1597
680.000000	81.880	-164.5070
690.000000	81.914	-163.8643
700.000000	81.949	-163.2365
710.000000	81.988	-162.6222
720.000000	82.028	-162.0242
730.000000	82.069	-161.4393
740.000000	82.110	-160.8638
750.000000	82.154	-160.2977
762.000000	82.209	-159.6271
775.000000	82.271	-158.9073
788.000000	82.337	-158.1977
800.000000	82.400	-157.5556
812.000000	82.468	-156.9243
825.000000	82.548	-156.2665
838.000000	82.630	-155.6316
850.000000	82.705	-155.0534
862.000000	82.781	-154.4926
875.000000	82.864	-153.9121
885.000000	82.930	-153.4835
900.000000	83.030	-152.8639
912.000000	83.112	-152.3863
925.000000	83.203	-151.8882
938.000000	83.294	-151.4032
950.000000	83.379	-150.9552
962.000000	83.466	-150.5127
975.000000	83.561	-150.0590
988.000000	83.658	-149.6359
1000.000000	83.747	-149.2655
1015.000000	83.861	-148.8241
1030.000000	83.976	-148.4064
1044.000000	84.087	-148.0434
1060.000000	84.218	-147.6807
1075.000000	84.342	-147.3937
1090.000000	84.466	-147.1400
1106.000000	84.599	-146.9039
1120.000000	84.715	-146.7277
1138.000000	84.861	-146.5356
1150.000000	84.957	-146.4245
1172.000000	85.129	-146.2473
1180.000000	85.191	-146.1917
1206.000000	85.388	-146.0609
1220.000000	85.490	-146.0260
1241.000000	85.640	-146.0130
1250.000000	85.703	-146.0189
1265.000000	85.806	-146.0379
1280.000000	85.909	-146.0645
1315.000000	86.146	-146.1922
1320.000000	86.178	-146.2178
1340.000000	86.310	-146.3398
1360.000000	86.441	-146.4932
1380.000000	86.574	-146.6753
1400.000000	86.704	-146.8783
1430.000000	86.892	-147.2014
1450.000000	87.012	-147.4352
1475.000000	87.156	-147.7590
1500.000000	87.295	-148.1168
1525.000000	87.429	-148.5074
1550.000000	87.557	-148.9336
1575.000000	87.679	-149.3912
1600.000000	87.797	-149.8729
1625.000000	87.910	-150.3757
1650.000000	88.019	-150.8967
1675.000000	88.124	-151.4427
1700.000000	88.225	-152.0207
1725.000000	88.322	-152.6246
1750.000000	88.413	-153.2429
1775.000000	88.498	-153.8672
1800.000000	88.577	-154.4920
1825.000000	88.649	-155.1138
1850.000000	88.715	-155.7248
1875.000000	88.778	-156.3147
1900.000000	88.839	-156.8816
1925.000000	88.900	-157.4314
1950.000000	88.964	-157.9753
1975.000000	89.031	-158.5329
2000.000000	89.101	-159.1266
2030.000000	89.185	-159.9080
2060.000000	89.262	-160.7719
2090.000000	89.330	-161.7071
2120.000000	89.387	-162.6864
2140.000000	89.418	-163.3507
2180.000000	89.467	-164.6830
2200.000000	89.484	-165.3448
2240.000000	89.508	-166.6551
2270.000000	89.515	-167.6236
2300.000000	89.515	-168.5741
2330.000000	89.507	-169.5033
2360.000000	89.491	-170.4082
2400.000000	89.458	-171.5666
2430.000000	89.426	-172.3941
2470.000000	89.374	-173.4378
2500.000000	89.330	-174.1754
2540.000000	89.266	-175.0975
2580.000000	89.199	-175.9440
2620.000000	89.130	-176.7140
2650.000000	89.077	-177.2436
2690.000000	89.007	-177.8907
2720.000000	88.955	-178.3354
2760.000000	88.889	-178.8758
2800.000000	88.826	-179.3564
2850.000000	88.753	-179.8788
2900.000000	88.688	179.6739
2950.000000	88.631	179.2859
3000.000000	88.585	178.9397
3040.000000	88.557	178.6776
3070.000000	88.542	178.4809
3110.000000	88.529	178.2101
3150.000000	88.522	177.9229
3200.000000	88.519	177.5330
3250.000000	88.522	177.1033
3300.000000	88.527	176.6345
3350.000000	88.535	176.1343
3400.000000	88.545	175.6072
3450.000000	88.559	175.0508
3500.000000	88.578	174.4584
3550.000000	88.599	173.8216
3600.000000	88.622	173.1269
3650.000000	88.645	172.3638
3700.000000	88.666	171.5267
3750.000000	88.684	170.6137
3820.000000	88.701	169.2130
3870.000000	88.704	168.1293
3950.000000	88.687	166.2579
4000.000000	88.660	165.0106
4060.000000	88.608	163.4513
4120.000000	88.532	161.8460
4180.000000	88.430	160.2218
4250.000000	88.275	158.3440
4310.000000	88.110	156.7944
4370.000000	87.916	155.3557
4440.000000	87.657	153.8981
4500.000000	87.418	152.8917
4550.000000	87.217	152.2217
4620.000000	86.949	151.4500
4680.000000	86.730	150.8345
4750.000000	86.474	150.1082
4820.000000	86.200	149.4227
4870.000000	85.990	149.0127
4940.000000	85.679	148.6072
5000.000000	85.405	148.4351
5080.000000	85.036	148.4516
5150.000000	84.717	148.6774
5220.000000	84.404	149.0851
5300.000000	84.057	149.7588
5380.000000	83.725	150.6297
5450.000000	83.448	151.5316
5520.000000	83.186	152.5492
5600.000000	82.906	153.8376
5700.000000	82.585	155.6039
5800.000000	82.301	157.5078
5900.000000	82.054	159.5190
6000.000000	81.845	161.6023
6080.000000	81.701	163.2859
6150.000000	81.593	164.7513
6220.000000	81.498	166.1978
6300.000000	81.404	167.8156
6400.000000	81.300	169.7744
6500.000000	81.204	171.6752
6600.000000	81.109	173.5581
6700.000000	81.012	175.4962
6800.000000	80.919	177.5748
6900.000000	80.843	179.8544
7000.000000	80.801	-177.6566
7100.000000	80.811	-175.0004
7200.000000	80.885	-172.2556
7300.000000	81.030	-169.5167
7400.000000	81.246	-166.8726
7500.000000	81.534	-164.3982
7620.000000	81.977	-161.7607
7750.000000	82.578	-159.4789
7880.000000	83.300	-158.0327
8000.000000	84.057	-157.7125
8120.000000	84.868	-158.6770
8250.000000	85.736	-161.5439
8380.000000	86.491	-166.6004
8500.000000	86.983	-173.1824
8620.000000	87.195	178.8748
8750.000000	87.054	169.7703
8850.000000	86.687	163.2179
9000.000000	85.787	155.2332
9120.000000	84.854	150.8627
9250.000000	83.737	148.1239
9380.000000	82.594	147.1729
9500.000000	81.573	147.5829
9620.000000	80.620	148.9595
9750.000000	79.684	151.2465
9880.000000	78.844	154.1676
10000.000000	78.146	157.4206
10150.000000	77.384	162.2633
10300.000000	76.778	167.9166
10440.000000	76.394	173.7860
10600.000000	76.222	-179.1252
10750.000000	76.353	-172.5727
10900.000000	76.745	-166.6357
11060.000000	77.373	-161.4699
11200.000000	78.022	-158.1620
11380.000000	78.898	-155.6189
11500.000000	79.474	-154.9265
11720.000000	80.458	-155.5382
11800.000000	80.781	-156.3243
12060.000000	81.637	-160.7749
12200.000000	81.944	-164.2023
12410.000000	82.158	-170.2285
12500.000000	82.153	-172.9733
12650.000000	82.014	-177.5142
12800.000000	81.717	178.2613
13150.000000	80.517	171.0202
13200.000000	80.303	170.3621
13400.000000	79.387	168.7271
13600.000000	78.429	168.6391
13800.000000	77.494	169.9726
14000.000000	76.650	172.5337
14300.000000	75.717	177.8445
14500.000000	75.391	-178.5524
14750.000000	75.283	-175.0668
15000.000000	75.373	-173.4357
15250.000000	75.430	-173.9638
15500.000000	75.156	-174.7555
15750.000000	74.709	-172.2234
16000.000000	74.780	-168.3636
16250.000000	75.268	-168.1785
16500.000000	75.597	-172.0647
16750.000000	75.531	-177.7889
17000.000000	75.060	176.7696
17250.000000	74.265	172.9771
17500.000000	73.270	171.3511
17750.000000	72.207	171.7223
18000.000000	71.179	173.6641
18250.000000	70.259	176.7499
18500.000000	69.505	-179.4641
18750.000000	68.966	-175.5290
19000.000000	68.689	-172.1422
19250.000000	68.679	-170.0712
19500.000000	68.870	-169.8513
19750.000000	69.125	-171.1830
20000.000000	69.302	-172.6408
