* Measurement data measured by REW V5.20.13
* Source: Microphone (USB Sound Device        ), MICROPHONE (Master Volume), L, volume: 0.250
* Format: 128k Log Swept Sine, 1 sweep at -12.0 dBFS with no timing reference
* Dated: Sep 16, 2023 2:08:22 PM
* REW Settings:
*  C-weighting compensation: Off
*  Target level: 75.0 dB
* Note: 
* Measurement: UM INDIGO R
* Smoothing: 1/12 octave
* Frequency Step: 1/48 octave
* Start Frequency: 20.000 Hz
*
* Freq(Hz)	SPL(dB)	Phase(degrees)
20.000000	93.825	-172.9397
20.299999	93.836	-173.6502
20.600000	93.847	-174.4371
20.900000	93.852	-175.2590
21.200001	93.851	-176.0625
21.400000	93.848	-176.5657
21.799999	93.845	-177.4855
22.000000	93.846	-177.9057
22.400000	93.854	-178.6931
22.700001	93.863	-179.2567
23.000000	93.868	-179.7968
23.299999	93.868	179.7098
23.600000	93.863	179.2869
24.000000	93.855	178.8516
24.299999	93.856	178.6016
24.700001	93.869	178.2982
25.000000	93.886	178.0280
25.400000	93.909	177.5508
25.799999	93.917	176.9406
26.200001	93.900	176.2659
26.500000	93.873	175.7709
26.900000	93.825	175.1667
27.200001	93.787	174.7557
27.600000	93.742	174.2328
28.000000	93.704	173.6908
28.500000	93.664	172.9474
29.000000	93.625	172.1512
29.500000	93.590	171.3470
30.000000	93.560	170.5524
30.400000	93.540	169.9187
30.700001	93.527	169.4456
31.100000	93.506	168.8348
31.500000	93.484	168.2717
32.000000	93.457	167.6631
32.500000	93.436	167.1465
33.000000	93.424	166.6625
33.500000	93.414	166.1614
34.000000	93.398	165.6385
34.500000	93.372	165.1249
35.000000	93.339	164.6412
35.500000	93.305	164.1742
36.000000	93.270	163.6932
36.500000	93.233	163.1853
37.000000	93.190	162.6685
37.500000	93.144	162.1721
38.200001	93.085	161.5290
38.700001	93.050	161.0844
39.500000	93.006	160.3499
40.000000	92.981	159.8814
40.599998	92.951	159.3263
41.200001	92.923	158.7785
41.799999	92.893	158.2332
42.500000	92.850	157.6223
43.099998	92.808	157.1495
43.700001	92.767	156.7206
44.400002	92.723	156.2360
45.000000	92.685	155.8088
45.500000	92.653	155.4440
46.200001	92.606	154.9238
46.799999	92.564	154.4691
47.500000	92.511	153.9422
48.200001	92.459	153.4387
48.700001	92.426	153.0844
49.400002	92.384	152.5579
50.000000	92.348	152.0621
50.799999	92.296	151.3679
51.500000	92.244	150.7756
52.200001	92.192	150.2236
53.000000	92.138	149.6406
53.799999	92.090	149.0765
54.500000	92.050	148.5839
55.200001	92.006	148.1166
56.000000	91.954	147.6471
57.000000	91.893	147.1370
58.000000	91.834	146.6485
59.000000	91.771	146.1551
60.000000	91.704	145.6601
60.799999	91.648	145.2658
61.500000	91.599	144.9182
62.200001	91.551	144.5655
63.000000	91.496	144.1606
64.000000	91.428	143.6618
65.000000	91.364	143.1671
66.000000	91.300	142.6687
67.000000	91.234	142.1772
68.000000	91.167	141.7069
69.000000	91.101	141.2556
70.000000	91.038	140.8088
71.000000	90.976	140.3586
72.000000	90.916	139.9105
73.000000	90.857	139.4714
74.000000	90.799	139.0373
75.000000	90.742	138.5990
76.199997	90.673	138.0699
77.500000	90.595	137.5127
78.800003	90.519	136.9852
80.000000	90.452	136.5235
81.199997	90.387	136.0804
82.500000	90.316	135.6257
83.800003	90.245	135.1951
85.000000	90.176	134.8145
86.199997	90.105	134.4478
87.500000	90.030	134.0527
88.500000	89.972	133.7397
90.000000	89.886	133.2611
91.199997	89.816	132.8885
92.500000	89.741	132.5020
93.800003	89.664	132.1250
95.000000	89.592	131.7812
96.199997	89.518	131.4451
97.500000	89.439	131.0991
98.800003	89.367	130.7803
100.000000	89.308	130.4935
101.500000	89.243	130.1194
103.000000	89.177	129.7417
104.400002	89.113	129.4010
106.000000	89.035	129.0256
107.500000	88.962	128.6838
109.000000	88.892	128.3474
110.599998	88.820	127.9937
112.000000	88.757	127.6912
113.800003	88.674	127.3141
115.000000	88.619	127.0662
117.199997	88.521	126.6048
118.000000	88.487	126.4348
120.599998	88.386	125.8920
122.000000	88.333	125.6142
124.099998	88.249	125.2180
125.000000	88.211	125.0507
126.500000	88.146	124.7690
128.000000	88.080	124.4844
131.500000	87.936	123.8577
132.000000	87.917	123.7754
134.000000	87.844	123.4613
136.000000	87.772	123.1628
138.000000	87.699	122.8685
140.000000	87.627	122.5754
143.000000	87.522	122.1420
145.000000	87.451	121.8582
147.500000	87.360	121.5033
150.000000	87.271	121.1387
152.500000	87.185	120.7719
155.000000	87.101	120.4392
157.500000	87.020	120.1404
160.000000	86.944	119.8391
162.500000	86.871	119.5255
165.000000	86.801	119.2207
167.500000	86.734	118.9461
170.000000	86.671	118.6952
172.500000	86.606	118.4415
175.000000	86.536	118.1782
177.500000	86.464	117.9192
180.000000	86.395	117.6770
182.500000	86.331	117.4442
185.000000	86.268	117.1969
187.500000	86.204	116.9231
190.000000	86.140	116.6343
192.500000	86.079	116.3488
195.000000	86.023	116.0769
197.500000	85.971	115.8264
200.000000	85.923	115.5997
203.000000	85.867	115.3405
206.000000	85.812	115.0728
209.000000	85.758	114.7963
212.000000	85.704	114.5259
214.000000	85.669	114.3517
218.000000	85.601	114.0096
220.000000	85.567	113.8414
224.000000	85.501	113.5099
227.000000	85.452	113.2592
230.000000	85.404	113.0045
233.000000	85.358	112.7531
236.000000	85.314	112.5128
240.000000	85.257	112.2062
243.000000	85.214	111.9803
247.000000	85.157	111.6849
250.000000	85.115	111.4711
254.000000	85.063	111.1961
258.000000	85.014	110.9369
262.000000	84.968	110.6907
265.000000	84.938	110.5050
269.000000	84.902	110.2562
272.000000	84.879	110.0773
276.000000	84.855	109.8474
280.000000	84.836	109.6146
285.000000	84.820	109.2964
290.000000	84.807	108.9266
295.000000	84.794	108.4977
300.000000	84.783	108.0306
304.000000	84.775	107.6545
307.000000	84.767	107.3758
311.000000	84.754	107.0171
315.000000	84.739	106.6732
320.000000	84.720	106.2488
325.000000	84.702	105.8310
330.000000	84.685	105.4209
335.000000	84.672	105.0129
340.000000	84.661	104.6052
345.000000	84.652	104.1908
350.000000	84.642	103.7739
355.000000	84.632	103.3656
360.000000	84.625	102.9632
365.000000	84.619	102.5621
370.000000	84.617	102.1605
375.000000	84.617	101.7563
382.000000	84.619	101.1864
387.000000	84.620	100.7831
395.000000	84.625	100.1441
400.000000	84.631	99.7379
406.000000	84.639	99.2386
412.000000	84.648	98.7332
418.000000	84.657	98.2315
425.000000	84.666	97.6621
431.000000	84.675	97.1886
437.000000	84.685	96.7203
444.000000	84.700	96.1673
450.000000	84.715	95.6846
455.000000	84.726	95.2784
462.000000	84.741	94.7087
468.000000	84.751	94.2231
475.000000	84.761	93.6606
482.000000	84.774	93.1024
487.000000	84.786	92.7079
494.000000	84.807	92.1649
500.000000	84.828	91.7072
508.000000	84.856	91.1003
515.000000	84.880	90.5723
522.000000	84.904	90.0549
530.000000	84.932	89.4725
538.000000	84.961	88.8847
545.000000	84.987	88.3667
552.000000	85.013	87.8555
560.000000	85.043	87.2883
570.000000	85.080	86.6078
580.000000	85.115	85.9631
590.000000	85.149	85.3505
600.000000	85.182	84.7541
608.000000	85.209	84.2849
615.000000	85.234	83.8865
622.000000	85.260	83.5018
630.000000	85.290	83.0757
640.000000	85.328	82.5563
650.000000	85.366	82.0493
660.000000	85.407	81.5511
670.000000	85.451	81.0594
680.000000	85.495	80.5780
690.000000	85.539	80.1093
700.000000	85.582	79.6555
710.000000	85.627	79.2331
720.000000	85.678	78.8561
730.000000	85.740	78.5048
740.000000	85.812	78.1402
750.000000	85.890	77.7385
762.000000	85.985	77.2033
775.000000	86.089	76.5690
788.000000	86.195	75.8893
800.000000	86.290	75.2245
812.000000	86.382	74.5316
825.000000	86.474	73.7647
838.000000	86.558	72.9898
850.000000	86.628	72.2695
862.000000	86.692	71.5449
875.000000	86.755	70.7549
885.000000	86.801	70.1476
900.000000	86.864	69.2528
912.000000	86.910	68.5586
925.000000	86.957	67.8225
938.000000	87.002	67.0945
950.000000	87.042	66.4270
962.000000	87.081	65.7631
975.000000	87.121	65.0467
988.000000	87.160	64.3353
1000.000000	87.195	63.6879
1015.000000	87.239	62.8928
1030.000000	87.280	62.1077
1044.000000	87.315	61.3807
1060.000000	87.352	60.5583
1075.000000	87.384	59.7977
1090.000000	87.414	59.0496
1106.000000	87.443	58.2679
1120.000000	87.465	57.5950
1138.000000	87.491	56.7357
1150.000000	87.506	56.1645
1172.000000	87.529	55.1278
1180.000000	87.535	54.7571
1206.000000	87.548	53.5904
1220.000000	87.549	52.9917
1241.000000	87.545	52.1271
1250.000000	87.541	51.7661
1265.000000	87.534	51.1755
1280.000000	87.524	50.5995
1315.000000	87.494	49.3150
1320.000000	87.489	49.1393
1340.000000	87.468	48.4619
1360.000000	87.446	47.8265
1380.000000	87.423	47.2285
1400.000000	87.400	46.6614
1430.000000	87.368	45.8564
1450.000000	87.348	45.3496
1475.000000	87.324	44.7569
1500.000000	87.298	44.2149
1525.000000	87.271	43.7209
1550.000000	87.243	43.2671
1575.000000	87.215	42.8462
1600.000000	87.190	42.4560
1625.000000	87.167	42.0941
1650.000000	87.147	41.7542
1675.000000	87.132	41.4333
1700.000000	87.119	41.1321
1725.000000	87.110	40.8477
1750.000000	87.105	40.5746
1775.000000	87.103	40.3092
1800.000000	87.105	40.0501
1825.000000	87.111	39.7979
1850.000000	87.119	39.5517
1875.000000	87.129	39.3074
1900.000000	87.142	39.0613
1925.000000	87.157	38.8117
1950.000000	87.175	38.5565
1975.000000	87.196	38.2915
2000.000000	87.220	38.0144
2030.000000	87.251	37.6652
2060.000000	87.283	37.2954
2090.000000	87.318	36.9050
2120.000000	87.354	36.4950
2140.000000	87.379	36.2099
2180.000000	87.431	35.6036
2200.000000	87.458	35.2779
2240.000000	87.515	34.5753
2270.000000	87.559	34.0033
2300.000000	87.604	33.3933
2330.000000	87.649	32.7454
2360.000000	87.695	32.0600
2400.000000	87.755	31.0868
2430.000000	87.800	30.3079
2470.000000	87.862	29.1953
2500.000000	87.909	28.3011
2540.000000	87.971	27.0278
2580.000000	88.031	25.6680
2620.000000	88.086	24.2303
2650.000000	88.122	23.1022
2690.000000	88.165	21.5265
2720.000000	88.192	20.2861
2760.000000	88.222	18.5488
2800.000000	88.243	16.7150
2850.000000	88.255	14.2932
2900.000000	88.245	11.7359
2950.000000	88.209	9.0480
3000.000000	88.145	6.2360
3040.000000	88.070	3.9095
3070.000000	87.999	2.1340
3110.000000	87.882	-0.2469
3150.000000	87.739	-2.6052
3200.000000	87.525	-5.4512
3250.000000	87.279	-8.0964
3300.000000	87.015	-10.4683
3350.000000	86.752	-12.5431
3400.000000	86.511	-14.3625
3450.000000	86.309	-16.0228
3500.000000	86.155	-17.6464
3550.000000	86.047	-19.3494
3600.000000	85.979	-21.2159
3650.000000	85.942	-23.2925
3700.000000	85.928	-25.5984
3750.000000	85.931	-28.1332
3820.000000	85.953	-32.0319
3870.000000	85.979	-35.0304
3950.000000	86.031	-40.1243
4000.000000	86.070	-43.4552
4060.000000	86.127	-47.5607
4120.000000	86.196	-51.7460
4180.000000	86.280	-55.9697
4250.000000	86.401	-60.8828
4310.000000	86.534	-65.0374
4370.000000	86.705	-69.1500
4440.000000	86.956	-73.9642
4500.000000	87.211	-78.1570
4550.000000	87.446	-81.7270
4620.000000	87.798	-86.8832
4680.000000	88.106	-91.4703
4750.000000	88.449	-96.9907
4820.000000	88.753	-102.5817
4870.000000	88.939	-106.5143
4940.000000	89.159	-111.7716
5000.000000	89.320	-115.9360
5080.000000	89.525	-120.9230
5150.000000	89.718	-124.8069
5220.000000	89.939	-128.3677
5300.000000	90.227	-132.2167
5380.000000	90.542	-135.9977
5450.000000	90.823	-139.3462
5520.000000	91.096	-142.7762
5600.000000	91.383	-146.8035
5700.000000	91.682	-151.9395
5800.000000	91.899	-157.0541
5900.000000	92.031	-161.9785
6000.000000	92.083	-166.5433
6080.000000	92.077	-169.8396
6150.000000	92.046	-172.4189
6220.000000	91.998	-174.6957
6300.000000	91.932	-176.9297
6400.000000	91.847	-179.2062
6500.000000	91.772	179.0234
6600.000000	91.719	177.6685
6700.000000	91.695	176.6268
6800.000000	91.702	175.7963
6900.000000	91.742	175.0789
7000.000000	91.812	174.3800
7100.000000	91.907	173.6080
7200.000000	92.021	172.6774
7300.000000	92.140	171.5242
7400.000000	92.251	170.1169
7500.000000	92.339	168.4575
7620.000000	92.398	166.1793
7750.000000	92.384	163.4662
7880.000000	92.277	160.6737
8000.000000	92.093	158.2126
8120.000000	91.833	156.0334
8250.000000	91.480	154.1489
8380.000000	91.074	152.8698
8500.000000	90.673	152.2620
8620.000000	90.268	152.1905
8750.000000	89.845	152.6652
8850.000000	89.544	153.3671
9000.000000	89.147	154.8484
9120.000000	88.889	156.2833
9250.000000	88.675	157.9414
9380.000000	88.524	159.5677
9500.000000	88.432	160.9528
9620.000000	88.375	162.1802
9750.000000	88.346	163.2686
9880.000000	88.329	164.0497
10000.000000	88.310	164.5421
10150.000000	88.272	164.9551
10300.000000	88.225	165.1819
10440.000000	88.173	165.1878
10600.000000	88.092	164.8748
10750.000000	87.975	164.2302
10900.000000	87.789	163.2934
11060.000000	87.485	162.1686
11200.000000	87.113	161.3508
11380.000000	86.491	160.9965
11500.000000	86.005	161.4211
11720.000000	85.050	163.7855
11800.000000	84.708	165.1159
12060.000000	83.710	170.6981
12200.000000	83.273	174.2195
12410.000000	82.761	179.7698
12500.000000	82.591	-177.8323
12650.000000	82.362	-173.8734
12800.000000	82.192	-169.9846
13150.000000	82.014	-161.2044
13200.000000	82.016	-159.9943
13400.000000	82.106	-155.3568
13600.000000	82.344	-151.2505
13800.000000	82.738	-148.0703
14000.000000	83.260	-146.3572
14300.000000	84.099	-147.8658
14500.000000	84.493	-152.1390
14750.000000	84.538	-160.4506
15000.000000	83.934	-169.4827
15250.000000	82.725	-176.1528
15500.000000	81.128	-179.0360
15750.000000	79.418	-178.5457
16000.000000	77.812	-175.8083
16250.000000	76.437	-171.8588
16500.000000	75.339	-167.4442
16750.000000	74.520	-163.1079
17000.000000	73.962	-159.3058
17250.000000	73.637	-156.4819
17500.000000	73.515	-155.1670
17750.000000	73.540	-156.0969
18000.000000	73.594	-160.1384
18250.000000	73.464	-167.6226
18500.000000	72.892	-177.1463
18750.000000	71.704	174.6559
19000.000000	69.964	170.7057
19250.000000	68.003	170.7501
19500.000000	66.285	172.1533
19750.000000	65.118	172.8935
20000.000000	64.529	172.9163
