* Measurement data measured by REW V5.20
* Source: USB-C to 3.5mm Headphone Jack Adapter, USB-C to 3.5mm Headphone Jack Adapter, 0, volume: 0.250
* Format: 256k Log Swept Sine, 1 sweep at -12.0 dBFS with no timing reference
* Dated: Jun 30, 2023 6:00:49 PM
* REW Settings:
*  C-weighting compensation: Off
*  Target level: 75.0 dB
* Note: ; 
* Measurement: off L
* Smoothing: None
* Frequency Step: 1/48 octave
* Start Frequency: 20.300 Hz
*
* Freq(Hz)	SPL(dB)	Phase(degrees)
20.299999	104.168114	-159.3583
20.600000	104.168655	-159.9434
20.900000	104.163696	-160.4340
21.200001	104.161942	-160.8987
21.400000	104.164474	-161.2070
21.799999	104.177612	-161.8469
22.000000	104.186615	-162.1846
22.400000	104.204788	-162.8904
22.700001	104.214653	-163.4300
23.000000	104.219696	-163.9614
23.299999	104.219933	-164.4731
23.600000	104.216423	-164.9604
24.000000	104.208344	-165.5739
24.299999	104.201683	-166.0110
24.700001	104.194832	-166.5680
25.000000	104.193169	-166.9706
25.400000	104.197495	-167.4978
25.799999	104.208588	-168.0330
26.200001	104.221573	-168.5898
26.500000	104.228294	-169.0176
26.900000	104.229118	-169.5764
27.200001	104.223236	-169.9673
27.600000	104.210426	-170.4348
28.000000	104.197670	-170.8526
28.500000	104.187790	-171.3622
29.000000	104.182426	-171.9166
29.500000	104.175270	-172.5093
30.000000	104.165009	-173.0848
30.400000	104.157440	-173.5117
30.700001	104.153366	-173.8166
31.100000	104.149521	-174.2162
31.500000	104.145111	-174.6170
32.000000	104.135773	-175.1134
32.500000	104.123047	-175.5882
33.000000	104.111084	-176.0435
33.500000	104.101730	-176.5003
34.000000	104.092514	-176.9722
34.500000	104.080101	-177.4475
35.000000	104.063995	-177.9028
35.500000	104.046562	-178.3279
36.000000	104.030235	-178.7348
36.500000	104.015251	-179.1418
37.000000	104.000137	-179.5549
37.500000	103.984100	-179.9646
38.200001	103.962311	179.4857
38.700001	103.948715	179.1060
39.500000	103.927628	178.5032
40.000000	103.912926	178.1365
40.599998	103.894608	177.7134
41.200001	103.876060	177.2991
41.799999	103.855682	176.8903
42.500000	103.829910	176.4289
43.099998	103.808441	176.0319
43.700001	103.786110	175.6160
44.400002	103.757195	175.1415
45.000000	103.735153	174.7745
45.500000	103.720764	174.4780
46.200001	103.699036	174.0453
46.799999	103.672691	173.6841
47.500000	103.640640	173.3081
48.200001	103.617149	172.9286
48.700001	103.602051	172.6296
49.400002	103.573692	172.2167
50.000000	103.543320	171.9164
50.799999	103.505989	171.5604
51.500000	103.479843	171.1981
52.200001	103.452141	170.7963
53.000000	103.418533	170.4071
53.799999	103.388603	170.0511
54.500000	103.354385	169.7000
55.200001	103.319183	169.3947
56.000000	103.301392	169.0641
57.000000	103.259720	168.6251
58.000000	103.209366	168.3537
59.000000	103.173111	167.2805
60.000000	103.037109	166.3772
60.799999	103.014297	166.6398
61.500000	103.064980	166.6931
62.200001	103.056648	166.3989
63.000000	102.987389	166.1716
64.000000	102.949387	165.8232
65.000000	102.916115	165.3278
66.000000	102.877235	165.0738
67.000000	102.827690	164.7390
68.000000	102.774742	164.4177
69.000000	102.737289	164.0898
70.000000	102.691551	163.7729
71.000000	102.646950	163.4750
72.000000	102.605179	163.1460
73.000000	102.559952	162.8631
74.000000	102.516045	162.5995
75.000000	102.466980	162.3152
76.199997	102.410080	161.9859
77.500000	102.355591	161.6594
78.800003	102.302750	161.3376
80.000000	102.243935	161.0795
81.199997	102.193298	160.7723
82.500000	102.137299	160.5349
83.800003	102.082428	160.2179
85.000000	102.025558	160.0063
86.199997	101.980690	159.6703
87.500000	101.905014	159.4296
88.500000	101.875336	159.2816
90.000000	101.803719	158.9963
91.199997	101.754120	158.8133
92.500000	101.694374	158.5555
93.800003	101.643417	158.3698
95.000000	101.586823	158.1161
96.199997	101.522720	157.9120
97.500000	101.471947	157.7897
98.800003	101.416595	157.6549
100.000000	101.356972	157.4507
101.500000	101.291382	157.2392
103.000000	101.220329	157.0476
104.400002	101.149231	157.0068
106.000000	101.079201	156.8777
107.500000	101.011459	156.8353
109.000000	100.949173	156.8204
110.599998	100.895767	156.8824
112.000000	100.861069	156.8906
113.800003	100.837593	156.7852
115.000000	100.812607	156.6212
117.199997	100.749214	156.3513
118.000000	100.699860	156.1285
120.599998	100.713745	155.3436
122.000000	100.573257	155.9390
124.099998	100.488976	155.5438
125.000000	100.467773	155.4976
126.500000	100.394684	155.4223
128.000000	100.344025	155.3321
131.500000	100.215111	155.2648
132.000000	100.196983	155.2601
134.000000	100.129250	155.2216
136.000000	100.064346	155.1916
138.000000	100.007027	155.1789
140.000000	99.947029	155.1424
143.000000	99.868713	155.0777
145.000000	99.811256	155.0621
147.500000	99.747528	154.9855
150.000000	99.681282	154.9025
152.500000	99.609108	154.7826
155.000000	99.538582	154.7126
157.500000	99.462135	154.6259
160.000000	99.386223	154.5336
162.500000	99.311646	154.5279
165.000000	99.233223	154.4924
167.500000	99.154716	154.4920
170.000000	99.078087	154.5194
172.500000	99.007294	154.5673
175.000000	98.933624	154.6279
177.500000	98.859299	154.7172
180.000000	98.820587	154.8860
182.500000	98.726303	155.0009
185.000000	98.670692	155.0993
187.500000	98.615181	155.2151
190.000000	98.566040	155.3304
192.500000	98.522865	155.4828
195.000000	98.475662	155.5170
197.500000	98.429611	155.5842
200.000000	98.385536	155.6330
203.000000	98.322586	155.6403
206.000000	98.260498	155.6725
209.000000	98.196320	155.7251
212.000000	98.132118	155.8082
214.000000	98.088303	155.8254
218.000000	98.004166	155.9600
220.000000	97.961876	156.0060
224.000000	97.879364	156.1651
227.000000	97.817215	156.2939
230.000000	97.755920	156.4111
233.000000	97.699669	156.5334
236.000000	97.642227	156.6839
240.000000	97.592651	156.1638
243.000000	97.511269	157.0149
247.000000	97.436760	157.2363
250.000000	97.384270	157.3891
254.000000	97.316666	157.5990
258.000000	97.246407	157.7933
262.000000	97.179161	158.0452
265.000000	97.131851	158.1910
269.000000	97.064606	158.4494
272.000000	97.022797	158.6282
276.000000	96.955986	158.8284
280.000000	96.898605	159.1021
285.000000	96.825066	159.4002
290.000000	96.750916	159.7471
295.000000	96.687469	160.1126
300.000000	96.603874	161.0251
304.000000	96.576050	160.7124
307.000000	96.533630	160.9097
311.000000	96.491493	161.2010
315.000000	96.448616	161.4894
320.000000	96.389999	161.8085
325.000000	96.338387	162.1206
330.000000	96.295166	162.4434
335.000000	96.238632	162.7585
340.000000	96.190536	163.0708
345.000000	96.142410	163.3954
350.000000	96.091164	163.6935
355.000000	96.045784	164.0041
360.000000	96.011078	164.4096
365.000000	95.953377	164.6508
370.000000	95.907639	164.9567
375.000000	95.862099	165.2980
382.000000	95.801498	165.7856
387.000000	95.764862	166.1432
395.000000	95.703957	166.7569
400.000000	95.671135	167.1279
406.000000	95.641411	167.5826
412.000000	95.620293	167.9772
418.000000	95.600540	168.3789
425.000000	95.568695	168.6951
431.000000	95.543396	169.0125
437.000000	95.515373	169.3120
444.000000	95.478081	169.6260
450.000000	95.449974	169.9326
455.000000	95.423012	170.1884
462.000000	95.382668	170.5454
468.000000	95.350983	170.8458
475.000000	95.319817	171.2411
482.000000	95.283966	171.5517
487.000000	95.261002	171.8461
494.000000	95.224518	172.2187
500.000000	95.192032	172.5340
508.000000	95.157875	172.9616
515.000000	95.121445	173.3522
522.000000	95.096390	173.7469
530.000000	95.062683	174.1675
538.000000	95.030533	174.5235
545.000000	95.007339	174.9754
552.000000	94.973541	175.3209
560.000000	94.944138	175.7238
570.000000	94.908508	176.2493
580.000000	94.877716	176.7485
590.000000	94.842529	177.2680
600.000000	94.819504	177.6888
608.000000	94.788330	178.2051
615.000000	94.767242	178.5242
622.000000	94.743675	178.8751
630.000000	94.720001	179.2911
640.000000	94.689484	179.8007
650.000000	94.664444	-179.6725
660.000000	94.679619	-179.4574
670.000000	94.611099	-178.6653
680.000000	94.577484	-178.1722
690.000000	94.547661	-177.6474
700.000000	94.531372	-177.1733
710.000000	94.504761	-176.6571
720.000000	94.497223	-176.0737
730.000000	94.458611	-175.6581
740.000000	94.436981	-175.1337
750.000000	94.409218	-174.6280
762.000000	94.387100	-174.0215
775.000000	94.363098	-173.3034
788.000000	94.339622	-172.6564
800.000000	94.315834	-172.0320
812.000000	94.289978	-171.4133
825.000000	94.265770	-170.6791
838.000000	94.252823	-169.9847
850.000000	94.230240	-169.3244
862.000000	94.211922	-168.7034
875.000000	94.196526	-167.9357
885.000000	94.185692	-167.3991
900.000000	94.206192	-166.5880
912.000000	94.161354	-165.8563
925.000000	94.155823	-165.0935
938.000000	94.148636	-164.3594
950.000000	94.150650	-163.6783
962.000000	94.150391	-162.9456
975.000000	94.153313	-162.2302
988.000000	94.159836	-161.4700
1000.000000	94.163780	-160.7677
1015.000000	94.180634	-159.9520
1030.000000	94.192276	-159.0397
1044.000000	94.211517	-158.2759
1060.000000	94.239395	-157.3539
1075.000000	94.270660	-156.5696
1090.000000	94.291054	-155.7675
1106.000000	94.316643	-154.9093
1120.000000	94.352501	-154.2184
1138.000000	94.385628	-153.2888
1150.000000	94.417770	-152.7168
1172.000000	94.461456	-151.6389
1180.000000	94.475494	-151.2425
1206.000000	94.535797	-150.0226
1220.000000	94.563927	-149.3128
1241.000000	94.604340	-148.3366
1250.000000	94.620575	-147.8873
1265.000000	94.648773	-147.1808
1280.000000	94.684547	-146.4194
1315.000000	94.749847	-144.6696
1320.000000	94.738983	-144.3278
1340.000000	94.798302	-143.3977
1360.000000	94.845673	-142.3409
1380.000000	94.902061	-141.3611
1400.000000	94.945732	-140.0882
1430.000000	95.035385	-138.3847
1450.000000	95.098648	-137.2308
1475.000000	95.194153	-135.7463
1500.000000	95.302567	-134.2255
1525.000000	95.418388	-132.7232
1550.000000	95.543968	-131.2065
1575.000000	95.682304	-129.6701
1600.000000	95.840691	-128.1824
1625.000000	96.011955	-126.7275
1650.000000	96.190277	-125.2564
1675.000000	96.385208	-123.8145
1700.000000	96.592896	-122.4431
1725.000000	96.815170	-121.1191
1750.000000	97.045799	-119.8257
1775.000000	97.290710	-118.6161
1800.000000	97.547134	-117.4708
1825.000000	97.815201	-116.3597
1850.000000	98.094238	-115.3430
1875.000000	98.381210	-114.4155
1900.000000	98.679749	-113.5684
1925.000000	98.989029	-112.7880
1950.000000	99.310471	-112.1048
1975.000000	99.637993	-111.5290
2000.000000	99.976807	-111.0557
2030.000000	100.392715	-110.6923
2060.000000	100.817459	-110.4895
2090.000000	101.253090	-110.4896
2120.000000	101.693939	-110.7112
2140.000000	101.989288	-110.9870
2180.000000	102.579666	-111.8685
2200.000000	102.872025	-112.5060
2240.000000	103.444336	-114.1389
2270.000000	103.852180	-115.6773
2300.000000	104.234993	-117.5232
2330.000000	104.588409	-119.6063
2360.000000	104.898949	-121.9518
2400.000000	105.239052	-125.3644
2430.000000	105.431137	-128.0834
2470.000000	105.600449	-131.7673
2500.000000	105.659737	-134.5072
2540.000000	105.656326	-138.0071
2580.000000	105.568962	-141.2088
2620.000000	105.412651	-144.0198
2650.000000	105.266388	-145.8530
2690.000000	105.040276	-147.8565
2720.000000	104.859024	-149.0352
2760.000000	104.624352	-150.2667
2800.000000	104.413521	-151.1399
2850.000000	104.177696	-151.9231
2900.000000	103.971359	-152.4186
2950.000000	103.796509	-152.6541
3000.000000	103.659637	-152.6761
3040.000000	103.576241	-152.5904
3070.000000	103.531433	-152.4630
3110.000000	103.497360	-152.2766
3150.000000	103.488342	-152.0861
3200.000000	103.513199	-151.8600
3250.000000	103.577805	-151.7831
3300.000000	103.678558	-151.8430
3350.000000	103.811493	-152.1671
3400.000000	103.965485	-152.7684
3450.000000	104.130318	-153.7594
3500.000000	104.289986	-155.1471
3550.000000	104.420631	-156.9545
3600.000000	104.499397	-159.0298
3650.000000	104.537827	-161.2341
3700.000000	104.557037	-163.5702
3750.000000	104.555557	-166.3314
3820.000000	104.423737	-171.0443
3870.000000	104.161934	-174.7432
3950.000000	103.412918	179.7727
4000.000000	102.754402	177.2084
4060.000000	101.827431	175.4706
4120.000000	100.832397	175.6106
4180.000000	99.870300	177.7200
4250.000000	98.952095	-177.5279
4310.000000	98.439522	-172.0755
4370.000000	98.248848	-166.0785
4440.000000	98.415291	-159.5221
4500.000000	98.834213	-154.9742
4550.000000	99.327789	-152.3341
4620.000000	100.135376	-150.5590
4680.000000	100.849380	-150.8819
4750.000000	101.591507	-153.3680
4820.000000	102.128876	-157.7205
4870.000000	102.337288	-161.5978
4940.000000	102.346512	-167.4054
5000.000000	102.111557	-172.1270
5080.000000	101.549713	-177.2736
5150.000000	100.917824	179.5104
5220.000000	100.237259	177.4235
5300.000000	99.460602	176.2263
5380.000000	98.716743	175.9929
5450.000000	98.106400	176.4517
5520.000000	97.529968	177.2468
5600.000000	96.924934	178.6405
5700.000000	96.208557	-179.0739
5800.000000	95.545998	-176.0348
5900.000000	94.987404	-172.1653
6000.000000	94.588707	-167.7448
6080.000000	94.382973	-164.0631
6150.000000	94.259247	-160.9000
6220.000000	94.200806	-157.7450
6300.000000	94.188049	-154.3485
6400.000000	94.271622	-150.1279
6500.000000	94.432487	-146.1467
6600.000000	94.685799	-142.3441
6700.000000	95.023376	-138.7393
6800.000000	95.458023	-135.4303
6900.000000	95.983849	-132.4977
7000.000000	96.607697	-129.9957
7100.000000	97.324692	-128.0598
7200.000000	98.150482	-126.7788
7300.000000	99.085075	-126.4936
7400.000000	100.090919	-127.3970
7500.000000	101.157402	-129.7874
7620.000000	102.416046	-135.0796
7750.000000	103.568573	-143.9737
7880.000000	104.243378	-155.2356
8000.000000	104.348045	-165.8977
8120.000000	104.091545	-175.1849
8250.000000	103.668747	176.7789
8380.000000	103.302605	170.1041
8500.000000	103.089325	164.2187
8620.000000	102.987068	157.7151
8750.000000	102.893532	149.0022
8850.000000	102.724770	140.8073
9000.000000	102.041809	126.9464
9120.000000	101.047028	115.5071
9250.000000	99.547218	104.5640
9380.000000	97.818382	95.8478
9500.000000	96.161041	89.5260
9620.000000	94.475899	84.4910
9750.000000	92.648048	80.0430
9880.000000	90.797997	76.4611
10000.000000	89.028328	74.2304
10150.000000	86.818047	73.1214
10300.000000	84.646523	73.9924
10440.000000	82.774368	76.8228
10600.000000	80.986259	81.3264
10750.000000	79.565308	86.2994
10900.000000	78.428123	92.0767
11060.000000	77.408386	97.1090
11200.000000	76.673859	102.1169
11380.000000	75.988472	108.2022
11500.000000	75.708534	111.1141
11720.000000	75.317802	117.5202
11800.000000	75.216202	119.3682
12060.000000	75.273155	123.7319
12200.000000	75.335167	125.1910
12410.000000	75.785904	128.0566
12500.000000	75.940247	128.6501
12650.000000	76.355614	128.0498
12800.000000	76.783020	127.5026
13150.000000	77.883682	120.2368
13200.000000	77.953133	118.2886
13400.000000	78.301971	110.9431
13600.000000	78.296928	102.3596
13800.000000	77.968033	93.5455
14000.000000	77.704247	85.9323
14300.000000	77.172806	73.7068
14500.000000	77.054901	63.5161
14750.000000	76.977837	46.7769
15000.000000	76.912521	23.3025
15250.000000	75.505905	-7.5219
15500.000000	74.446465	-44.2559
15750.000000	73.530052	-95.9810
16000.000000	71.732681	-157.3632
16250.000000	69.846222	149.8693
16500.000000	68.752480	113.9771
16750.000000	68.009163	83.1273
17000.000000	68.401352	50.7933
17250.000000	69.355888	13.2726
17500.000000	70.495926	-35.5493
17750.000000	71.294052	-104.1167
18000.000000	69.944962	177.1171
18250.000000	66.938934	115.0586
18500.000000	65.979233	56.4644
18750.000000	64.276070	6.8737
19000.000000	61.653770	-47.0389
19250.000000	61.557438	-107.5474
19500.000000	60.255527	-168.4146
19750.000000	58.256462	120.8237
