* Measurement data measured by REW V5.20
* Source: USB-C to 3.5mm Headphone Jack Adapter, USB-C to 3.5mm Headphone Jack Adapter, 0, volume: 0.663. Timing signal peak level -13.0 dBFS, measurement signal peak level -9.2 dBFS
* Format: 256k Log Swept Sine, 1 sweep at -12.0 dBFS using an acoustic timing reference
* Dated: Mar 27, 2021 10:38:50 AM
* REW Settings:
*  C-weighting compensation: Off
*  Target level: 75.0 dB
* Note: ; Delay -0.0910 ms (-31 mm, -1.23 in) using estimated IR delay relative to Acoustic reference on USB-C to 3.5mm Headphone Jack Adapter L with no timing offset
* Measurement: FDX1 (100% Sedna)
* Smoothing: 1/12 octave
* Frequency Step: 1/48 octave
* Start Frequency: 20.300 Hz
*
* Freq(Hz)	SPL(dB)	Phase(degrees)
20.299999	101.396988	-146.7835
20.600000	101.378166	-147.0089
20.900000	101.330429	-147.5414
21.200001	101.288208	-148.1218
21.400000	101.270058	-148.5101
21.799999	101.261871	-149.3009
22.000000	101.270081	-149.7067
22.400000	101.301743	-150.5196
22.700001	101.329628	-151.0877
23.000000	101.356033	-151.5843
23.299999	101.379059	-151.9976
23.600000	101.398392	-152.3426
24.000000	101.417961	-152.7607
24.299999	101.426880	-153.0938
24.700001	101.429863	-153.6099
25.000000	101.426590	-154.0540
25.400000	101.419510	-154.7008
25.799999	101.415970	-155.3757
26.200001	101.419365	-156.0463
26.500000	101.425125	-156.5282
26.900000	101.432617	-157.1147
27.200001	101.435623	-157.4957
27.600000	101.435501	-157.9178
28.000000	101.432808	-158.2644
28.500000	101.429291	-158.6733
29.000000	101.423599	-159.1464
29.500000	101.409317	-159.6879
30.000000	101.384659	-160.2063
30.400000	101.362473	-160.5440
30.700001	101.348740	-160.7466
31.100000	101.338455	-160.9798
31.500000	101.338272	-161.2342
32.000000	101.346687	-161.6772
32.500000	101.355270	-162.2938
33.000000	101.359703	-163.0120
33.500000	101.365631	-163.7144
34.000000	101.381454	-164.3219
34.500000	101.406174	-164.8298
35.000000	101.425873	-165.2648
35.500000	101.425537	-165.6272
36.000000	101.403465	-165.8922
36.500000	101.373901	-166.0627
37.000000	101.355919	-166.2003
37.500000	101.357918	-166.3883
38.200001	101.376694	-166.7926
38.700001	101.380333	-167.1250
39.500000	101.349487	-167.5784
40.000000	101.315163	-167.8136
40.599998	101.274193	-168.1254
41.200001	101.241951	-168.5141
41.799999	101.218048	-168.9370
42.500000	101.193924	-169.3559
43.099998	101.171623	-169.6086
43.700001	101.146500	-169.8123
44.400002	101.115898	-170.0870
45.000000	101.091690	-170.3820
45.500000	101.074165	-170.6385
46.200001	101.053345	-170.9427
46.799999	101.037827	-171.1321
47.500000	101.019829	-171.3384
48.200001	100.998276	-171.6203
48.700001	100.980713	-171.8688
49.400002	100.958733	-172.2056
50.000000	100.947868	-172.4147
50.799999	100.946281	-172.5490
51.500000	100.950569	-172.6005
52.200001	100.950874	-172.7057
53.000000	100.937035	-172.9769
53.799999	100.907562	-173.3692
54.500000	100.876617	-173.7216
55.200001	100.847816	-174.0247
56.000000	100.820786	-174.3156
57.000000	100.797012	-174.7344
58.000000	100.788956	-175.4134
59.000000	100.786133	-176.2932
60.000000	100.762260	-176.8186
60.799999	100.736542	-176.6849
61.500000	100.721649	-176.3150
62.200001	100.709930	-175.9588
63.000000	100.691048	-175.7219
64.000000	100.663185	-175.6536
65.000000	100.640404	-175.7178
66.000000	100.619087	-175.8233
67.000000	100.595238	-175.9277
68.000000	100.570900	-176.0168
69.000000	100.550095	-176.1027
70.000000	100.532784	-176.2103
71.000000	100.515038	-176.3199
72.000000	100.494507	-176.3950
73.000000	100.471184	-176.4439
74.000000	100.447128	-176.4946
75.000000	100.426376	-176.5583
76.199997	100.409134	-176.6657
77.500000	100.397980	-176.8400
78.800003	100.391701	-177.0403
80.000000	100.383270	-177.1960
81.199997	100.363914	-177.2776
82.500000	100.336533	-177.2826
83.800003	100.312691	-177.2902
85.000000	100.292343	-177.3419
86.199997	100.270782	-177.4011
87.500000	100.247673	-177.4604
88.500000	100.231262	-177.5213
90.000000	100.208420	-177.6326
91.199997	100.189934	-177.7059
92.500000	100.168961	-177.7602
93.800003	100.148048	-177.7976
95.000000	100.129799	-177.8175
96.199997	100.112709	-177.8267
97.500000	100.094940	-177.8363
98.800003	100.077248	-177.8523
100.000000	100.060829	-177.8704
101.500000	100.040436	-177.8895
103.000000	100.020050	-177.8975
104.400002	100.000916	-177.8947
106.000000	99.979095	-177.8880
107.500000	99.958984	-177.8815
109.000000	99.939705	-177.8740
110.599998	99.920670	-177.8652
112.000000	99.905663	-177.8509
113.800003	99.890686	-177.8006
115.000000	99.886093	-177.7301
117.199997	99.896523	-177.4884
118.000000	99.905052	-177.3709
120.599998	99.904663	-177.1685
122.000000	99.870575	-177.2641
124.099998	99.807243	-177.4493
125.000000	99.784882	-177.4903
126.500000	99.756310	-177.5056
128.000000	99.735977	-177.4808
131.500000	99.701317	-177.3818
132.000000	99.696655	-177.3666
134.000000	99.677872	-177.3032
136.000000	99.659134	-177.2356
138.000000	99.640770	-177.1693
140.000000	99.623077	-177.1060
143.000000	99.597923	-177.0004
145.000000	99.581528	-176.9177
147.500000	99.561378	-176.8133
150.000000	99.541817	-176.7137
152.500000	99.522987	-176.6157
155.000000	99.504997	-176.5146
157.500000	99.487617	-176.4009
160.000000	99.470367	-176.2722
162.500000	99.453316	-176.1387
165.000000	99.436981	-176.0070
167.500000	99.422134	-175.8772
170.000000	99.408318	-175.7483
172.500000	99.394455	-175.6138
175.000000	99.379707	-175.4740
177.500000	99.364677	-175.3392
180.000000	99.352524	-175.2136
182.500000	99.344803	-175.0947
185.000000	99.338676	-174.9759
187.500000	99.331467	-174.8493
190.000000	99.322266	-174.7139
192.500000	99.311264	-174.5800
195.000000	99.299118	-174.4537
197.500000	99.286598	-174.3306
200.000000	99.274704	-174.2070
203.000000	99.261612	-174.0590
206.000000	99.249504	-173.9116
209.000000	99.237984	-173.7623
212.000000	99.226715	-173.6072
214.000000	99.219139	-173.4999
218.000000	99.203598	-173.2778
220.000000	99.195915	-173.1652
224.000000	99.180855	-172.9400
227.000000	99.169525	-172.7686
230.000000	99.158310	-172.5830
233.000000	99.147675	-172.3651
236.000000	99.137764	-172.1138
240.000000	99.125465	-171.8122
243.000000	99.116516	-171.6819
247.000000	99.103821	-171.5659
250.000000	99.093208	-171.4530
254.000000	99.078354	-171.2572
258.000000	99.063599	-171.0296
262.000000	99.049194	-170.7800
265.000000	99.039429	-170.5822
269.000000	99.028992	-170.3075
272.000000	99.023407	-170.0941
276.000000	99.018723	-169.8034
280.000000	99.016449	-169.5183
285.000000	99.016342	-169.1933
290.000000	99.018875	-168.9088
295.000000	99.023758	-168.6545
300.000000	99.028671	-168.3913
304.000000	99.030396	-168.1458
307.000000	99.030838	-167.9551
311.000000	99.031044	-167.7202
315.000000	99.030594	-167.5145
320.000000	99.028778	-167.2795
325.000000	99.025253	-167.0438
330.000000	99.019829	-166.7947
335.000000	99.013092	-166.5339
340.000000	99.006493	-166.2657
345.000000	99.000870	-165.9933
350.000000	98.996216	-165.7191
355.000000	98.992279	-165.4453
360.000000	98.988800	-165.1738
365.000000	98.985344	-164.9045
370.000000	98.982216	-164.6335
375.000000	98.979668	-164.3594
382.000000	98.976540	-163.9774
387.000000	98.974251	-163.7096
395.000000	98.969963	-163.2867
400.000000	98.967056	-163.0231
406.000000	98.963440	-162.7038
412.000000	98.959457	-162.3791
418.000000	98.955292	-162.0529
425.000000	98.951187	-161.6800
431.000000	98.948349	-161.3647
437.000000	98.945572	-161.0451
444.000000	98.942192	-160.6633
450.000000	98.939194	-160.3333
455.000000	98.936417	-160.0590
462.000000	98.931801	-159.6756
468.000000	98.927025	-159.3460
475.000000	98.920822	-158.9590
482.000000	98.915161	-158.5724
487.000000	98.911530	-158.2978
494.000000	98.905380	-157.9119
500.000000	98.898270	-157.5764
508.000000	98.886116	-157.1144
515.000000	98.872665	-156.6828
522.000000	98.856796	-156.2021
530.000000	98.839882	-155.5512
538.000000	98.836090	-154.7701
545.000000	98.857437	-154.0384
552.000000	98.907562	-153.3896
560.000000	98.983322	-152.8927
570.000000	99.058304	-152.6057
580.000000	99.090141	-152.4087
590.000000	99.095009	-152.1213
600.000000	99.090508	-151.7326
608.000000	99.085701	-151.3694
615.000000	99.082108	-151.0299
622.000000	99.079514	-150.6802
630.000000	99.077621	-150.2737
640.000000	99.076141	-149.7602
650.000000	99.074364	-149.2470
660.000000	99.069733	-148.7383
670.000000	99.058815	-148.2193
680.000000	99.041451	-147.6385
690.000000	99.025681	-146.9452
700.000000	99.025162	-146.1629
710.000000	99.044922	-145.3940
720.000000	99.074982	-144.7118
730.000000	99.103912	-144.1062
740.000000	99.127777	-143.5351
750.000000	99.147530	-142.9683
762.000000	99.168411	-142.2764
775.000000	99.190231	-141.5099
788.000000	99.213646	-140.7343
800.000000	99.237144	-140.0114
812.000000	99.262039	-139.2784
825.000000	99.290703	-138.4738
838.000000	99.321419	-137.6660
850.000000	99.351753	-136.9237
862.000000	99.384315	-136.1812
875.000000	99.422897	-135.3737
885.000000	99.455177	-134.7517
900.000000	99.506592	-133.8177
912.000000	99.548981	-133.0686
925.000000	99.596939	-132.2589
938.000000	99.648575	-131.4560
950.000000	99.699738	-130.7233
962.000000	99.753868	-129.9996
975.000000	99.815346	-129.2270
988.000000	99.879593	-128.4677
1000.000000	99.941391	-127.7790
1015.000000	100.022034	-126.9362
1030.000000	100.106438	-126.1201
1044.000000	100.188454	-125.3868
1060.000000	100.285484	-124.5838
1075.000000	100.378777	-123.8651
1090.000000	100.473442	-123.1751
1106.000000	100.575363	-122.4704
1120.000000	100.665070	-121.8842
1138.000000	100.780518	-121.1756
1150.000000	100.857162	-120.7321
1172.000000	100.995850	-119.9743
1180.000000	101.045486	-119.7146
1206.000000	101.203842	-118.9251
1220.000000	101.286972	-118.5333
1241.000000	101.407951	-117.9831
1250.000000	101.458382	-117.7585
1265.000000	101.540718	-117.3965
1280.000000	101.620773	-117.0497
1315.000000	101.796692	-116.3001
1320.000000	101.820602	-116.1986
1340.000000	101.913635	-115.8023
1360.000000	102.002380	-115.4191
1380.000000	102.086761	-115.0447
1400.000000	102.167137	-114.6761
1430.000000	102.281326	-114.1331
1450.000000	102.353035	-113.7783
1475.000000	102.437660	-113.3411
1500.000000	102.517937	-112.9059
1525.000000	102.594551	-112.4690
1550.000000	102.667763	-112.0323
1575.000000	102.738113	-111.5971
1600.000000	102.805695	-111.1611
1625.000000	102.870338	-110.7218
1650.000000	102.932320	-110.2789
1675.000000	102.992073	-109.8342
1700.000000	103.049767	-109.3894
1725.000000	103.105385	-108.9454
1750.000000	103.158928	-108.5012
1775.000000	103.210442	-108.0569
1800.000000	103.259857	-107.6130
1825.000000	103.307236	-107.1694
1850.000000	103.352921	-106.7257
1875.000000	103.397217	-106.2810
1900.000000	103.439995	-105.8359
1925.000000	103.481018	-105.3909
1950.000000	103.520233	-104.9451
1975.000000	103.557625	-104.4970
2000.000000	103.593346	-104.0453
2030.000000	103.634155	-103.4994
2060.000000	103.672585	-102.9507
2090.000000	103.708481	-102.3990
2120.000000	103.742027	-101.8425
2140.000000	103.763184	-101.4681
2180.000000	103.802780	-100.7092
2200.000000	103.821274	-100.3239
2240.000000	103.855896	-99.5389
2270.000000	103.880028	-98.9360
2300.000000	103.902786	-98.3194
2330.000000	103.924370	-97.6884
2360.000000	103.944962	-97.0432
2400.000000	103.971375	-96.1603
2430.000000	103.990829	-95.4814
2470.000000	104.016739	-94.5544
2500.000000	104.036430	-93.8427
2540.000000	104.063545	-92.8717
2580.000000	104.092400	-91.8763
2620.000000	104.123665	-90.8571
2650.000000	104.149055	-90.0784
2690.000000	104.185982	-89.0235
2720.000000	104.216316	-88.2215
2760.000000	104.260643	-87.1406
2800.000000	104.309792	-86.0501
2850.000000	104.378448	-84.6779
2900.000000	104.455917	-83.3013
2950.000000	104.543030	-81.9312
3000.000000	104.640182	-80.5795
3040.000000	104.725250	-79.5179
3070.000000	104.793335	-78.7364
3110.000000	104.889801	-77.7186
3150.000000	104.992790	-76.7339
3200.000000	105.130493	-75.5586
3250.000000	105.277466	-74.4552
3300.000000	105.432755	-73.4350
3350.000000	105.595406	-72.5101
3400.000000	105.764236	-71.6921
3450.000000	105.937515	-70.9914
3500.000000	106.113144	-70.4168
3550.000000	106.288963	-69.9748
3600.000000	106.462685	-69.6706
3650.000000	106.632149	-69.5084
3700.000000	106.795387	-69.4916
3750.000000	106.950455	-69.6238
3820.000000	107.148819	-70.0717
3870.000000	107.271919	-70.5887
3950.000000	107.421997	-71.7515
4000.000000	107.478088	-72.6587
4060.000000	107.500351	-73.8751
4120.000000	107.470001	-75.1637
4180.000000	107.386726	-76.4507
4250.000000	107.226372	-77.8657
4310.000000	107.039810	-78.9542
4370.000000	106.812057	-79.8971
4440.000000	106.497978	-80.7713
4500.000000	106.191147	-81.2828
4550.000000	105.913315	-81.5146
4620.000000	105.499710	-81.5228
4680.000000	105.131203	-81.2425
4750.000000	104.693573	-80.6108
4820.000000	104.252220	-79.6864
4870.000000	103.935547	-78.8572
4940.000000	103.491432	-77.4590
5000.000000	103.112366	-76.0335
5080.000000	102.615677	-73.8035
5150.000000	102.196556	-71.5602
5220.000000	101.798309	-69.0778
5300.000000	101.373741	-65.9967
5380.000000	100.984100	-62.7048
5450.000000	100.672134	-59.6841
5520.000000	100.386848	-56.5542
5600.000000	100.093010	-52.8639
5700.000000	99.774094	-48.1063
5800.000000	99.510323	-43.2160
5900.000000	99.303604	-38.2267
6000.000000	99.156212	-33.1736
6080.000000	99.083054	-29.1108
6150.000000	99.053246	-25.5603
6220.000000	99.056511	-22.0334
6300.000000	99.101700	-18.0583
6400.000000	99.220924	-13.2229
6500.000000	99.409409	-8.6003
6600.000000	99.665436	-4.2619
6700.000000	99.985870	-0.2767
6800.000000	100.367226	3.2851
6900.000000	100.805611	6.3360
7000.000000	101.293213	8.7529
7100.000000	101.810486	10.3769
7200.000000	102.325081	11.0744
7300.000000	102.799004	10.7813
7400.000000	103.192154	9.5135
7500.000000	103.464973	7.3968
7620.000000	103.590294	4.1235
7750.000000	103.457191	0.4124
7880.000000	103.073608	-2.6719
8000.000000	102.557449	-4.5156
8120.000000	101.954033	-5.2839
8250.000000	101.271225	-5.0377
8380.000000	100.609245	-3.9465
8500.000000	100.037613	-2.4343
8620.000000	99.506119	-0.5982
8750.000000	98.971092	1.6607
8850.000000	98.586426	3.5552
9000.000000	98.053833	6.5989
9120.000000	97.667061	9.1516
9250.000000	97.285721	11.9723
9380.000000	96.938332	14.8036
9500.000000	96.642838	17.4040
9620.000000	96.367950	19.9858
9750.000000	96.090164	22.7650
9880.000000	95.831009	25.5316
10000.000000	95.607635	28.0785
10150.000000	95.350479	31.2576
10300.000000	95.119370	34.4306
10440.000000	94.928314	37.3806
10600.000000	94.741295	40.7294
10750.000000	94.599823	43.8339
10900.000000	94.495598	46.8821
11060.000000	94.430504	50.0339
11200.000000	94.415253	52.6618
11380.000000	94.454338	55.7860
11500.000000	94.517517	57.6643
11720.000000	94.710358	60.5532
11800.000000	94.804108	61.3858
12060.000000	95.181717	63.0648
12200.000000	95.417168	63.1891
12410.000000	95.776253	62.1391
12500.000000	95.919159	61.1886
12650.000000	96.121033	58.9026
12800.000000	96.251892	55.7584
13150.000000	96.134758	45.8327
13200.000000	96.060608	44.2430
13400.000000	95.616653	37.8599
13600.000000	94.959435	31.8612
13800.000000	94.140366	26.6230
14000.000000	93.226646	22.2513
14300.000000	91.826820	17.0053
14500.000000	90.951202	13.9977
14750.000000	89.979973	10.3126
15000.000000	89.181648	6.2559
15250.000000	88.577469	1.3831
15500.000000	88.175629	-4.6833
15750.000000	87.980301	-12.3080
16000.000000	87.984634	-21.9652
16250.000000	88.139435	-34.2427
16500.000000	88.338570	-49.6476
16750.000000	88.442955	-68.3323
17000.000000	88.321228	-89.9052
17250.000000	87.888344	-113.4860
17500.000000	87.125824	-138.0542
17750.000000	86.075500	-162.9100
18000.000000	84.815048	172.0505
18250.000000	83.431168	146.3538
18500.000000	81.996918	119.1226
18750.000000	80.548653	89.3390
19000.000000	79.078209	56.1911
19250.000000	77.553795	19.7002
19500.000000	75.962067	-18.0503
19750.000000	74.405891	-51.5486
