* Measurement data measured by REW V5.20
* Source: USB-C to 3.5mm Headphone Jack Adapter, USB-C to 3.5mm Headphone Jack Adapter, 0, volume: 0.250
* Format: 256k Log Swept Sine, 1 sweep at -12.0 dBFS with no timing reference
* Dated: Jun 28, 2023 5:46:26 PM
* REW Settings:
*  C-weighting compensation: Off
*  Target level: 75.0 dB
* Note: 
* Measurement: L
* Smoothing: None
* Frequency Step: 1/48 octave
* Start Frequency: 20.300 Hz
*
* Freq(Hz)	SPL(dB)	Phase(degrees)
20.299999	107.421135	-169.1353
20.600000	107.422333	-169.9645
20.900000	107.417664	-170.6939
21.200001	107.413445	-171.4144
21.400000	107.411911	-171.8997
21.799999	107.411125	-172.8914
22.000000	107.411057	-173.3964
22.400000	107.409683	-174.4090
22.700001	107.406685	-175.1518
23.000000	107.402313	-175.8670
23.299999	107.397507	-176.5497
23.600000	107.393219	-177.2028
24.000000	107.389114	-178.0436
24.299999	107.386650	-178.6660
24.700001	107.382133	-179.4986
25.000000	107.376167	179.8738
25.400000	107.363266	179.0403
25.799999	107.344963	178.2231
26.200001	107.323158	177.4270
26.500000	107.305832	176.8391
26.900000	107.282234	176.0549
27.200001	107.264015	175.4604
27.600000	107.238396	174.6606
28.000000	107.211563	173.8659
28.500000	107.179665	172.9074
29.000000	107.155243	171.9991
29.500000	107.139801	171.1218
30.000000	107.127235	170.2536
30.400000	107.113846	169.5697
30.700001	107.100388	169.0712
31.100000	107.078438	168.4318
31.500000	107.054153	167.8149
32.000000	107.023262	167.0486
32.500000	106.991859	166.2636
33.000000	106.958679	165.4684
33.500000	106.924622	164.6924
34.000000	106.892586	163.9527
34.500000	106.863548	163.2399
35.000000	106.834862	162.5359
35.500000	106.803253	161.8362
36.000000	106.768188	161.1461
36.500000	106.731819	160.4677
37.000000	106.696205	159.7964
37.500000	106.661758	159.1301
38.200001	106.614273	158.2171
38.700001	106.580376	157.5852
39.500000	106.525360	156.5962
40.000000	106.489662	155.9837
40.599998	106.445946	155.2584
41.200001	106.402985	154.5500
41.799999	106.361115	153.8584
42.500000	106.311417	153.0712
43.099998	106.267014	152.4111
43.700001	106.221825	151.7538
44.400002	106.168869	150.9795
45.000000	106.122818	150.3223
45.500000	106.084198	149.7971
46.200001	106.031387	149.1050
46.799999	105.988503	148.5309
47.500000	105.939560	147.8425
48.200001	105.887741	147.1361
48.700001	105.849091	146.6492
49.400002	105.797005	146.0099
50.000000	105.754471	145.4733
50.799999	105.694550	144.7383
51.500000	105.638550	144.0864
52.200001	105.582153	143.4377
53.000000	105.517326	142.7273
53.799999	105.455589	142.0402
54.500000	105.402199	141.4219
55.200001	105.350525	140.8464
56.000000	105.305893	140.2445
57.000000	105.230927	139.4284
58.000000	105.136841	138.7452
59.000000	105.101074	137.6003
60.000000	104.993263	136.3654
60.799999	104.911827	136.2320
61.500000	104.896454	136.1367
62.200001	104.861969	135.6511
63.000000	104.782845	135.0215
64.000000	104.720802	134.3272
65.000000	104.657959	133.6135
66.000000	104.573357	133.0560
67.000000	104.497833	132.3984
68.000000	104.432220	131.7308
69.000000	104.367493	131.1236
70.000000	104.293777	130.5092
71.000000	104.225212	129.8503
72.000000	104.162971	129.2802
73.000000	104.099533	128.8047
74.000000	104.025185	128.2660
75.000000	103.954254	127.6499
76.199997	103.885124	126.9093
77.500000	103.801506	126.2662
78.800003	103.713631	125.6124
80.000000	103.637428	124.9241
81.199997	103.563187	124.3255
82.500000	103.482079	123.7675
83.800003	103.398071	123.1011
85.000000	103.328018	122.5203
86.199997	103.259743	121.9774
87.500000	103.181206	121.3904
88.500000	103.122665	120.9277
90.000000	103.036362	120.3006
91.199997	102.968842	119.7765
92.500000	102.892990	119.2070
93.800003	102.822372	118.6475
95.000000	102.751129	118.1575
96.199997	102.687309	117.6805
97.500000	102.616570	117.1354
98.800003	102.547104	116.6456
100.000000	102.486038	116.1836
101.500000	102.406380	115.6027
103.000000	102.328285	115.0388
104.400002	102.259476	114.5268
106.000000	102.179115	113.9708
107.500000	102.106834	113.4287
109.000000	102.034752	112.9269
110.599998	101.954605	112.3463
112.000000	101.892570	111.8925
113.800003	101.800148	111.3173
115.000000	101.757935	110.8540
117.199997	101.650375	110.2212
118.000000	101.591484	109.8714
120.599998	101.574280	108.7253
122.000000	101.443756	108.9576
124.099998	101.355888	108.1179
125.000000	101.328720	107.8818
126.500000	101.254890	107.4518
128.000000	101.199158	106.9988
131.500000	101.064140	106.0031
132.000000	101.044334	105.8835
134.000000	100.960915	105.2926
136.000000	100.886086	104.7983
138.000000	100.817787	104.3253
140.000000	100.746490	103.7973
143.000000	100.639168	103.0559
145.000000	100.568329	102.5795
147.500000	100.490372	101.9564
150.000000	100.402321	101.3884
152.500000	100.325638	100.8271
155.000000	100.247055	100.2457
157.500000	100.169731	99.7052
160.000000	100.092514	99.1432
162.500000	100.014786	98.6409
165.000000	99.941650	98.1223
167.500000	99.869995	97.5975
170.000000	99.797791	97.1425
172.500000	99.726898	96.6883
175.000000	99.654861	96.2141
177.500000	99.581696	95.7879
180.000000	99.534378	95.3033
182.500000	99.444374	95.0252
185.000000	99.370346	94.6597
187.500000	99.304886	94.3530
190.000000	99.243309	94.1548
192.500000	99.169991	93.9966
195.000000	99.128708	93.9393
197.500000	99.091026	93.8659
200.000000	99.096939	93.9918
203.000000	99.136879	93.8575
206.000000	99.197998	93.4937
209.000000	99.256134	92.7641
212.000000	99.280609	91.8234
214.000000	99.277229	91.1732
218.000000	99.237350	90.0047
220.000000	99.206978	89.4614
224.000000	99.140709	88.4660
227.000000	99.087898	87.8569
230.000000	99.039276	87.2213
233.000000	98.989578	86.6812
236.000000	98.941895	86.1604
240.000000	98.860550	84.9334
243.000000	98.834442	84.9820
247.000000	98.782639	84.3388
250.000000	98.749519	83.8564
254.000000	98.697472	83.2905
258.000000	98.651077	82.6815
262.000000	98.606903	82.1414
265.000000	98.574585	81.7365
269.000000	98.527794	81.2220
272.000000	98.503639	80.7781
276.000000	98.465187	80.2745
280.000000	98.432442	79.7548
285.000000	98.389153	79.1466
290.000000	98.349396	78.5334
295.000000	98.316162	77.9436
300.000000	98.330109	77.6011
304.000000	98.258354	76.8775
307.000000	98.236572	76.5490
311.000000	98.210892	76.1201
315.000000	98.187698	75.6915
320.000000	98.159111	75.1510
325.000000	98.130280	74.6108
330.000000	98.106110	74.1054
335.000000	98.085175	73.5943
340.000000	98.061157	73.0919
345.000000	98.043182	72.5930
350.000000	98.022774	72.1270
355.000000	98.003609	71.6218
360.000000	97.992393	71.0471
365.000000	97.966713	70.6745
370.000000	97.945999	70.2444
375.000000	97.926773	69.7766
382.000000	97.902016	69.1838
387.000000	97.884949	68.7263
395.000000	97.857788	68.0957
400.000000	97.838768	67.6869
406.000000	97.821144	67.2601
412.000000	97.798798	66.8168
418.000000	97.780930	66.3450
425.000000	97.759621	65.8926
431.000000	97.740685	65.4713
437.000000	97.722404	65.1112
444.000000	97.695961	64.7187
450.000000	97.678741	64.4187
455.000000	97.664734	64.1939
462.000000	97.644760	63.8697
468.000000	97.634476	63.6970
475.000000	97.635353	63.5381
482.000000	97.656448	63.4181
487.000000	97.685730	63.2055
494.000000	97.731171	62.8231
500.000000	97.753395	62.3358
508.000000	97.765686	61.7285
515.000000	97.766251	61.2092
522.000000	97.758621	60.7528
530.000000	97.746048	60.2451
538.000000	97.739189	59.8208
545.000000	97.723534	59.4424
552.000000	97.713356	59.1163
560.000000	97.699379	58.7717
570.000000	97.683609	58.3514
580.000000	97.663704	57.9703
590.000000	97.651138	57.6170
600.000000	97.644775	57.3449
608.000000	97.626587	57.0738
615.000000	97.621803	56.8655
622.000000	97.612442	56.6891
630.000000	97.605057	56.4725
640.000000	97.593575	56.2548
650.000000	97.584061	56.0490
660.000000	97.605652	55.8969
670.000000	97.564697	55.6870
680.000000	97.556190	55.5193
690.000000	97.551262	55.4031
700.000000	97.545181	55.3010
710.000000	97.539337	55.2183
720.000000	97.545738	55.1689
730.000000	97.531166	55.0881
740.000000	97.529282	55.0566
750.000000	97.528442	55.0304
762.000000	97.527916	55.0673
775.000000	97.533676	55.1003
788.000000	97.539177	55.1374
800.000000	97.541016	55.2184
812.000000	97.549683	55.3248
825.000000	97.560791	55.4765
838.000000	97.578812	55.6678
850.000000	97.599472	55.9090
862.000000	97.633781	56.1345
875.000000	97.679146	56.3356
885.000000	97.714958	56.4429
900.000000	97.746216	56.5887
912.000000	97.800537	56.6859
925.000000	97.837700	56.8503
938.000000	97.881668	57.0478
950.000000	97.922791	57.2057
962.000000	97.965637	57.3963
975.000000	98.024841	57.5940
988.000000	98.078163	57.7640
1000.000000	98.128181	57.9221
1015.000000	98.199417	58.1634
1030.000000	98.268112	58.3317
1044.000000	98.334084	58.5076
1060.000000	98.417152	58.7193
1075.000000	98.492249	58.9184
1090.000000	98.575165	59.1211
1106.000000	98.661133	59.3329
1120.000000	98.748871	59.5045
1138.000000	98.863762	59.7115
1150.000000	98.942963	59.8277
1172.000000	99.096680	59.9979
1180.000000	99.155457	60.0136
1206.000000	99.355576	60.0148
1220.000000	99.456596	59.9286
1241.000000	99.607697	59.7485
1250.000000	99.668808	59.6350
1265.000000	99.771370	59.4028
1280.000000	99.869209	59.1667
1315.000000	100.062927	58.5214
1320.000000	100.089821	58.3606
1340.000000	100.184471	58.0220
1360.000000	100.270424	57.6248
1380.000000	100.353622	57.2759
1400.000000	100.417915	56.9113
1430.000000	100.516174	56.3944
1450.000000	100.571617	56.1061
1475.000000	100.638412	55.7506
1500.000000	100.706520	55.4603
1525.000000	100.756424	55.1972
1550.000000	100.815712	54.9746
1575.000000	100.869057	54.7762
1600.000000	100.921722	54.6434
1625.000000	100.975662	54.5203
1650.000000	101.029823	54.4157
1675.000000	101.084099	54.3492
1700.000000	101.140701	54.3057
1725.000000	101.199684	54.2848
1750.000000	101.256645	54.2701
1775.000000	101.319534	54.2738
1800.000000	101.384163	54.2988
1825.000000	101.450851	54.3022
1850.000000	101.517166	54.3376
1875.000000	101.589668	54.3966
1900.000000	101.662979	54.4130
1925.000000	101.740433	54.4344
1950.000000	101.818336	54.4996
1975.000000	101.900177	54.5254
2000.000000	101.981964	54.5439
2030.000000	102.088745	54.5724
2060.000000	102.195190	54.5847
2090.000000	102.307983	54.5708
2120.000000	102.421707	54.5238
2140.000000	102.497589	54.4850
2180.000000	102.656876	54.3889
2200.000000	102.737984	54.3015
2240.000000	102.901627	54.1004
2270.000000	103.025192	53.9256
2300.000000	103.148811	53.7046
2330.000000	103.276817	53.4655
2360.000000	103.401855	53.1738
2400.000000	103.571030	52.7159
2430.000000	103.697052	52.3347
2470.000000	103.863052	51.7478
2500.000000	103.984627	51.2507
2540.000000	104.139694	50.5271
2580.000000	104.290192	49.7241
2620.000000	104.430542	48.8570
2650.000000	104.530777	48.1576
2690.000000	104.653709	47.1691
2720.000000	104.737267	46.3950
2760.000000	104.837845	45.3225
2800.000000	104.924774	44.2056
2850.000000	105.012398	42.7692
2900.000000	105.076157	41.3217
2950.000000	105.114006	39.8655
3000.000000	105.133530	38.4386
3040.000000	105.130386	37.3349
3070.000000	105.123978	36.5329
3110.000000	105.100845	35.4813
3150.000000	105.069260	34.5065
3200.000000	105.014687	33.3475
3250.000000	104.950134	32.3017
3300.000000	104.877594	31.3214
3350.000000	104.798233	30.4583
3400.000000	104.716148	29.6801
3450.000000	104.629761	28.9963
3500.000000	104.541832	28.3791
3550.000000	104.458176	27.8660
3600.000000	104.376938	27.4097
3650.000000	104.296402	27.0286
3700.000000	104.217812	26.7130
3750.000000	104.146713	26.4604
3820.000000	104.052559	26.1685
3870.000000	103.994598	26.0074
3950.000000	103.911140	25.8311
4000.000000	103.868057	25.7400
4060.000000	103.824318	25.6750
4120.000000	103.788582	25.5891
4180.000000	103.758446	25.5037
4250.000000	103.735275	25.4050
4310.000000	103.723373	25.2968
4370.000000	103.716179	25.1567
4440.000000	103.712158	24.9611
4500.000000	103.714851	24.7538
4550.000000	103.719864	24.5395
4620.000000	103.729065	24.2113
4680.000000	103.738861	23.8386
4750.000000	103.746567	23.3332
4820.000000	103.749329	22.6960
4870.000000	103.749428	22.1978
4940.000000	103.734665	21.3954
5000.000000	103.709785	20.6337
5080.000000	103.646393	19.5198
5150.000000	103.565475	18.4852
5220.000000	103.451553	17.4171
5300.000000	103.279442	16.2425
5380.000000	103.057816	15.1972
5450.000000	102.823997	14.4730
5520.000000	102.562851	13.9912
5600.000000	102.235191	13.7825
5700.000000	101.812569	14.1226
5800.000000	101.404831	15.1315
5900.000000	101.040039	16.7958
6000.000000	100.746552	18.9807
6080.000000	100.571861	21.0212
6150.000000	100.473099	22.9413
6220.000000	100.430908	24.9503
6300.000000	100.451759	27.2329
6400.000000	100.592201	29.8059
6500.000000	100.824257	31.8687
6600.000000	101.110657	33.2646
6700.000000	101.411011	33.9931
6800.000000	101.689735	34.1339
6900.000000	101.933632	33.8663
7000.000000	102.138008	33.4017
7100.000000	102.317848	32.8823
7200.000000	102.483315	32.3555
7300.000000	102.665092	31.7867
7400.000000	102.865433	31.1651
7500.000000	103.107994	30.3350
7620.000000	103.463005	28.9196
7750.000000	103.917168	26.2770
7880.000000	104.373276	22.0295
8000.000000	104.700661	16.3647
8120.000000	104.776848	9.0131
8250.000000	104.366470	0.2891
8380.000000	103.462265	-6.7576
8500.000000	102.489731	-10.8337
8620.000000	101.514694	-13.6778
8750.000000	100.344376	-15.3025
8850.000000	99.435425	-14.8865
9000.000000	98.292908	-11.7555
9120.000000	97.668610	-7.8608
9250.000000	97.315651	-3.2423
9380.000000	97.279602	0.7864
9500.000000	97.456398	3.9813
9620.000000	97.925819	6.2172
9750.000000	98.547318	5.8572
9880.000000	99.127625	3.4878
10000.000000	99.541145	-0.5516
10150.000000	99.739372	-7.2582
10300.000000	99.514206	-14.2826
10440.000000	98.990898	-19.9175
10600.000000	98.224915	-24.6211
10750.000000	97.481224	-27.3757
10900.000000	96.796532	-28.9000
11060.000000	96.220863	-29.9039
11200.000000	95.759537	-30.9783
11380.000000	95.176994	-30.2166
11500.000000	95.042328	-30.0393
11720.000000	94.901215	-30.7463
11800.000000	94.888786	-31.4313
12060.000000	94.911682	-34.5796
12200.000000	94.909714	-37.2007
12410.000000	94.823486	-42.3810
12500.000000	94.700050	-44.8205
12650.000000	94.342659	-48.7743
12800.000000	93.756851	-51.1210
13150.000000	94.521683	-61.3021
13200.000000	94.224182	-63.3850
13400.000000	93.343300	-68.3394
13600.000000	92.757782	-71.4431
13800.000000	92.467178	-73.9437
14000.000000	92.555229	-76.9031
14300.000000	93.098183	-83.4257
14500.000000	93.901604	-90.2339
14750.000000	95.263565	-104.3441
15000.000000	96.382706	-127.1364
15250.000000	96.322510	-155.7334
15500.000000	95.083794	178.1972
15750.000000	93.680359	156.7310
16000.000000	92.705589	137.0418
16250.000000	92.116089	115.4071
16500.000000	91.582169	90.5496
16750.000000	90.869781	62.9403
17000.000000	89.808350	33.8251
17250.000000	88.502914	5.3127
17500.000000	87.237274	-22.3414
17750.000000	86.241364	-50.2344
18000.000000	85.684731	-79.2715
18250.000000	85.594475	-111.7300
18500.000000	85.904579	-151.6047
18750.000000	86.092186	160.9409
19000.000000	85.979218	105.6108
19250.000000	85.526237	40.4380
19500.000000	84.333916	-36.9210
19750.000000	81.744789	-126.3335
