* Measurement data measured by REW V5.20
* Source: USB-C to 3.5mm Headphone Jack Adapter, USB-C to 3.5mm Headphone Jack Adapter, 0, volume: 0.138
* Format: 256k Log Swept Sine, 1 sweep at -12.0 dBFS with no timing reference
* Dated: Jul 25, 2023 4:52:55 PM
* REW Settings:
*  C-weighting compensation: Off
*  Target level: 75.0 dB
* Note: 
* Measurement: L
* Smoothing: None
* Frequency Step: 1/48 octave
* Start Frequency: 20.300 Hz
*
* Freq(Hz)	SPL(dB)	Phase(degrees)
20.299999	99.552101	-155.5863
20.600000	99.563766	-156.1114
20.900000	99.570793	-156.5911
21.200001	99.577980	-157.0795
21.400000	99.583298	-157.4100
21.799999	99.594955	-158.0619
22.000000	99.601410	-158.3725
22.400000	99.616623	-158.9496
22.700001	99.631088	-159.3500
23.000000	99.647606	-159.7447
23.299999	99.663811	-160.1572
23.600000	99.676117	-160.6007
24.000000	99.681427	-161.2251
24.299999	99.677811	-161.6827
24.700001	99.671097	-162.2277
25.000000	99.673134	-162.5815
25.400000	99.692841	-163.0201
25.799999	99.727341	-163.4957
26.200001	99.758911	-164.0419
26.500000	99.769409	-164.4688
26.900000	99.761169	-164.9792
27.200001	99.743019	-165.2751
27.600000	99.718613	-165.5593
28.000000	99.707870	-165.8033
28.500000	99.715919	-166.2302
29.000000	99.725273	-166.8517
29.500000	99.717514	-167.5178
30.000000	99.700493	-168.0371
30.400000	99.693970	-168.3309
30.700001	99.697014	-168.5237
31.100000	99.708801	-168.8063
31.500000	99.721062	-169.1528
32.000000	99.726410	-169.6491
32.500000	99.719467	-170.1394
33.000000	99.708176	-170.5699
33.500000	99.699860	-170.9442
34.000000	99.696892	-171.3025
34.500000	99.696793	-171.6859
35.000000	99.695587	-172.1058
35.500000	99.691483	-172.5330
36.000000	99.688507	-172.9296
36.500000	99.690880	-173.2951
37.000000	99.694939	-173.6573
37.500000	99.691269	-174.0178
38.200001	99.669327	-174.4589
38.700001	99.652802	-174.7416
39.500000	99.635773	-175.3017
40.000000	99.622375	-175.7084
40.599998	99.604507	-176.1146
41.200001	99.598877	-176.3990
41.799999	99.605980	-176.6732
42.500000	99.608597	-177.0839
43.099998	99.597939	-177.4685
43.700001	99.584671	-177.8201
44.400002	99.576889	-178.1752
45.000000	99.572670	-178.4739
45.500000	99.562096	-178.7495
46.200001	99.532822	-179.1687
46.799999	99.508087	-179.5298
47.500000	99.496582	-179.9290
48.200001	99.497154	179.7482
48.700001	99.494980	179.5667
49.400002	99.476517	179.2909
50.000000	99.453758	178.9965
50.799999	99.456673	178.4863
51.500000	99.469215	177.9439
52.200001	99.431534	177.7478
53.000000	99.395935	177.9155
53.799999	99.375969	177.1990
54.500000	99.304176	176.4948
55.200001	99.348053	176.7324
56.000000	99.470322	176.4749
57.000000	99.137520	176.3268
58.000000	99.322815	175.8786
59.000000	99.583145	168.7715
60.000000	99.005981	169.3861
60.799999	99.231827	174.7250
61.500000	99.427238	174.9654
62.200001	99.162933	173.9294
63.000000	99.008041	174.0344
64.000000	99.181671	173.0896
65.000000	99.104797	173.0188
66.000000	99.066322	172.9914
67.000000	99.003532	172.1991
68.000000	99.021873	172.1086
69.000000	99.002487	171.9186
70.000000	98.940109	171.6347
71.000000	98.922012	171.2335
72.000000	98.906822	170.9659
73.000000	98.871475	170.8199
74.000000	98.846252	170.5855
75.000000	98.820633	170.2758
76.199997	98.783005	169.9343
77.500000	98.751213	169.5703
78.800003	98.710236	169.1886
80.000000	98.667206	168.9026
81.199997	98.644188	168.6426
82.500000	98.620605	168.3145
83.800003	98.564507	168.0367
85.000000	98.525986	167.7920
86.199997	98.485336	167.6057
87.500000	98.454445	167.3804
88.500000	98.429039	167.1198
90.000000	98.382881	166.6954
91.199997	98.337883	166.4771
92.500000	98.301064	166.2206
93.800003	98.251030	165.9572
95.000000	98.215401	165.7316
96.199997	98.167305	165.4733
97.500000	98.137833	165.2267
98.800003	98.081718	164.9955
100.000000	98.050217	164.9018
101.500000	97.989746	164.5113
103.000000	97.931114	164.3085
104.400002	97.883987	164.1534
106.000000	97.814896	163.9572
107.500000	97.748436	163.7090
109.000000	97.691589	163.5756
110.599998	97.597893	163.4483
112.000000	97.537033	163.3099
113.800003	97.439972	163.4438
115.000000	97.368500	163.4156
117.199997	97.344971	163.5754
118.000000	97.270638	163.9128
120.599998	97.262314	164.6545
122.000000	97.280533	164.9339
124.099998	97.330536	164.8314
125.000000	97.352402	164.7031
126.500000	97.353828	164.3830
128.000000	97.361877	164.0902
131.500000	97.307709	163.3108
132.000000	97.298935	163.2307
134.000000	97.253693	162.8459
136.000000	97.200195	162.5835
138.000000	97.150856	162.3112
140.000000	97.089218	162.0723
143.000000	97.008118	161.7281
145.000000	96.952850	161.5897
147.500000	96.873695	161.3968
150.000000	96.806580	161.1906
152.500000	96.737846	161.0606
155.000000	96.665451	160.9145
157.500000	96.601349	160.8193
160.000000	96.526428	160.7614
162.500000	96.460541	160.6797
165.000000	96.403961	160.6187
167.500000	96.346344	160.5894
170.000000	96.280441	160.4850
172.500000	96.222755	160.4617
175.000000	96.160187	160.3955
177.500000	96.097855	160.3257
180.000000	96.040718	160.3256
182.500000	95.981262	160.2619
185.000000	95.921181	160.2718
187.500000	95.864960	160.2800
190.000000	95.799232	160.2961
192.500000	95.744881	160.2653
195.000000	95.690536	160.2878
197.500000	95.631187	160.3361
200.000000	95.579681	160.3420
203.000000	95.503578	160.3903
206.000000	95.440552	160.3921
209.000000	95.367210	160.4493
212.000000	95.302277	160.5339
214.000000	95.247871	160.6191
218.000000	95.154785	160.7449
220.000000	95.125160	160.9670
224.000000	95.033203	161.2874
227.000000	94.995857	161.5623
230.000000	94.973618	161.7257
233.000000	94.960297	161.7192
236.000000	94.904373	161.5984
240.000000	94.834229	161.9163
243.000000	94.812248	161.7526
247.000000	94.732849	161.9698
250.000000	94.682274	161.9297
254.000000	94.610138	162.0465
258.000000	94.542938	162.2763
262.000000	94.473274	162.2344
265.000000	94.425575	162.2108
269.000000	94.365280	162.6628
272.000000	94.318787	162.6679
276.000000	94.243698	162.8940
280.000000	94.188843	163.0995
285.000000	94.113617	163.3270
290.000000	94.036102	163.5962
295.000000	93.962410	163.9003
300.000000	93.876602	164.1732
304.000000	93.842972	164.3655
307.000000	93.800034	164.4769
311.000000	93.734879	164.7426
315.000000	93.682526	164.9541
320.000000	93.621841	165.2596
325.000000	93.564949	165.5678
330.000000	93.496330	165.8871
335.000000	93.469734	166.1098
340.000000	93.376175	166.4048
345.000000	93.303276	166.7379
350.000000	93.256958	167.0981
355.000000	93.210709	167.4343
360.000000	93.162247	167.6705
365.000000	93.113327	168.0725
370.000000	93.060745	168.3917
375.000000	93.006966	168.8004
382.000000	92.941177	169.1881
387.000000	92.896400	169.4993
395.000000	92.817322	170.0321
400.000000	92.770798	170.4120
406.000000	92.725418	170.7531
412.000000	92.676849	171.1837
418.000000	92.616096	171.5796
425.000000	92.563065	172.0936
431.000000	92.514626	172.5356
437.000000	92.472313	172.8848
444.000000	92.418121	173.3732
450.000000	92.374161	173.7852
455.000000	92.341530	174.2513
462.000000	92.297089	174.6801
468.000000	92.243484	175.1646
475.000000	92.207123	175.5667
482.000000	92.161034	176.0699
487.000000	92.132088	176.4713
494.000000	92.087654	176.9505
500.000000	92.055908	177.3740
508.000000	92.012611	177.9879
515.000000	91.975647	178.4531
522.000000	91.931824	178.9472
530.000000	91.893013	179.5387
538.000000	91.853615	-179.8627
545.000000	91.821465	-179.4012
552.000000	91.790543	-178.9100
560.000000	91.750870	-178.2852
570.000000	91.704269	-177.5644
580.000000	91.659035	-176.8316
590.000000	91.612007	-176.0968
600.000000	91.578751	-175.3922
608.000000	91.544975	-174.7253
615.000000	91.515099	-174.1975
622.000000	91.491226	-173.6555
630.000000	91.461739	-173.0269
640.000000	91.424683	-172.1922
650.000000	91.399963	-171.4424
660.000000	91.363358	-170.6719
670.000000	91.348610	-169.8302
680.000000	91.330276	-168.9969
690.000000	91.314713	-168.2262
700.000000	91.291542	-167.3354
710.000000	91.288124	-166.5443
720.000000	91.271278	-165.7536
730.000000	91.266342	-164.9181
740.000000	91.254257	-164.1211
750.000000	91.257233	-163.2805
762.000000	91.250275	-162.3201
775.000000	91.253471	-161.2276
788.000000	91.258766	-160.1710
800.000000	91.268021	-159.1310
812.000000	91.280495	-158.1502
825.000000	91.300453	-157.0845
838.000000	91.323761	-156.0034
850.000000	91.351364	-154.9808
862.000000	91.377991	-153.9789
875.000000	91.420456	-152.9357
885.000000	91.450569	-152.0795
900.000000	91.511757	-150.8772
912.000000	91.553879	-149.8689
925.000000	91.613876	-148.8365
938.000000	91.682205	-147.7802
950.000000	91.744675	-146.8517
962.000000	91.805939	-145.9201
975.000000	91.891479	-144.9795
988.000000	91.976669	-144.0078
1000.000000	92.052391	-143.1163
1015.000000	92.157486	-142.0945
1030.000000	92.271713	-141.0993
1044.000000	92.381187	-140.2664
1060.000000	92.506393	-139.3485
1075.000000	92.623505	-138.4223
1090.000000	92.758492	-137.6125
1106.000000	92.903381	-136.8719
1120.000000	93.022362	-136.2444
1138.000000	93.175705	-135.4645
1150.000000	93.277176	-134.9706
1172.000000	93.460709	-134.2058
1180.000000	93.528236	-133.9378
1206.000000	93.735573	-133.1437
1220.000000	93.846329	-132.7153
1241.000000	94.004463	-132.2002
1250.000000	94.070099	-131.9648
1265.000000	94.178047	-131.6316
1280.000000	94.285828	-131.2935
1315.000000	94.517807	-130.5859
1320.000000	94.549927	-130.5052
1340.000000	94.673035	-130.1364
1360.000000	94.792145	-129.7404
1380.000000	94.909523	-129.3449
1400.000000	95.021095	-129.0290
1430.000000	95.183136	-128.4850
1450.000000	95.287338	-128.1135
1475.000000	95.415092	-127.6540
1500.000000	95.539825	-127.2072
1525.000000	95.665985	-126.6986
1550.000000	95.790405	-126.2275
1575.000000	95.917374	-125.7514
1600.000000	96.045601	-125.2646
1625.000000	96.169258	-124.7723
1650.000000	96.298973	-124.2710
1675.000000	96.428436	-123.7766
1700.000000	96.558533	-123.3022
1725.000000	96.691452	-122.8468
1750.000000	96.831253	-122.3835
1775.000000	96.965591	-121.9218
1800.000000	97.109047	-121.4785
1825.000000	97.247902	-121.0560
1850.000000	97.392380	-120.6714
1875.000000	97.539909	-120.2802
1900.000000	97.692902	-119.9023
1925.000000	97.841522	-119.5545
1950.000000	97.996269	-119.2469
1975.000000	98.151512	-118.9482
2000.000000	98.310867	-118.6985
2030.000000	98.502014	-118.4087
2060.000000	98.694794	-118.1841
2090.000000	98.888702	-117.9881
2120.000000	99.087120	-117.8632
2140.000000	99.217911	-117.8226
2180.000000	99.482864	-117.7783
2200.000000	99.614182	-117.7994
2240.000000	99.874786	-117.9116
2270.000000	100.063896	-118.0618
2300.000000	100.257690	-118.2693
2330.000000	100.443474	-118.5301
2360.000000	100.629257	-118.8639
2400.000000	100.863831	-119.3754
2430.000000	101.037003	-119.8171
2470.000000	101.255875	-120.4868
2500.000000	101.413315	-121.0315
2540.000000	101.609489	-121.8573
2580.000000	101.791611	-122.7040
2620.000000	101.955780	-123.6356
2650.000000	102.071037	-124.3409
2690.000000	102.208984	-125.3086
2720.000000	102.302353	-126.0580
2760.000000	102.412567	-127.0456
2800.000000	102.507324	-128.0168
2850.000000	102.603363	-129.2289
2900.000000	102.682854	-130.3721
2950.000000	102.742996	-131.4534
3000.000000	102.787201	-132.4722
3040.000000	102.816772	-133.2187
3070.000000	102.833801	-133.7581
3110.000000	102.851509	-134.4294
3150.000000	102.863708	-135.0389
3200.000000	102.879593	-135.7582
3250.000000	102.890053	-136.4151
3300.000000	102.901268	-136.9919
3350.000000	102.910995	-137.5394
3400.000000	102.919357	-138.0441
3450.000000	102.929375	-138.5250
3500.000000	102.942062	-138.9559
3550.000000	102.950424	-139.3866
3600.000000	102.961479	-139.7733
3650.000000	102.970428	-140.1404
3700.000000	102.981819	-140.4596
3750.000000	102.997734	-140.7556
3820.000000	103.033813	-141.1027
3870.000000	103.066551	-141.3802
3950.000000	103.136108	-141.8128
4000.000000	103.189072	-142.1477
4060.000000	103.264534	-142.6070
4120.000000	103.346024	-143.2048
4180.000000	103.427094	-143.9243
4250.000000	103.515289	-144.9152
4310.000000	103.578590	-145.8988
4370.000000	103.631958	-146.9798
4440.000000	103.676895	-148.3649
4500.000000	103.698372	-149.6304
4550.000000	103.699219	-150.7566
4620.000000	103.675240	-152.3787
4680.000000	103.626328	-153.8031
4750.000000	103.532005	-155.4146
4820.000000	103.406563	-156.7995
4870.000000	103.320969	-157.6023
4940.000000	103.251953	-158.8193
5000.000000	103.180473	-160.2785
5080.000000	102.991241	-162.2991
5150.000000	102.769417	-163.9161
5220.000000	102.507668	-165.3162
5300.000000	102.176781	-166.5820
5380.000000	101.825935	-167.4637
5450.000000	101.520119	-167.9455
5520.000000	101.216797	-168.2118
5600.000000	100.889381	-168.2936
5700.000000	100.494370	-168.0894
5800.000000	100.123703	-167.6367
5900.000000	99.781845	-166.9053
6000.000000	99.470955	-165.9809
6080.000000	99.247505	-165.1008
6150.000000	99.072098	-164.2319
6220.000000	98.908745	-163.2804
6300.000000	98.752411	-162.1169
6400.000000	98.594116	-160.5692
6500.000000	98.484077	-158.8987
6600.000000	98.431725	-157.1762
6700.000000	98.435684	-155.4631
6800.000000	98.502762	-153.8008
6900.000000	98.627312	-152.1997
7000.000000	98.822517	-150.7507
7100.000000	99.087212	-149.4501
7200.000000	99.437195	-148.4604
7300.000000	99.877121	-147.8914
7400.000000	100.409531	-147.9941
7500.000000	101.014313	-148.9111
7620.000000	101.826408	-151.4401
7750.000000	102.736107	-156.6317
7880.000000	103.484474	-164.8848
8000.000000	103.797821	-174.8322
8120.000000	103.581757	174.4680
8250.000000	102.802711	164.2209
8380.000000	101.718643	156.5342
8500.000000	100.639351	151.3467
8620.000000	99.522499	147.6644
8750.000000	98.324455	145.0948
8850.000000	97.420807	144.0917
9000.000000	96.160187	143.9126
9120.000000	95.267097	144.6564
9250.000000	94.374954	146.1648
9380.000000	93.609627	148.0616
9500.000000	92.995056	150.1035
9620.000000	92.457016	152.3130
9750.000000	91.969971	154.8071
9880.000000	91.568230	157.4326
10000.000000	91.257339	159.9603
10150.000000	91.037224	163.3240
10300.000000	90.929428	165.9675
10440.000000	90.869118	168.2934
10600.000000	90.905685	170.9080
10750.000000	91.066002	173.0934
10900.000000	91.337631	175.0009
11060.000000	91.739235	176.4672
11200.000000	92.232544	177.3507
11380.000000	93.058388	177.2621
11500.000000	93.738335	176.4465
11720.000000	95.252396	172.1231
11800.000000	95.883926	169.2926
12060.000000	97.948212	152.7480
12200.000000	98.612473	138.1286
12410.000000	97.890846	113.2888
12500.000000	96.929161	104.6857
12650.000000	94.851067	96.8745
12800.000000	93.369858	101.0920
13150.000000	94.587387	80.7045
13200.000000	94.177322	77.1805
13400.000000	92.636971	68.3410
13600.000000	91.553452	62.7484
13800.000000	90.839005	58.1423
14000.000000	90.461411	53.4926
14300.000000	90.400551	45.6279
14500.000000	90.738007	39.3437
14750.000000	91.600311	29.5551
15000.000000	92.938454	16.4448
15250.000000	94.786629	-2.1829
15500.000000	96.796219	-29.9150
15750.000000	97.795166	-68.3669
16000.000000	97.213676	-106.6006
16250.000000	95.401962	-140.3889
16500.000000	94.294739	-171.6147
16750.000000	93.481339	152.5605
17000.000000	92.017380	108.6465
17250.000000	88.824448	62.7343
17500.000000	84.509300	22.6138
17750.000000	80.150032	-12.2983
18000.000000	75.946198	-45.2494
18250.000000	71.908241	-81.9091
18500.000000	68.161140	-120.6106
18750.000000	63.660870	-163.6606
19000.000000	59.001564	139.5715
19250.000000	54.861767	59.4592
19500.000000	50.204346	-30.1379
19750.000000	50.505447	-145.9254
