* Measurement data measured by REW V5.20
* Source: USB-C to 3.5mm Headphone Jack Adapter, USB-C to 3.5mm Headphone Jack Adapter, 0, volume: 0.663. Timing signal peak level -4.4 dBFS, measurement signal peak level -4.4 dBFS
* Format: 256k Log Swept Sine, 1 sweep at -12.0 dBFS using an acoustic timing reference
* Dated: Mar 27, 2021 10:50:40 AM
* REW Settings:
*  C-weighting compensation: Off
*  Target level: 75.0 dB
* Note: Delay -0.0951 ms (-33 mm, -1.28 in) using estimated IR delay relative to Acoustic reference on USB-C to 3.5mm Headphone Jack Adapter L with no timing offset
* Measurement: Simgot EN700 Pro
* Smoothing: 1/12 octave
* Frequency Step: 1/48 octave
* Start Frequency: 20.300 Hz
*
* Freq(Hz)	SPL(dB)	Phase(degrees)
20.299999	109.637451	-158.1689
20.600000	109.640839	-158.2919
20.900000	109.651306	-158.5932
21.200001	109.666801	-158.9550
21.400000	109.679565	-159.2195
21.799999	109.707214	-159.7898
22.000000	109.720352	-160.0879
22.400000	109.742752	-160.6884
22.700001	109.755432	-161.1217
23.000000	109.765274	-161.5308
23.299999	109.773331	-161.9164
23.600000	109.780380	-162.2874
24.000000	109.788361	-162.7806
24.299999	109.792549	-163.1617
24.700001	109.794632	-163.6910
25.000000	109.793472	-164.0986
25.400000	109.789474	-164.6424
25.799999	109.785294	-165.1698
26.200001	109.783463	-165.6688
26.500000	109.784264	-166.0204
26.900000	109.787842	-166.4558
27.200001	109.791916	-166.7560
27.600000	109.798874	-167.1250
28.000000	109.807915	-167.4737
28.500000	109.822517	-167.9262
29.000000	109.837891	-168.4520
29.500000	109.848175	-169.0579
30.000000	109.849472	-169.6738
30.400000	109.845963	-170.1082
30.700001	109.843575	-170.3761
31.100000	109.844322	-170.6541
31.500000	109.851494	-170.8711
32.000000	109.866592	-171.1349
32.500000	109.879608	-171.4692
33.000000	109.880333	-171.9017
33.500000	109.865128	-172.3919
34.000000	109.839821	-172.8607
34.500000	109.815971	-173.2500
35.000000	109.803734	-173.5615
35.500000	109.804398	-173.8464
36.000000	109.809479	-174.1590
36.500000	109.808395	-174.5135
37.000000	109.796852	-174.8837
37.500000	109.778839	-175.2392
38.200001	109.756882	-175.7058
38.700001	109.749100	-176.0373
39.500000	109.747437	-176.5893
40.000000	109.748833	-176.9398
40.599998	109.749405	-177.3506
41.200001	109.746704	-177.7369
41.799999	109.739723	-178.0894
42.500000	109.726074	-178.4633
43.099998	109.710007	-178.7698
43.700001	109.690674	-179.0783
44.400002	109.666504	-179.4428
45.000000	109.647263	-179.7512
45.500000	109.634071	179.9974
46.200001	109.621361	179.6406
46.799999	109.614525	179.3076
47.500000	109.606544	178.8870
48.200001	109.596214	178.4950
48.700001	109.590118	178.2745
49.400002	109.588539	178.0489
50.000000	109.592117	177.8777
50.799999	109.591919	177.5952
51.500000	109.579468	177.2882
52.200001	109.558792	176.9597
53.000000	109.534119	176.5808
53.799999	109.512169	176.1892
54.500000	109.494789	175.8297
55.200001	109.479752	175.4636
56.000000	109.466110	175.0570
57.000000	109.447861	174.5723
58.000000	109.415695	174.0579
59.000000	109.369034	173.4924
60.000000	109.329361	173.0242
60.799999	109.317276	172.8025
61.500000	109.316216	172.6786
62.200001	109.312553	172.5549
63.000000	109.298096	172.3634
64.000000	109.270882	172.0376
65.000000	109.243736	171.6709
66.000000	109.217346	171.3256
67.000000	109.190010	170.9964
68.000000	109.163864	170.6580
69.000000	109.141357	170.3184
70.000000	109.120110	169.9951
71.000000	109.096130	169.6983
72.000000	109.068840	169.4313
73.000000	109.037415	169.1763
74.000000	108.999229	168.9027
75.000000	108.957283	168.5970
76.199997	108.914604	168.2125
77.500000	108.883293	167.8359
78.800003	108.854767	167.5117
80.000000	108.823059	167.2175
81.199997	108.789963	166.9131
82.500000	108.756332	166.5840
83.800003	108.723869	166.2484
85.000000	108.691795	165.9348
86.199997	108.656853	165.6356
87.500000	108.615967	165.3286
88.500000	108.582764	165.0988
90.000000	108.531372	164.7585
91.199997	108.490616	164.4928
92.500000	108.448624	164.2194
93.800003	108.408272	163.9622
95.000000	108.371017	163.7329
96.199997	108.333893	163.5040
97.500000	108.294495	163.2527
98.800003	108.255783	162.9986
100.000000	108.220016	162.7649
101.500000	108.174629	162.4823
103.000000	108.127983	162.2185
104.400002	108.083275	161.9888
106.000000	108.031639	161.7362
107.500000	107.983261	161.5015
109.000000	107.935173	161.2607
110.599998	107.884209	160.9958
112.000000	107.839905	160.7676
113.800003	107.783691	160.4893
115.000000	107.748238	160.3165
117.199997	107.692566	160.0078
118.000000	107.674782	159.8910
120.599998	107.603455	159.5172
122.000000	107.548660	159.3427
124.099998	107.461563	159.1010
125.000000	107.426895	158.9973
126.500000	107.373116	158.8248
128.000000	107.322174	158.6589
131.500000	107.205521	158.3171
132.000000	107.189117	158.2728
134.000000	107.123466	158.1011
136.000000	107.055939	157.9333
138.000000	106.986305	157.7758
140.000000	106.916702	157.6389
143.000000	106.816628	157.4665
145.000000	106.751457	157.3599
147.500000	106.667938	157.2339
150.000000	106.584015	157.1456
152.500000	106.505096	157.1072
155.000000	106.434647	157.0982
157.500000	106.373199	157.0890
160.000000	106.318016	157.0448
162.500000	106.265511	156.9542
165.000000	106.212402	156.8337
167.500000	106.156296	156.6935
170.000000	106.096512	156.5445
172.500000	106.033531	156.4056
175.000000	105.967590	156.2896
177.500000	105.898514	156.1873
180.000000	105.827118	156.0838
182.500000	105.754784	155.9824
185.000000	105.682930	155.9017
187.500000	105.612160	155.8465
190.000000	105.542206	155.8044
192.500000	105.472824	155.7704
195.000000	105.404205	155.7475
197.500000	105.336060	155.7344
200.000000	105.267624	155.7281
203.000000	105.185173	155.7275
206.000000	105.103577	155.7385
209.000000	105.023453	155.7659
212.000000	104.944664	155.8014
214.000000	104.892921	155.8256
218.000000	104.790810	155.8824
220.000000	104.740044	155.9202
224.000000	104.639839	156.0179
227.000000	104.566795	156.1027
230.000000	104.495987	156.1848
233.000000	104.427521	156.2538
236.000000	104.361053	156.3137
240.000000	104.272049	156.4234
243.000000	104.202515	156.5546
247.000000	104.109650	156.7612
250.000000	104.042336	156.9094
254.000000	103.955177	157.0915
258.000000	103.870003	157.2650
262.000000	103.786041	157.4322
265.000000	103.723557	157.5563
269.000000	103.641525	157.7300
272.000000	103.581474	157.8693
276.000000	103.502441	158.0637
280.000000	103.423996	158.2638
285.000000	103.327530	158.5151
290.000000	103.231049	158.7822
295.000000	103.135681	159.0858
300.000000	103.045181	159.3864
304.000000	102.976913	159.5948
307.000000	102.926544	159.7397
311.000000	102.858025	159.9343
315.000000	102.787277	160.1362
320.000000	102.697784	160.4013
325.000000	102.608955	160.6849
330.000000	102.521118	160.9888
335.000000	102.433907	161.3112
340.000000	102.347572	161.6455
345.000000	102.262871	161.9837
350.000000	102.180229	162.3234
355.000000	102.099457	162.6686
360.000000	102.020050	163.0187
365.000000	101.941910	163.3704
370.000000	101.864891	163.7276
375.000000	101.788948	164.0948
382.000000	101.684456	164.6217
387.000000	101.611282	164.9999
395.000000	101.497566	165.6072
400.000000	101.428322	165.9911
406.000000	101.346527	166.4563
412.000000	101.266129	166.9229
418.000000	101.187302	167.3894
425.000000	101.096840	167.9404
431.000000	101.020256	168.4210
437.000000	100.944885	168.9018
444.000000	100.858459	169.4542
450.000000	100.785156	169.9216
455.000000	100.724167	170.3116
462.000000	100.638260	170.8612
468.000000	100.563957	171.3329
475.000000	100.477226	171.8810
482.000000	100.392258	172.4299
487.000000	100.333000	172.8249
494.000000	100.250366	173.3838
500.000000	100.178322	173.8687
508.000000	100.079880	174.5217
515.000000	99.991623	175.1006
522.000000	99.901329	175.6920
530.000000	99.795700	176.3922
538.000000	99.687263	177.1295
545.000000	99.589928	177.8129
552.000000	99.491776	178.5396
560.000000	99.381721	179.4282
570.000000	99.251770	-179.3784
580.000000	99.133919	-178.1078
590.000000	99.030075	-176.7866
600.000000	98.941040	-175.4418
608.000000	98.880241	-174.3649
615.000000	98.833557	-173.4294
622.000000	98.791901	-172.5044
630.000000	98.749695	-171.4652
640.000000	98.704117	-170.2003
650.000000	98.664841	-168.9735
660.000000	98.629303	-167.7744
670.000000	98.595299	-166.5903
680.000000	98.562927	-165.4207
690.000000	98.532707	-164.2683
700.000000	98.504715	-163.1312
710.000000	98.478783	-162.0047
720.000000	98.454803	-160.8848
730.000000	98.432785	-159.7690
740.000000	98.412491	-158.6572
750.000000	98.393852	-157.5515
762.000000	98.374222	-156.2323
775.000000	98.356804	-154.8061
788.000000	98.342972	-153.3744
800.000000	98.333534	-152.0490
812.000000	98.327560	-150.7248
825.000000	98.324867	-149.2930
838.000000	98.326363	-147.8653
850.000000	98.332527	-146.5524
862.000000	98.343513	-145.2433
875.000000	98.360664	-143.8288
885.000000	98.377487	-142.7440
900.000000	98.407379	-141.1233
912.000000	98.434494	-139.8339
925.000000	98.468391	-138.4503
938.000000	98.508133	-137.0865
950.000000	98.549744	-135.8453
962.000000	98.595619	-134.6191
975.000000	98.649879	-133.3090
988.000000	98.708916	-132.0235
1000.000000	98.767593	-130.8625
1015.000000	98.845955	-129.4462
1030.000000	98.928513	-128.0670
1044.000000	99.008316	-126.8155
1060.000000	99.102577	-125.4323
1075.000000	99.194077	-124.1834
1090.000000	99.288307	-122.9822
1106.000000	99.390923	-121.7535
1120.000000	99.481583	-120.7215
1138.000000	99.597939	-119.4477
1150.000000	99.674683	-118.6280
1172.000000	99.812775	-117.1854
1180.000000	99.861992	-116.6805
1206.000000	100.017601	-115.1018
1220.000000	100.098351	-114.2847
1241.000000	100.215355	-113.0981
1250.000000	100.263992	-112.6008
1265.000000	100.342827	-111.7812
1280.000000	100.418808	-110.9712
1315.000000	100.585846	-109.1237
1320.000000	100.608688	-108.8640
1340.000000	100.697693	-107.8313
1360.000000	100.783058	-106.8038
1380.000000	100.865250	-105.7765
1400.000000	100.944885	-104.7465
1430.000000	101.060783	-103.1954
1450.000000	101.136208	-102.1511
1475.000000	101.229027	-100.8308
1500.000000	101.320976	-99.5008
1525.000000	101.412781	-98.1649
1550.000000	101.505226	-96.8191
1575.000000	101.599098	-95.4601
1600.000000	101.694786	-94.0909
1625.000000	101.792511	-92.7157
1650.000000	101.892654	-91.3350
1675.000000	101.995758	-89.9466
1700.000000	102.102013	-88.5511
1725.000000	102.211929	-87.1488
1750.000000	102.326660	-85.7394
1775.000000	102.447495	-84.3262
1800.000000	102.575546	-82.9188
1825.000000	102.710915	-81.5305
1850.000000	102.852142	-80.1763
1875.000000	102.996948	-78.8643
1900.000000	103.143547	-77.5894
1925.000000	103.291237	-76.3408
1950.000000	103.440460	-75.1094
1975.000000	103.592049	-73.8917
2000.000000	103.746643	-72.6882
2030.000000	103.936790	-71.2638
2060.000000	104.132851	-69.8630
2090.000000	104.335869	-68.4925
2120.000000	104.546516	-67.1621
2140.000000	104.691109	-66.3033
2180.000000	104.989120	-64.6696
2200.000000	105.141602	-63.8998
2240.000000	105.451111	-62.4579
2270.000000	105.686005	-61.4592
2300.000000	105.922676	-60.5296
2330.000000	106.161003	-59.6694
2360.000000	106.400696	-58.8807
2400.000000	106.721558	-57.9459
2430.000000	106.962120	-57.3371
2470.000000	107.280853	-56.6540
2500.000000	107.516907	-56.2409
2540.000000	107.825256	-55.8238
2580.000000	108.123505	-55.5557
2620.000000	108.408821	-55.4274
2650.000000	108.613037	-55.4151
2690.000000	108.871033	-55.4997
2720.000000	109.053314	-55.6321
2760.000000	109.280853	-55.8931
2800.000000	109.489647	-56.2458
2850.000000	109.721199	-56.8074
2900.000000	109.914871	-57.4811
2950.000000	110.065430	-58.2223
3000.000000	110.170059	-58.9634
3040.000000	110.221436	-59.5009
3070.000000	110.243034	-59.8433
3110.000000	110.253693	-60.1903
3150.000000	110.250603	-60.3940
3200.000000	110.240295	-60.4566
3250.000000	110.234283	-60.3732
3300.000000	110.233803	-60.2441
3350.000000	110.229324	-60.1301
3400.000000	110.210068	-60.0178
3450.000000	110.171761	-59.8519
3500.000000	110.116386	-59.5836
3550.000000	110.048340	-59.1857
3600.000000	109.972221	-58.6437
3650.000000	109.893066	-57.9499
3700.000000	109.816704	-57.1079
3750.000000	109.748611	-56.1388
3820.000000	109.672455	-54.6370
3870.000000	109.630615	-53.5048
3950.000000	109.577202	-51.6191
4000.000000	109.549576	-50.3770
4060.000000	109.524696	-48.7948
4120.000000	109.515640	-47.1072
4180.000000	109.529900	-45.3449
4250.000000	109.580078	-43.2717
4310.000000	109.648842	-41.5430
4370.000000	109.735504	-39.8893
4440.000000	109.852875	-38.0592
4500.000000	109.964531	-36.5678
4550.000000	110.064926	-35.3756
4620.000000	110.216934	-33.7843
4680.000000	110.358215	-32.4994
4750.000000	110.536011	-31.1078
4820.000000	110.727051	-29.8529
4870.000000	110.870743	-29.0533
4940.000000	111.080246	-28.0887
5000.000000	111.265419	-27.4237
5080.000000	111.515091	-26.8005
5150.000000	111.729073	-26.5279
5220.000000	111.930389	-26.5222
5300.000000	112.134048	-26.8356
5380.000000	112.298042	-27.4598
5450.000000	112.400612	-28.2191
5520.000000	112.458923	-29.1244
5600.000000	112.466553	-30.2585
5700.000000	112.385193	-31.6752
5800.000000	112.207870	-32.9050
5900.000000	111.948387	-33.7770
6000.000000	111.627090	-34.1714
6080.000000	111.341606	-34.1018
6150.000000	111.081757	-33.7555
6220.000000	110.820824	-33.1527
6300.000000	110.530258	-32.1731
6400.000000	110.191353	-30.5655
6500.000000	109.892097	-28.6063
6600.000000	109.643036	-26.3765
6700.000000	109.452629	-23.9563
6800.000000	109.328400	-21.4282
6900.000000	109.277374	-18.8799
7000.000000	109.306343	-16.4112
7100.000000	109.420792	-14.1453
7200.000000	109.622231	-12.2359
7300.000000	109.904915	-10.8646
7400.000000	110.253700	-10.2331
7500.000000	110.641853	-10.5560
7620.000000	111.100906	-12.4898
7750.000000	111.482574	-16.7108
7880.000000	111.611160	-22.9368
8000.000000	111.411674	-29.7120
8120.000000	110.872925	-36.3977
8250.000000	109.939636	-42.3975
8380.000000	108.733749	-46.4090
8500.000000	107.476547	-48.2408
8620.000000	106.163422	-48.4664
8750.000000	104.747566	-47.2175
8850.000000	103.695312	-45.4113
9000.000000	102.212036	-41.6516
9120.000000	101.122658	-37.9659
9250.000000	100.044647	-33.4920
9380.000000	99.069756	-28.6681
9500.000000	98.255127	-24.0065
9620.000000	97.515282	-19.2103
9750.000000	96.790848	-13.9086
9880.000000	96.140083	-8.5358
10000.000000	95.599983	-3.5435
10150.000000	95.000961	2.7079
10300.000000	94.481155	8.9401
10440.000000	94.063156	14.7109
10600.000000	93.659355	21.2180
10750.000000	93.348061	27.2072
10900.000000	93.098969	33.0727
11060.000000	92.899254	39.1797
11200.000000	92.779312	44.3859
11380.000000	92.700439	50.8790
11500.000000	92.696213	55.0739
11720.000000	92.795952	62.4390
11800.000000	92.869217	64.9938
12060.000000	93.255478	72.7193
12200.000000	93.562729	76.4291
12410.000000	94.162354	81.2303
12500.000000	94.471924	82.9502
12650.000000	95.057693	85.2663
12800.000000	95.724449	86.7553
13150.000000	97.474297	85.8769
13200.000000	97.726082	85.1354
13400.000000	98.659798	80.3818
13600.000000	99.372635	72.7947
13800.000000	99.751610	62.9776
14000.000000	99.749702	52.1413
14300.000000	99.130531	36.6568
14500.000000	98.462143	27.7349
14750.000000	97.548134	17.9684
15000.000000	96.705566	8.8001
15250.000000	96.000427	-0.8525
15500.000000	95.397888	-11.7453
15750.000000	94.812157	-24.1522
16000.000000	94.163315	-37.9070
16250.000000	93.412872	-52.6161
16500.000000	92.569916	-67.9447
16750.000000	91.673645	-83.8098
17000.000000	90.767410	-100.3977
17250.000000	89.877548	-118.0580
17500.000000	89.003021	-137.1788
17750.000000	88.120735	-158.1108
18000.000000	87.198875	178.8358
18250.000000	86.207176	153.3374
18500.000000	85.121552	124.9854
18750.000000	83.923630	93.2803
19000.000000	82.597107	57.8238
19250.000000	81.132599	18.9415
19500.000000	79.567017	-21.0633
19750.000000	78.085175	-56.4584
