* Measurement data measured by REW V5.20.9
* Source: Microphone (Conexant SmartAudio HD), MICROPHONE (Master Volume), L, volume: 1.000
* Format: 256k Log Swept Sine, 1 sweep at -12.0 dBFS with no timing reference
* Dated: 08 12, 23 10:15:54 PM
* REW Settings:
*  C-weighting compensation: Off
*  Target level: 75.0 dB
* Note: 
* Measurement: SHUOER Cadenza L
* Smoothing: 1/12 octave
* Frequency Step: 1/48 octave
* Start Frequency: 20.300 Hz
*
* Freq(Hz)	SPL(dB)	Phase(degrees)
20.299999	96.637	-161.5463
20.600000	96.649	-161.7559
20.900000	96.678	-162.2277
21.200001	96.704	-162.8332
21.400000	96.716	-163.2902
21.799999	96.724	-164.2651
22.000000	96.720	-164.7458
22.400000	96.703	-165.6268
22.700001	96.688	-166.1983
23.000000	96.676	-166.7051
23.299999	96.669	-167.1777
23.600000	96.665	-167.6404
24.000000	96.658	-168.2635
24.299999	96.649	-168.7341
24.700001	96.630	-169.3493
25.000000	96.612	-169.7915
25.400000	96.587	-170.3543
25.799999	96.563	-170.8982
26.200001	96.542	-171.4352
26.500000	96.529	-171.8354
26.900000	96.514	-172.3630
27.200001	96.506	-172.7524
27.600000	96.497	-173.2640
28.000000	96.489	-173.7712
28.500000	96.475	-174.4016
29.000000	96.449	-175.0140
29.500000	96.413	-175.5839
30.000000	96.377	-176.0998
30.400000	96.355	-176.4871
30.700001	96.345	-176.7755
31.100000	96.338	-177.1684
31.500000	96.331	-177.5671
32.000000	96.315	-178.0427
32.500000	96.284	-178.4607
33.000000	96.243	-178.8382
33.500000	96.200	-179.2314
34.000000	96.163	-179.6680
34.500000	96.141	179.8979
35.000000	96.147	179.5244
35.500000	96.183	179.1992
36.000000	96.232	178.8409
36.500000	96.259	178.4000
37.000000	96.236	177.9278
37.500000	96.164	177.5231
38.200001	96.030	177.1221
38.700001	95.950	176.8608
39.500000	95.871	176.3181
40.000000	95.839	175.9487
40.599998	95.803	175.5601
41.200001	95.768	175.2295
41.799999	95.729	174.8997
42.500000	95.683	174.4835
43.099998	95.646	174.1232
43.700001	95.616	173.7832
44.400002	95.584	173.4186
45.000000	95.553	173.1301
45.500000	95.524	172.9025
46.200001	95.481	172.5945
46.799999	95.446	172.3327
47.500000	95.409	172.0260
48.200001	95.373	171.7234
48.700001	95.348	171.5131
49.400002	95.310	171.2258
50.000000	95.276	170.9833
50.799999	95.227	170.6674
51.500000	95.183	170.4023
52.200001	95.141	170.1443
53.000000	95.098	169.8490
53.799999	95.057	169.5548
54.500000	95.020	169.3107
55.200001	94.982	169.0865
56.000000	94.937	168.8500
57.000000	94.881	168.5690
58.000000	94.828	168.2920
59.000000	94.778	168.0190
60.000000	94.729	167.7639
60.799999	94.689	167.5737
61.500000	94.654	167.4103
62.200001	94.619	167.2446
63.000000	94.577	167.0527
64.000000	94.526	166.8207
65.000000	94.477	166.6140
66.000000	94.430	166.4384
67.000000	94.382	166.2808
68.000000	94.334	166.1212
69.000000	94.286	165.9510
70.000000	94.239	165.7789
71.000000	94.192	165.6163
72.000000	94.145	165.4678
73.000000	94.097	165.3326
74.000000	94.049	165.2049
75.000000	94.003	165.0807
76.199997	93.947	164.9395
77.500000	93.886	164.8003
78.800003	93.823	164.6710
80.000000	93.764	164.5548
81.199997	93.705	164.4449
82.500000	93.643	164.3449
83.800003	93.581	164.2756
85.000000	93.525	164.2339
86.199997	93.469	164.2020
87.500000	93.410	164.1750
88.500000	93.365	164.1611
90.000000	93.296	164.1421
91.199997	93.239	164.1213
92.500000	93.176	164.1094
93.800003	93.111	164.1333
95.000000	93.048	164.1877
96.199997	92.981	164.2630
97.500000	92.904	164.3755
98.800003	92.821	164.5486
100.000000	92.739	164.8006
101.500000	92.634	165.3085
103.000000	92.543	166.0953
104.400002	92.495	167.0854
106.000000	92.518	168.3864
107.500000	92.627	169.4925
109.000000	92.800	170.1830
110.599998	92.994	170.2821
112.000000	93.132	169.8886
113.800003	93.245	169.0509
115.000000	93.289	168.4693
117.199997	93.331	167.5414
118.000000	93.338	167.2545
120.599998	93.311	166.4818
122.000000	93.259	166.1412
124.099998	93.169	165.7020
125.000000	93.135	165.5453
126.500000	93.083	165.3274
128.000000	93.039	165.1492
131.500000	92.945	164.8542
132.000000	92.932	164.8258
134.000000	92.880	164.7304
136.000000	92.832	164.6401
138.000000	92.786	164.5449
140.000000	92.739	164.4553
143.000000	92.661	164.3384
145.000000	92.605	164.2654
147.500000	92.549	164.2302
150.000000	92.522	164.2939
152.500000	92.500	164.3617
155.000000	92.465	164.3815
157.500000	92.423	164.3749
160.000000	92.378	164.3607
162.500000	92.333	164.3444
165.000000	92.290	164.3330
167.500000	92.249	164.3327
170.000000	92.211	164.3415
172.500000	92.174	164.3542
175.000000	92.138	164.3706
177.500000	92.104	164.3967
180.000000	92.070	164.4349
182.500000	92.036	164.4790
185.000000	92.002	164.5196
187.500000	91.970	164.5504
190.000000	91.941	164.5707
192.500000	91.913	164.5852
195.000000	91.888	164.6010
197.500000	91.863	164.6208
200.000000	91.839	164.6443
203.000000	91.811	164.6760
206.000000	91.783	164.7122
209.000000	91.755	164.7532
212.000000	91.726	164.7955
214.000000	91.706	164.8218
218.000000	91.666	164.8689
220.000000	91.646	164.8923
224.000000	91.605	164.9467
227.000000	91.573	164.9952
230.000000	91.540	165.0485
233.000000	91.508	165.1051
236.000000	91.476	165.1654
240.000000	91.433	165.2539
243.000000	91.401	165.3268
247.000000	91.357	165.4373
250.000000	91.324	165.5387
254.000000	91.277	165.7112
258.000000	91.228	165.9416
262.000000	91.181	166.2545
265.000000	91.150	166.5601
269.000000	91.123	167.0636
272.000000	91.120	167.4862
276.000000	91.146	168.0239
280.000000	91.200	168.4153
285.000000	91.282	168.5801
290.000000	91.348	168.4126
295.000000	91.384	168.0690
300.000000	91.389	167.7026
304.000000	91.375	167.4513
307.000000	91.357	167.2967
311.000000	91.327	167.1331
315.000000	91.294	167.0126
320.000000	91.251	166.9145
325.000000	91.209	166.8606
330.000000	91.168	166.8353
335.000000	91.130	166.8298
340.000000	91.093	166.8365
345.000000	91.058	166.8495
350.000000	91.023	166.8693
355.000000	90.989	166.8961
360.000000	90.956	166.9278
365.000000	90.923	166.9631
370.000000	90.891	167.0023
375.000000	90.859	167.0464
382.000000	90.815	167.1190
387.000000	90.783	167.1807
395.000000	90.733	167.2986
400.000000	90.703	167.3827
406.000000	90.667	167.4898
412.000000	90.634	167.5993
418.000000	90.601	167.7062
425.000000	90.564	167.8244
431.000000	90.531	167.9219
437.000000	90.499	168.0185
444.000000	90.461	168.1324
450.000000	90.428	168.2342
455.000000	90.400	168.3233
462.000000	90.361	168.4561
468.000000	90.326	168.5787
475.000000	90.284	168.7325
482.000000	90.242	168.8987
487.000000	90.212	169.0267
494.000000	90.169	169.2203
500.000000	90.132	169.3990
508.000000	90.084	169.6561
515.000000	90.041	169.9026
522.000000	89.999	170.1711
530.000000	89.952	170.5049
538.000000	89.907	170.8702
545.000000	89.868	171.2159
552.000000	89.832	171.5833
560.000000	89.794	172.0272
570.000000	89.754	172.6149
580.000000	89.721	173.2289
590.000000	89.698	173.8595
600.000000	89.686	174.4980
608.000000	89.682	175.0065
615.000000	89.683	175.4442
622.000000	89.689	175.8698
630.000000	89.701	176.3357
640.000000	89.722	176.8839
650.000000	89.749	177.3943
660.000000	89.780	177.8643
670.000000	89.814	178.2933
680.000000	89.849	178.6858
690.000000	89.885	179.0439
700.000000	89.921	179.3687
710.000000	89.956	179.6649
720.000000	89.991	179.9394
730.000000	90.024	-179.8034
740.000000	90.056	-179.5593
750.000000	90.087	-179.3240
762.000000	90.122	-179.0504
775.000000	90.159	-178.7648
788.000000	90.194	-178.4861
800.000000	90.228	-178.2302
812.000000	90.263	-177.9756
825.000000	90.302	-177.7034
838.000000	90.342	-177.4344
850.000000	90.379	-177.1884
862.000000	90.416	-176.9470
875.000000	90.457	-176.6942
885.000000	90.490	-176.5061
900.000000	90.540	-176.2339
912.000000	90.582	-176.0263
925.000000	90.630	-175.8134
938.000000	90.679	-175.6140
950.000000	90.727	-175.4437
962.000000	90.775	-175.2885
975.000000	90.829	-175.1380
988.000000	90.884	-175.0071
1000.000000	90.936	-174.9057
1015.000000	91.002	-174.8069
1030.000000	91.069	-174.7388
1044.000000	91.130	-174.7017
1060.000000	91.198	-174.6909
1075.000000	91.257	-174.7109
1090.000000	91.313	-174.7591
1106.000000	91.370	-174.8424
1120.000000	91.418	-174.9411
1138.000000	91.478	-175.0977
1150.000000	91.517	-175.2181
1172.000000	91.584	-175.4690
1180.000000	91.607	-175.5682
1206.000000	91.684	-175.9156
1220.000000	91.727	-176.1180
1241.000000	91.793	-176.4374
1250.000000	91.822	-176.5784
1265.000000	91.868	-176.8178
1280.000000	91.911	-177.0604
1315.000000	92.001	-177.6225
1320.000000	92.013	-177.7019
1340.000000	92.061	-178.0169
1360.000000	92.110	-178.3253
1380.000000	92.160	-178.6236
1400.000000	92.209	-178.9096
1430.000000	92.277	-179.3091
1450.000000	92.320	-179.5553
1475.000000	92.371	-179.8423
1500.000000	92.419	179.8980
1525.000000	92.460	179.6651
1550.000000	92.495	179.4580
1575.000000	92.526	179.2797
1600.000000	92.555	179.1274
1625.000000	92.585	178.9995
1650.000000	92.616	178.8965
1675.000000	92.648	178.8166
1700.000000	92.683	178.7596
1725.000000	92.720	178.7254
1750.000000	92.760	178.7103
1775.000000	92.805	178.7131
1800.000000	92.853	178.7346
1825.000000	92.905	178.7708
1850.000000	92.962	178.8198
1875.000000	93.022	178.8829
1900.000000	93.087	178.9595
1925.000000	93.156	179.0477
1950.000000	93.230	179.1463
1975.000000	93.311	179.2527
2000.000000	93.398	179.3626
2030.000000	93.513	179.4947
2060.000000	93.638	179.6228
2090.000000	93.775	179.7391
2120.000000	93.926	179.8331
2140.000000	94.034	179.8783
2180.000000	94.274	179.9077
2200.000000	94.405	179.8822
2240.000000	94.689	179.7264
2270.000000	94.920	179.4924
2300.000000	95.166	179.1267
2330.000000	95.423	178.5996
2360.000000	95.688	177.8829
2400.000000	96.044	176.5905
2430.000000	96.304	175.3541
2470.000000	96.624	173.3592
2500.000000	96.836	171.6282
2540.000000	97.068	169.0721
2580.000000	97.235	166.3347
2620.000000	97.335	163.5344
2650.000000	97.367	161.4576
2690.000000	97.360	158.7900
2720.000000	97.323	156.8989
2760.000000	97.239	154.5518
2800.000000	97.125	152.4184
2850.000000	96.953	150.0508
2900.000000	96.759	147.9915
2950.000000	96.551	146.2091
3000.000000	96.333	144.6757
3040.000000	96.153	143.6155
3070.000000	96.016	142.9155
3110.000000	95.832	142.1076
3150.000000	95.647	141.4399
3200.000000	95.422	140.7944
3250.000000	95.209	140.3436
3300.000000	95.011	140.0591
3350.000000	94.834	139.9009
3400.000000	94.679	139.8146
3450.000000	94.544	139.7336
3500.000000	94.424	139.6011
3550.000000	94.308	139.3939
3600.000000	94.185	139.1328
3650.000000	94.047	138.8734
3700.000000	93.893	138.6806
3750.000000	93.727	138.6067
3820.000000	93.483	138.7642
3870.000000	93.310	139.0834
3950.000000	93.051	139.9488
4000.000000	92.907	140.6923
4060.000000	92.761	141.7581
4120.000000	92.648	142.9718
4180.000000	92.571	144.2879
4250.000000	92.525	145.9006
4310.000000	92.525	147.3126
4370.000000	92.559	148.7286
4440.000000	92.643	150.3669
4500.000000	92.756	151.7383
4550.000000	92.882	152.8341
4620.000000	93.110	154.2339
4680.000000	93.356	155.2215
4750.000000	93.692	155.9801
4820.000000	94.061	156.1581
4870.000000	94.324	155.8687
4940.000000	94.663	154.8802
5000.000000	94.904	153.5714
5080.000000	95.135	151.3871
5150.000000	95.251	149.2809
5220.000000	95.296	147.1483
5300.000000	95.272	144.7752
5380.000000	95.178	142.5087
5450.000000	95.037	140.6362
5520.000000	94.837	138.9193
5600.000000	94.532	137.2719
5700.000000	94.047	135.9785
5800.000000	93.483	135.8827
5900.000000	92.917	137.1385
6000.000000	92.433	139.5536
6080.000000	92.147	142.0211
6150.000000	91.978	144.3521
6220.000000	91.878	146.6982
6300.000000	91.836	149.2838
6400.000000	91.866	152.2814
6500.000000	91.960	154.9967
6600.000000	92.102	157.4588
6700.000000	92.291	159.7096
6800.000000	92.535	161.7769
6900.000000	92.844	163.6666
7000.000000	93.223	165.3571
7100.000000	93.669	166.7952
7200.000000	94.178	167.8951
7300.000000	94.748	168.5371
7400.000000	95.372	168.5687
7500.000000	96.035	167.8088
7620.000000	96.840	165.5765
7750.000000	97.615	161.2186
7880.000000	98.144	154.7900
8000.000000	98.313	147.4867
8120.000000	98.131	139.8126
8250.000000	97.552	132.3460
8380.000000	96.655	126.7643
8500.000000	95.644	123.6342
8620.000000	94.551	122.3556
8750.000000	93.362	122.7245
8850.000000	92.485	123.9886
9000.000000	91.282	127.0635
9120.000000	90.440	130.2546
9250.000000	89.657	134.1957
9380.000000	89.009	138.4394
9500.000000	88.524	142.4763
9620.000000	88.142	146.5085
9750.000000	87.834	150.7458
9880.000000	87.625	154.7100
10000.000000	87.508	158.0025
10150.000000	87.442	161.4509
10300.000000	87.426	163.9785
10440.000000	87.408	165.3920
10600.000000	87.311	165.9093
10750.000000	87.078	165.6023
10900.000000	86.652	165.0992
11060.000000	85.966	165.2222
11200.000000	85.191	166.5854
11380.000000	84.058	170.6235
11500.000000	83.299	174.7305
11720.000000	82.102	-175.5419
11800.000000	81.768	-171.5708
12060.000000	81.103	-158.2024
12200.000000	80.986	-151.0786
12410.000000	81.063	-140.8199
12500.000000	81.174	-136.6278
12650.000000	81.442	-129.9530
12800.000000	81.800	-123.6887
13150.000000	82.935	-110.7079
13200.000000	83.129	-109.0448
13400.000000	83.990	-102.9136
13600.000000	84.986	-97.7306
13800.000000	86.107	-93.7335
14000.000000	87.320	-91.2663
14300.000000	89.156	-91.3284
14500.000000	90.241	-94.3311
14750.000000	91.268	-101.2521
15000.000000	91.849	-110.4709
15250.000000	92.052	-120.4831
15500.000000	92.033	-130.9430
15750.000000	91.847	-142.7531
16000.000000	91.371	-156.5832
16250.000000	90.354	-170.8093
16500.000000	88.592	179.1500
16750.000000	86.318	174.9887
17000.000000	84.147	170.6286
17250.000000	82.009	163.8632
17500.000000	79.368	160.8311
17750.000000	76.118	166.5009
18000.000000	72.386	-177.1422
18250.000000	68.384	-151.6796
18500.000000	64.610	-123.2744
18750.000000	61.985	-98.0406
19000.000000	60.932	-77.8341
19250.000000	60.813	-61.7474
19500.000000	61.020	-48.8835
19750.000000	61.313	-39.3555
