* Measurement data measured by REW V5.20.9
* Source: Microphone (Conexant SmartAudio HD), MICROPHONE (Master Volume), L, volume: 0.050
* Format: 256k Log Swept Sine, 1 sweep at -12.0 dBFS with no timing reference
* Dated: 10 30, 23 12:54:34 AM
* REW Settings:
*  C-weighting compensation: Off
*  Target level: 75.0 dB
* Note: 
* Measurement: Sony IER-Z1R TJ D R
* Smoothing: 1/12 octave
* Frequency Step: 1/48 octave
* Start Frequency: 20.300 Hz
*
* Freq(Hz)	SPL(dB)	Phase(degrees)
20.299999	93.058	70.3696
20.600000	93.073	70.0319
20.900000	93.101	69.3310
21.200001	93.105	68.6016
21.400000	93.093	68.1282
21.799999	93.049	67.1606
22.000000	93.027	66.6244
22.400000	93.004	65.3397
22.700001	93.012	64.1501
23.000000	93.040	62.7899
23.299999	93.086	61.3463
23.600000	93.145	59.9193
24.000000	93.244	58.1918
24.299999	93.329	57.1000
24.700001	93.453	55.9255
25.000000	93.548	55.2145
25.400000	93.668	54.4166
25.799999	93.774	53.7123
26.200001	93.871	53.0435
26.500000	93.942	52.5377
26.900000	94.043	51.8285
27.200001	94.124	51.2607
27.600000	94.232	50.4727
28.000000	94.329	49.7195
28.500000	94.417	48.9770
29.000000	94.459	48.5501
29.500000	94.454	48.3305
30.000000	94.393	48.0297
30.400000	94.295	47.5541
30.700001	94.190	47.0242
31.100000	94.017	46.1047
31.500000	93.831	44.9801
32.000000	93.637	43.3081
32.500000	93.550	41.3004
33.000000	93.594	38.9760
33.500000	93.743	36.5577
34.000000	93.952	34.4682
34.500000	94.181	33.0936
35.000000	94.400	32.5541
35.500000	94.572	32.6840
36.000000	94.663	33.1596
36.500000	94.656	33.6516
37.000000	94.568	33.8590
37.500000	94.440	33.5721
38.200001	94.296	32.2336
38.700001	94.265	30.8182
39.500000	94.332	28.6282
40.000000	94.402	27.6641
40.599998	94.464	26.9362
41.200001	94.476	26.3984
41.799999	94.452	25.7522
42.500000	94.423	24.7027
43.099998	94.426	23.6597
43.700001	94.452	22.6898
44.400002	94.482	21.8076
45.000000	94.492	21.2371
45.500000	94.488	20.7968
46.200001	94.478	20.1187
46.799999	94.473	19.4615
47.500000	94.474	18.6745
48.200001	94.472	17.9234
48.700001	94.464	17.4076
49.400002	94.446	16.6878
50.000000	94.432	16.0599
50.799999	94.424	15.2228
51.500000	94.425	14.5243
52.200001	94.427	13.8692
53.000000	94.423	13.1465
53.799999	94.415	12.4272
54.500000	94.415	11.7994
55.200001	94.421	11.1684
56.000000	94.421	10.4711
57.000000	94.393	9.7539
58.000000	94.351	9.1518
59.000000	94.308	8.4257
60.000000	94.262	7.5866
60.799999	94.231	6.9218
61.500000	94.212	6.3582
62.200001	94.198	5.8143
63.000000	94.187	5.2295
64.000000	94.174	4.5586
65.000000	94.154	3.9042
66.000000	94.127	3.2009
67.000000	94.097	2.4760
68.000000	94.067	1.8056
69.000000	94.032	1.1920
70.000000	93.992	0.5784
71.000000	93.952	-0.0462
72.000000	93.922	-0.6379
73.000000	93.904	-1.1942
74.000000	93.891	-1.7628
75.000000	93.874	-2.3566
76.199997	93.837	-3.0186
77.500000	93.781	-3.6174
78.800003	93.725	-4.1865
80.000000	93.680	-4.7212
81.199997	93.637	-5.2288
82.500000	93.593	-5.7285
83.800003	93.555	-6.1689
85.000000	93.520	-6.5546
86.199997	93.478	-7.0360
87.500000	93.422	-7.7129
88.500000	93.374	-8.2651
90.000000	93.302	-9.0170
91.199997	93.249	-9.5205
92.500000	93.197	-9.9740
93.800003	93.144	-10.3860
95.000000	93.089	-10.7738
96.199997	93.032	-11.1617
97.500000	92.975	-11.5513
98.800003	92.924	-11.8893
100.000000	92.886	-12.1656
101.500000	92.844	-12.5512
103.000000	92.798	-13.0416
104.400002	92.744	-13.5312
106.000000	92.671	-14.0527
107.500000	92.597	-14.4677
109.000000	92.521	-14.7759
110.599998	92.436	-15.0254
112.000000	92.374	-15.2718
113.800003	92.333	-15.6849
115.000000	92.335	-15.9395
117.199997	92.407	-16.1601
118.000000	92.447	-16.1770
120.599998	92.443	-16.5296
122.000000	92.303	-17.0292
124.099998	92.054	-17.7893
125.000000	91.970	-18.0467
126.500000	91.862	-18.3990
128.000000	91.781	-18.6890
131.500000	91.627	-19.1905
132.000000	91.607	-19.2459
134.000000	91.524	-19.4298
136.000000	91.436	-19.5765
138.000000	91.338	-19.7763
140.000000	91.239	-20.0663
143.000000	91.113	-20.4341
145.000000	91.046	-20.5705
147.500000	90.964	-20.7223
150.000000	90.888	-20.8200
152.500000	90.819	-20.7784
155.000000	90.728	-20.7432
157.500000	90.633	-20.8616
160.000000	90.570	-21.0968
162.500000	90.531	-21.2798
165.000000	90.494	-21.3337
167.500000	90.447	-21.4402
170.000000	90.373	-21.6739
172.500000	90.267	-21.8129
175.000000	90.152	-21.7529
177.500000	90.050	-21.6944
180.000000	89.966	-21.7733
182.500000	89.889	-21.9051
185.000000	89.809	-21.9974
187.500000	89.728	-22.0329
190.000000	89.648	-22.0406
192.500000	89.572	-22.0465
195.000000	89.501	-22.0622
197.500000	89.434	-22.0905
200.000000	89.367	-22.1117
203.000000	89.284	-22.1036
206.000000	89.196	-22.0772
209.000000	89.108	-22.0113
212.000000	89.019	-21.8830
214.000000	88.962	-21.7995
218.000000	88.858	-21.6711
220.000000	88.812	-21.6066
224.000000	88.717	-21.4137
227.000000	88.640	-21.1787
230.000000	88.565	-20.9074
233.000000	88.490	-20.6337
236.000000	88.415	-20.3382
240.000000	88.317	-19.9108
243.000000	88.249	-19.6073
247.000000	88.175	-19.2239
250.000000	88.132	-18.9437
254.000000	88.087	-18.6014
258.000000	88.047	-18.3275
262.000000	88.003	-18.1179
265.000000	87.967	-17.9694
269.000000	87.915	-17.7597
272.000000	87.875	-17.5947
276.000000	87.823	-17.3640
280.000000	87.774	-17.1369
285.000000	87.710	-16.8416
290.000000	87.619	-16.4508
295.000000	87.525	-16.0316
300.000000	87.447	-15.6197
304.000000	87.393	-15.2934
307.000000	87.356	-15.0475
311.000000	87.307	-14.7123
315.000000	87.254	-14.3864
320.000000	87.182	-14.0062
325.000000	87.107	-13.5997
330.000000	87.047	-13.0866
335.000000	87.015	-12.5324
340.000000	86.994	-12.0771
345.000000	86.956	-11.6694
350.000000	86.905	-11.1998
355.000000	86.854	-10.7012
360.000000	86.808	-10.2364
365.000000	86.769	-9.7958
370.000000	86.737	-9.3565
375.000000	86.711	-8.9182
382.000000	86.683	-8.3069
387.000000	86.673	-7.8693
395.000000	86.653	-7.1701
400.000000	86.619	-6.7247
406.000000	86.566	-6.1653
412.000000	86.521	-5.6175
418.000000	86.487	-5.1001
425.000000	86.458	-4.5388
431.000000	86.442	-4.1010
437.000000	86.430	-3.6679
444.000000	86.415	-3.1316
450.000000	86.402	-2.6395
455.000000	86.392	-2.1976
462.000000	86.386	-1.5631
468.000000	86.383	-1.0574
475.000000	86.379	-0.5118
482.000000	86.374	0.0227
487.000000	86.370	0.4032
494.000000	86.364	0.9149
500.000000	86.362	1.3214
508.000000	86.369	1.8512
515.000000	86.374	2.3590
522.000000	86.373	2.8913
530.000000	86.372	3.4741
538.000000	86.376	4.0308
545.000000	86.382	4.5121
552.000000	86.388	4.9914
560.000000	86.394	5.5351
570.000000	86.405	6.2053
580.000000	86.421	6.8490
590.000000	86.436	7.4714
600.000000	86.452	8.0827
608.000000	86.466	8.5641
615.000000	86.477	8.9927
622.000000	86.489	9.4342
630.000000	86.504	9.9431
640.000000	86.526	10.5608
650.000000	86.548	11.1673
660.000000	86.570	11.7816
670.000000	86.594	12.3813
680.000000	86.621	12.9344
690.000000	86.649	13.4334
700.000000	86.678	13.9058
710.000000	86.700	14.3847
720.000000	86.710	14.8967
730.000000	86.713	15.4819
740.000000	86.721	16.1719
750.000000	86.743	16.9475
762.000000	86.791	17.9135
775.000000	86.860	18.9573
788.000000	86.945	20.0281
800.000000	87.052	21.0070
812.000000	87.192	21.8095
825.000000	87.351	22.3158
838.000000	87.480	22.5359
850.000000	87.569	22.6883
862.000000	87.642	22.9043
875.000000	87.715	23.2198
885.000000	87.769	23.4926
900.000000	87.855	23.9158
912.000000	87.930	24.2505
925.000000	88.014	24.5902
938.000000	88.098	24.9031
950.000000	88.176	25.1724
962.000000	88.255	25.4219
975.000000	88.344	25.6651
988.000000	88.434	25.8711
1000.000000	88.516	26.0260
1015.000000	88.613	26.1868
1030.000000	88.706	26.3226
1044.000000	88.791	26.4248
1060.000000	88.885	26.5128
1075.000000	88.968	26.5641
1090.000000	89.044	26.5842
1106.000000	89.118	26.5821
1120.000000	89.181	26.5642
1138.000000	89.260	26.5181
1150.000000	89.311	26.4762
1172.000000	89.400	26.3830
1180.000000	89.432	26.3459
1206.000000	89.535	26.2208
1220.000000	89.592	26.1467
1241.000000	89.680	26.0196
1250.000000	89.718	25.9586
1265.000000	89.782	25.8504
1280.000000	89.845	25.7388
1315.000000	89.984	25.4879
1320.000000	90.004	25.4530
1340.000000	90.082	25.3112
1360.000000	90.163	25.1624
1380.000000	90.247	25.0041
1400.000000	90.331	24.8381
1430.000000	90.453	24.5770
1450.000000	90.531	24.3997
1475.000000	90.625	24.1788
1500.000000	90.716	23.9484
1525.000000	90.802	23.6997
1550.000000	90.880	23.4389
1575.000000	90.952	23.1697
1600.000000	91.020	22.8891
1625.000000	91.084	22.5991
1650.000000	91.145	22.2992
1675.000000	91.203	21.9864
1700.000000	91.257	21.6609
1725.000000	91.308	21.3242
1750.000000	91.356	20.9777
1775.000000	91.402	20.6218
1800.000000	91.443	20.2564
1825.000000	91.482	19.8825
1850.000000	91.517	19.5011
1875.000000	91.548	19.1133
1900.000000	91.574	18.7190
1925.000000	91.596	18.3175
1950.000000	91.613	17.9095
1975.000000	91.625	17.4970
2000.000000	91.632	17.0820
2030.000000	91.634	16.5819
2060.000000	91.629	16.0819
2090.000000	91.617	15.5825
2120.000000	91.598	15.0793
2140.000000	91.581	14.7392
2180.000000	91.538	14.0423
2200.000000	91.511	13.6834
2240.000000	91.442	12.9388
2270.000000	91.374	12.3509
2300.000000	91.285	11.7407
2330.000000	91.169	11.1303
2360.000000	91.019	10.5685
2400.000000	90.759	10.0362
2430.000000	90.521	9.9350
2470.000000	90.164	10.3884
2500.000000	89.888	11.2454
2540.000000	89.549	13.0521
2580.000000	89.282	15.4432
2620.000000	89.101	18.1786
2650.000000	89.020	20.3464
2690.000000	88.976	23.3275
2720.000000	88.989	25.6203
2760.000000	89.072	28.7349
2800.000000	89.237	31.8564
2850.000000	89.564	35.5954
2900.000000	90.015	38.9041
2950.000000	90.556	41.5590
3000.000000	91.142	43.4503
3040.000000	91.619	44.4153
3070.000000	91.971	44.8442
3110.000000	92.425	45.0687
3150.000000	92.858	44.9529
3200.000000	93.364	44.4164
3250.000000	93.831	43.5270
3300.000000	94.259	42.3500
3350.000000	94.649	40.9328
3400.000000	94.998	39.3093
3450.000000	95.305	37.5075
3500.000000	95.569	35.5579
3550.000000	95.788	33.4974
3600.000000	95.960	31.3684
3650.000000	96.087	29.2185
3700.000000	96.170	27.0986
3750.000000	96.212	25.0568
3820.000000	96.212	22.4043
3870.000000	96.180	20.6946
3950.000000	96.089	18.3134
4000.000000	96.018	17.0398
4060.000000	95.929	15.6991
4120.000000	95.840	14.5181
4180.000000	95.755	13.4444
4250.000000	95.660	12.2632
4310.000000	95.580	11.2694
4370.000000	95.499	10.2597
4440.000000	95.394	9.0215
4500.000000	95.286	7.8869
4550.000000	95.174	6.8956
4620.000000	94.970	5.4972
4680.000000	94.740	4.3990
4750.000000	94.400	3.4401
4820.000000	93.995	3.0602
4870.000000	93.680	3.2462
4940.000000	93.235	4.2037
5000.000000	92.878	5.6242
5080.000000	92.473	8.2391
5150.000000	92.209	11.1028
5220.000000	92.059	14.3663
5300.000000	92.053	18.3048
5380.000000	92.229	22.0845
5450.000000	92.507	24.9693
5520.000000	92.867	27.2760
5600.000000	93.331	29.1087
5700.000000	93.927	30.2380
5800.000000	94.495	30.2870
5900.000000	95.019	29.4915
6000.000000	95.494	27.9756
6080.000000	95.831	26.2445
6150.000000	96.085	24.3278
6220.000000	96.289	22.0285
6300.000000	96.441	18.9717
6400.000000	96.482	14.7027
6500.000000	96.333	10.3550
6600.000000	95.995	6.4839
6700.000000	95.506	3.5811
6800.000000	94.935	1.9234
6900.000000	94.367	1.5230
7000.000000	93.872	2.1799
7100.000000	93.498	3.5772
7200.000000	93.262	5.3724
7300.000000	93.161	7.2634
7400.000000	93.183	9.0158
7500.000000	93.313	10.4562
7620.000000	93.585	11.5831
7750.000000	93.964	11.8420
7880.000000	94.348	10.8763
8000.000000	94.648	8.7621
8120.000000	94.845	5.4850
8250.000000	94.882	0.8793
8380.000000	94.687	-4.2737
8500.000000	94.285	-8.8834
8620.000000	93.686	-12.7915
8750.000000	92.859	-15.8033
8850.000000	92.141	-17.1364
9000.000000	91.014	-17.5932
9120.000000	90.129	-16.8105
9250.000000	89.237	-15.0598
9380.000000	88.441	-12.6045
9500.000000	87.807	-9.8919
9620.000000	87.276	-6.8935
9750.000000	86.822	-3.4650
9880.000000	86.498	0.0064
10000.000000	86.320	3.1179
10150.000000	86.262	6.6842
10300.000000	86.386	9.6394
10440.000000	86.650	11.5858
10600.000000	87.093	12.5167
10750.000000	87.594	11.8163
10900.000000	88.109	9.3149
11060.000000	88.580	4.4760
11200.000000	88.839	-1.5450
11380.000000	88.849	-11.1634
11500.000000	88.612	-18.1292
11720.000000	87.652	-30.1640
11800.000000	87.151	-33.8796
12060.000000	85.133	-42.4567
12200.000000	83.908	-44.8412
12410.000000	82.054	-45.9696
12500.000000	81.287	-45.7264
12650.000000	80.077	-44.5698
12800.000000	78.970	-42.6677
13150.000000	76.833	-36.2222
13200.000000	76.578	-35.1309
13400.000000	75.682	-30.4424
13600.000000	74.979	-25.3145
13800.000000	74.469	-19.8410
14000.000000	74.157	-14.1185
14300.000000	74.082	-5.2780
14500.000000	74.315	0.5924
14750.000000	74.946	7.5257
15000.000000	75.960	13.5086
15250.000000	77.325	17.8579
15500.000000	78.915	19.6157
15750.000000	80.489	17.7253
16000.000000	81.771	11.6581
16250.000000	82.540	2.2090
16500.000000	82.709	-8.4083
16750.000000	82.355	-17.7326
17000.000000	81.687	-24.5762
17250.000000	80.944	-29.4552
17500.000000	80.256	-33.7627
17750.000000	79.559	-38.4903
18000.000000	78.689	-43.4648
18250.000000	77.530	-47.6374
18500.000000	76.062	-49.8924
18750.000000	74.342	-49.6235
19000.000000	72.462	-46.8638
19250.000000	70.531	-42.1676
19500.000000	68.670	-36.4915
19750.000000	67.083	-31.1739
