* Measurement data measured by REW V5.20.13
* Source: EXCL: Headset Microphone (Realtek(R) Audio), MICROPHONE (Hauptlautstärke), L, volume: 1,000
* Format: 256k Log Swept Sine, 1 sweep at -8,0 dBFS with no timing reference
* Dated: 21.07.2023 14:35:27
* REW Settings:
*  C-weighting compensation: Off
*  Target level: 75.0 dB
* Note: 
* Measurement: Bowie Hifi EQ
* Smoothing: 1/12 octave
* Frequency Step: 1/48 octave
* Start Frequency: 20.000 Hz
*
* Freq(Hz)	SPL(dB)	Phase(degrees)
20.000000	104.795	57.7112
20.299999	104.813	56.8977
20.600000	104.821	56.1587
20.900000	104.818	55.5020
21.200001	104.804	54.9639
21.400000	104.792	54.6968
21.799999	104.773	54.3904
22.000000	104.774	54.3346
22.400000	104.807	54.3279
22.700001	104.862	54.3030
23.000000	104.934	54.1614
23.299999	105.009	53.8655
23.600000	105.077	53.4297
24.000000	105.143	52.7085
24.299999	105.174	52.1444
24.700001	105.199	51.4315
25.000000	105.215	50.9192
25.400000	105.242	50.1899
25.799999	105.266	49.2978
26.200001	105.263	48.2141
26.500000	105.229	47.3496
26.900000	105.135	46.3040
27.200001	105.037	45.7397
27.600000	104.895	45.3964
28.000000	104.784	45.4851
28.500000	104.738	45.8707
29.000000	104.788	46.0569
29.500000	104.875	45.7795
30.000000	104.939	45.1523
30.400000	104.961	44.6078
30.700001	104.967	44.2607
31.100000	104.975	43.9124
31.500000	104.997	43.6476
32.000000	105.051	43.2767
32.500000	105.116	42.6967
33.000000	105.155	41.8878
33.500000	105.142	41.0240
34.000000	105.077	40.3908
34.500000	104.994	40.1942
35.000000	104.938	40.4110
35.500000	104.945	40.7882
36.000000	105.007	41.0125
36.500000	105.092	40.9049
37.000000	105.160	40.4823
37.500000	105.192	39.8878
38.200001	105.176	39.0446
38.700001	105.135	38.5419
39.500000	105.041	37.9701
40.000000	104.978	37.7577
40.599998	104.908	37.6237
41.200001	104.854	37.5585
41.799999	104.817	37.4836
42.500000	104.786	37.3181
43.099998	104.758	37.1214
43.700001	104.725	36.9269
44.400002	104.684	36.7486
45.000000	104.650	36.6465
45.500000	104.623	36.5954
46.200001	104.591	36.5576
46.799999	104.570	36.5114
47.500000	104.544	36.3940
48.200001	104.508	36.2435
48.700001	104.478	36.1470
49.400002	104.439	36.0008
50.000000	104.409	35.8018
50.799999	104.357	35.4164
51.500000	104.293	35.0495
52.200001	104.216	34.7307
53.000000	104.113	34.5125
53.799999	104.013	34.5541
54.500000	103.950	34.7689
55.200001	103.917	34.9989
56.000000	103.895	35.1531
57.000000	103.857	35.2313
58.000000	103.797	35.3255
59.000000	103.724	35.4682
60.000000	103.643	35.6359
60.799999	103.574	35.7855
61.500000	103.514	35.9190
62.200001	103.453	36.0486
63.000000	103.382	36.2044
64.000000	103.294	36.4374
65.000000	103.211	36.7047
66.000000	103.133	36.9708
67.000000	103.057	37.2091
68.000000	102.978	37.4228
69.000000	102.896	37.6268
70.000000	102.812	37.8255
71.000000	102.727	38.0424
72.000000	102.642	38.3109
73.000000	102.563	38.6230
74.000000	102.485	38.9559
75.000000	102.405	39.3102
76.199997	102.304	39.7604
77.500000	102.190	40.2433
78.800003	102.073	40.7245
80.000000	101.969	41.1979
81.199997	101.876	41.7133
82.500000	101.783	42.3260
83.800003	101.692	42.9821
85.000000	101.597	43.5869
86.199997	101.484	44.1703
87.500000	101.347	44.8023
88.500000	101.247	45.2997
90.000000	101.129	46.0464
91.199997	101.061	46.6328
92.500000	100.990	47.3159
93.800003	100.890	48.1236
95.000000	100.752	48.9625
96.199997	100.559	49.8354
97.500000	100.294	50.8733
98.800003	100.031	52.1638
100.000000	99.895	53.3953
101.500000	99.903	54.1893
103.000000	99.967	54.1745
104.400002	99.997	54.2353
106.000000	99.985	54.8563
107.500000	99.929	55.8341
109.000000	99.836	56.9096
110.599998	99.716	57.9695
112.000000	99.613	58.8160
113.800003	99.497	59.8958
115.000000	99.429	60.6536
117.199997	99.304	62.1317
118.000000	99.256	62.6830
120.599998	99.094	64.4586
122.000000	99.010	65.4101
124.099998	98.894	66.8646
125.000000	98.846	67.5013
126.500000	98.764	68.5721
128.000000	98.681	69.6409
131.500000	98.494	72.1124
132.000000	98.470	72.4661
134.000000	98.377	73.8886
136.000000	98.288	75.3242
138.000000	98.198	76.7711
140.000000	98.109	78.2346
143.000000	97.986	80.4385
145.000000	97.908	81.8689
147.500000	97.810	83.5886
150.000000	97.714	85.2796
152.500000	97.622	87.0167
155.000000	97.532	88.8199
157.500000	97.434	90.6524
160.000000	97.327	92.4737
162.500000	97.222	94.2760
165.000000	97.134	96.0594
167.500000	97.068	97.8211
170.000000	97.010	99.5801
172.500000	96.946	101.3975
175.000000	96.875	103.2578
177.500000	96.804	105.0807
180.000000	96.737	106.8469
182.500000	96.670	108.5965
185.000000	96.600	110.3841
187.500000	96.528	112.2387
190.000000	96.458	114.1429
192.500000	96.384	116.0633
195.000000	96.304	117.9807
197.500000	96.220	119.9120
200.000000	96.150	121.8979
203.000000	96.102	124.3629
206.000000	96.086	126.9627
209.000000	96.097	129.7322
212.000000	96.141	132.5081
214.000000	96.189	134.2308
218.000000	96.312	137.2206
220.000000	96.371	138.5365
224.000000	96.468	140.9265
227.000000	96.527	142.5248
230.000000	96.584	143.9933
233.000000	96.637	145.3975
236.000000	96.669	146.8047
240.000000	96.667	148.7575
243.000000	96.650	150.2451
247.000000	96.622	152.1971
250.000000	96.596	153.6602
254.000000	96.556	155.6570
258.000000	96.513	157.7153
262.000000	96.471	159.8217
265.000000	96.440	161.4337
269.000000	96.402	163.6185
272.000000	96.376	165.2676
276.000000	96.345	167.4586
280.000000	96.318	169.6309
285.000000	96.288	172.3379
290.000000	96.261	175.0460
295.000000	96.237	177.7441
300.000000	96.211	-179.5605
304.000000	96.189	-177.4134
307.000000	96.173	-175.8171
311.000000	96.154	-173.7066
315.000000	96.137	-171.6060
320.000000	96.118	-168.9853
325.000000	96.099	-166.3665
330.000000	96.083	-163.7518
335.000000	96.069	-161.1512
340.000000	96.058	-158.5741
345.000000	96.048	-156.0158
350.000000	96.038	-153.4689
355.000000	96.026	-150.9395
360.000000	96.017	-148.4435
365.000000	96.011	-145.9809
370.000000	96.009	-143.5322
375.000000	96.008	-141.0851
382.000000	96.002	-137.6823
387.000000	95.994	-135.2790
395.000000	95.982	-131.4482
400.000000	95.978	-129.0533
406.000000	95.974	-126.1887
412.000000	95.975	-123.3525
418.000000	95.980	-120.5470
425.000000	95.992	-117.3017
431.000000	96.003	-114.5408
437.000000	96.014	-111.8035
444.000000	96.028	-108.6466
450.000000	96.038	-105.9640
455.000000	96.044	-103.7370
462.000000	96.052	-100.6394
468.000000	96.059	-98.0100
475.000000	96.066	-94.9690
482.000000	96.075	-91.9503
487.000000	96.083	-89.8086
494.000000	96.097	-86.8264
500.000000	96.109	-84.2789
508.000000	96.125	-80.8974
515.000000	96.141	-77.9596
522.000000	96.157	-75.0476
530.000000	96.176	-71.7579
538.000000	96.195	-68.5115
545.000000	96.210	-65.6879
552.000000	96.226	-62.8661
560.000000	96.246	-59.6537
570.000000	96.270	-55.6840
580.000000	96.295	-51.7552
590.000000	96.321	-47.8682
600.000000	96.349	-44.0347
608.000000	96.373	-41.0020
615.000000	96.394	-38.3628
622.000000	96.415	-35.7287
630.000000	96.439	-32.7305
640.000000	96.470	-29.0244
650.000000	96.501	-25.3668
660.000000	96.533	-21.7357
670.000000	96.566	-18.1309
680.000000	96.596	-14.5582
690.000000	96.625	-11.0098
700.000000	96.654	-7.4876
710.000000	96.685	-4.0010
720.000000	96.715	-0.5486
730.000000	96.747	2.8798
740.000000	96.780	6.2911
750.000000	96.812	9.6817
762.000000	96.849	13.7057
775.000000	96.891	17.9895
788.000000	96.937	22.1998
800.000000	96.981	26.0467
812.000000	97.026	29.8728
825.000000	97.073	33.9888
838.000000	97.123	38.0582
850.000000	97.168	41.7620
862.000000	97.210	45.4044
875.000000	97.248	49.2756
885.000000	97.270	52.2134
900.000000	97.293	56.5985
912.000000	97.303	60.1278
925.000000	97.309	64.0056
938.000000	97.318	67.9454
950.000000	97.336	71.6214
962.000000	97.367	75.3088
975.000000	97.412	79.2771
988.000000	97.466	83.1792
1000.000000	97.521	86.7152
1015.000000	97.594	91.0617
1030.000000	97.668	95.3289
1044.000000	97.739	99.2333
1060.000000	97.823	103.6058
1075.000000	97.901	107.6385
1090.000000	97.977	111.6155
1106.000000	98.055	115.7906
1120.000000	98.122	119.3908
1138.000000	98.207	123.9651
1150.000000	98.263	126.9852
1172.000000	98.362	132.4569
1180.000000	98.398	134.4249
1206.000000	98.509	140.7465
1220.000000	98.568	144.1068
1241.000000	98.656	149.0907
1250.000000	98.693	151.2073
1265.000000	98.755	154.7140
1280.000000	98.816	158.1998
1315.000000	98.955	166.2530
1320.000000	98.975	167.3932
1340.000000	99.056	171.9281
1360.000000	99.141	176.4212
1380.000000	99.227	-179.1326
1400.000000	99.314	-174.7362
1430.000000	99.450	-168.2266
1450.000000	99.546	-163.9439
1475.000000	99.672	-158.6592
1500.000000	99.804	-153.4431
1525.000000	99.943	-148.2979
1550.000000	100.089	-143.2357
1575.000000	100.243	-138.2629
1600.000000	100.406	-133.3932
1625.000000	100.575	-128.6381
1650.000000	100.751	-124.0047
1675.000000	100.935	-119.4937
1700.000000	101.123	-115.1119
1725.000000	101.315	-110.8635
1750.000000	101.510	-106.7465
1775.000000	101.708	-102.7700
1800.000000	101.904	-98.9449
1825.000000	102.096	-95.2703
1850.000000	102.282	-91.7368
1875.000000	102.462	-88.3351
1900.000000	102.634	-85.0612
1925.000000	102.798	-81.9068
1950.000000	102.952	-78.8553
1975.000000	103.095	-75.8931
2000.000000	103.227	-73.0092
2030.000000	103.370	-69.6328
2060.000000	103.498	-66.3230
2090.000000	103.612	-63.0581
2120.000000	103.716	-59.8271
2140.000000	103.781	-57.6890
2180.000000	103.904	-53.4500
2200.000000	103.964	-51.3503
2240.000000	104.083	-47.1927
2270.000000	104.173	-44.1144
2300.000000	104.265	-41.0801
2330.000000	104.360	-38.0994
2360.000000	104.459	-35.1782
2400.000000	104.597	-31.3880
2430.000000	104.705	-28.6359
2470.000000	104.853	-25.1019
2500.000000	104.969	-22.5640
2540.000000	105.126	-19.3507
2580.000000	105.286	-16.3442
2620.000000	105.445	-13.5471
2650.000000	105.562	-11.5842
2690.000000	105.710	-9.1422
2720.000000	105.814	-7.4383
2760.000000	105.943	-5.3285
2800.000000	106.059	-3.3973
2850.000000	106.184	-1.2250
2900.000000	106.283	0.6943
2950.000000	106.355	2.3887
3000.000000	106.394	3.8802
3040.000000	106.400	4.9496
3070.000000	106.390	5.6945
3110.000000	106.359	6.6245
3150.000000	106.308	7.4960
3200.000000	106.216	8.5356
3250.000000	106.094	9.5546
3300.000000	105.947	10.5714
3350.000000	105.780	11.5965
3400.000000	105.595	12.6417
3450.000000	105.395	13.7091
3500.000000	105.183	14.7972
3550.000000	104.962	15.9102
3600.000000	104.732	17.0525
3650.000000	104.495	18.2194
3700.000000	104.252	19.4053
3750.000000	104.001	20.6190
3820.000000	103.643	22.3842
3870.000000	103.382	23.6984
3950.000000	102.957	25.9284
4000.000000	102.690	27.4331
4060.000000	102.372	29.3887
4120.000000	102.065	31.5366
4180.000000	101.781	33.8963
4250.000000	101.501	36.9152
4310.000000	101.327	39.6873
4370.000000	101.234	42.5423
4440.000000	101.248	45.7977
4500.000000	101.374	48.3265
4550.000000	101.555	50.1038
4620.000000	101.910	51.8604
4680.000000	102.279	52.4904
4750.000000	102.730	52.0116
4820.000000	103.134	50.1722
4870.000000	103.356	48.1128
4940.000000	103.538	44.4849
5000.000000	103.564	41.0352
5080.000000	103.429	36.4927
5150.000000	103.191	32.8960
5220.000000	102.885	29.7600
5300.000000	102.500	26.6814
5380.000000	102.108	23.9984
5450.000000	101.774	21.8619
5520.000000	101.453	19.8502
5600.000000	101.104	17.6467
5700.000000	100.697	14.9795
5800.000000	100.323	12.3637
5900.000000	99.984	9.7415
6000.000000	99.681	7.0535
6080.000000	99.463	4.8275
6150.000000	99.291	2.8118
6220.000000	99.133	0.7238
6300.000000	98.967	-1.7543
6400.000000	98.779	-4.9600
6500.000000	98.617	-8.2080
6600.000000	98.496	-11.4413
6700.000000	98.436	-14.6821
6800.000000	98.449	-18.0204
6900.000000	98.539	-21.5645
7000.000000	98.707	-25.3967
7100.000000	98.956	-29.5644
7200.000000	99.294	-34.1174
7300.000000	99.722	-39.1425
7400.000000	100.242	-44.7476
7500.000000	100.856	-51.0506
7620.000000	101.713	-59.7406
7750.000000	102.770	-70.9140
7880.000000	103.893	-84.4910
8000.000000	104.875	-99.7242
8120.000000	105.658	-117.8427
8250.000000	106.121	-140.3090
8380.000000	106.075	-164.2459
8500.000000	105.574	174.1286
8620.000000	104.716	154.2504
8750.000000	103.529	135.2315
8850.000000	102.534	122.2564
9000.000000	101.055	104.8435
9120.000000	99.959	92.1094
9250.000000	98.903	79.0146
9380.000000	97.993	66.3063
9500.000000	97.275	54.7113
9620.000000	96.667	43.1144
9750.000000	96.121	30.4297
9880.000000	95.679	17.4994
10000.000000	95.348	5.2731
10150.000000	95.016	-10.4141
10300.000000	94.770	-26.5199
10440.000000	94.628	-41.9900
10600.000000	94.563	-60.3933
10750.000000	94.566	-78.4789
10900.000000	94.596	-97.3464
11060.000000	94.637	-118.2199
11200.000000	94.677	-137.0336
11380.000000	94.735	-161.9381
11500.000000	94.777	-178.9968
11720.000000	94.848	148.8442
11800.000000	94.872	136.9041
12060.000000	94.974	97.2156
12200.000000	95.045	75.1232
12410.000000	95.120	40.8403
12500.000000	95.121	25.8093
12650.000000	95.080	0.5395
12800.000000	95.009	-24.8204
13150.000000	94.925	-84.8285
13200.000000	94.924	-93.6189
13400.000000	94.908	-129.4354
13600.000000	94.842	-166.0501
13800.000000	94.742	156.8697
14000.000000	94.650	119.3844
14300.000000	94.585	62.0166
14500.000000	94.597	22.9202
14750.000000	94.772	-26.8522
15000.000000	95.287	-78.5413
15250.000000	96.139	-134.2236
15500.000000	97.057	163.5640
15750.000000	97.567	93.3234
16000.000000	97.223	17.2295
16250.000000	95.852	-59.0613
16500.000000	93.614	-131.1486
16750.000000	90.863	161.1029
17000.000000	88.027	95.0979
17250.000000	85.477	28.3280
17500.000000	83.246	-38.7151
17750.000000	80.991	-101.4452
18000.000000	78.677	-156.8114
18250.000000	76.990	151.9475
18500.000000	76.512	100.5692
18750.000000	76.943	47.8304
19000.000000	77.787	-5.6130
19250.000000	78.780	-58.2899
19500.000000	79.759	-107.3638
19750.000000	80.559	-147.5054
