* Measurement data measured by REW V5.20.13
* Source: EXCL: Headset Microphone (Realtek(R) Audio), MICROPHONE (Hauptlautstärke), L, volume: 1,000
* Format: 256k Log Swept Sine, 1 sweep at -8,0 dBFS with no timing reference
* Dated: 21.07.2023 14:32:24
* REW Settings:
*  C-weighting compensation: Off
*  Target level: 75.0 dB
* Note: 
* Measurement: Bowie Music Mode
* Smoothing: 1/12 octave
* Frequency Step: 1/48 octave
* Start Frequency: 20.000 Hz
*
* Freq(Hz)	SPL(dB)	Phase(degrees)
20.000000	108.295	34.9655
20.299999	108.401	34.0269
20.600000	108.494	32.8162
20.900000	108.555	31.3955
21.200001	108.574	29.9002
21.400000	108.564	28.9497
21.799999	108.508	27.2665
22.000000	108.472	26.5662
22.400000	108.407	25.4333
22.700001	108.376	24.7408
23.000000	108.366	24.0999
23.299999	108.372	23.4606
23.600000	108.390	22.7997
24.000000	108.429	21.8637
24.299999	108.465	21.1066
24.700001	108.515	20.0034
25.000000	108.548	19.1061
25.400000	108.572	17.8621
25.799999	108.570	16.6822
26.200001	108.549	15.7010
26.500000	108.537	15.1282
26.900000	108.543	14.5280
27.200001	108.570	14.1021
27.600000	108.631	13.4172
28.000000	108.696	12.4890
28.500000	108.737	11.0341
29.000000	108.704	9.5532
29.500000	108.614	8.3656
30.000000	108.514	7.5679
30.400000	108.456	7.0808
30.700001	108.427	6.6980
31.100000	108.396	6.0562
31.500000	108.353	5.2499
32.000000	108.255	4.1731
32.500000	108.110	3.3398
33.000000	107.966	2.9686
33.500000	107.884	2.9435
34.000000	107.891	2.8928
34.500000	107.963	2.4927
35.000000	108.052	1.6834
35.500000	108.129	0.6023
36.000000	108.188	-0.6010
36.500000	108.230	-1.8553
37.000000	108.249	-3.1078
37.500000	108.242	-4.2730
38.200001	108.197	-5.5834
38.700001	108.158	-6.2565
39.500000	108.114	-7.0410
40.000000	108.098	-7.4802
40.599998	108.082	-8.0678
41.200001	108.054	-8.7545
41.799999	108.004	-9.4778
42.500000	107.931	-10.2864
43.099998	107.869	-10.9927
43.700001	107.806	-11.7733
44.400002	107.721	-12.7134
45.000000	107.644	-13.4435
45.500000	107.588	-13.9918
46.200001	107.522	-14.7174
46.799999	107.474	-15.3012
47.500000	107.427	-15.9060
48.200001	107.394	-16.4822
48.700001	107.373	-16.9254
49.400002	107.332	-17.5908
50.000000	107.283	-18.1537
50.799999	107.199	-18.8401
51.500000	107.119	-19.3805
52.200001	107.041	-19.9014
53.000000	106.957	-20.5467
53.799999	106.871	-21.2656
54.500000	106.792	-21.8983
55.200001	106.715	-22.5024
56.000000	106.634	-23.1683
57.000000	106.539	-23.9391
58.000000	106.453	-24.6261
59.000000	106.372	-25.2899
60.000000	106.285	-25.9067
60.799999	106.214	-26.3546
61.500000	106.151	-26.7359
62.200001	106.086	-27.1086
63.000000	106.009	-27.5035
64.000000	105.918	-27.9564
65.000000	105.834	-28.4204
66.000000	105.748	-28.8899
67.000000	105.661	-29.3125
68.000000	105.579	-29.6818
69.000000	105.506	-30.0192
70.000000	105.440	-30.3455
71.000000	105.381	-30.6798
72.000000	105.325	-31.0353
73.000000	105.270	-31.4177
74.000000	105.214	-31.8230
75.000000	105.157	-32.2334
76.199997	105.094	-32.7223
77.500000	105.039	-33.2800
78.800003	104.995	-33.9025
80.000000	104.955	-34.5507
81.199997	104.909	-35.2628
82.500000	104.850	-36.0933
83.800003	104.783	-36.9979
85.000000	104.715	-37.9030
86.199997	104.640	-38.8436
87.500000	104.547	-39.8337
88.500000	104.463	-40.5291
90.000000	104.310	-41.4274
91.199997	104.162	-42.0369
92.500000	103.987	-42.6658
93.800003	103.811	-43.3569
95.000000	103.667	-44.0916
96.199997	103.557	-44.9203
97.500000	103.472	-45.9136
98.800003	103.382	-46.9100
100.000000	103.248	-47.5276
101.500000	103.023	-47.4750
103.000000	102.807	-46.8081
104.400002	102.633	-46.1917
106.000000	102.453	-45.8128
107.500000	102.298	-45.7641
109.000000	102.158	-45.8463
110.599998	102.022	-45.9133
112.000000	101.913	-45.9075
113.800003	101.782	-45.8696
115.000000	101.698	-45.8822
117.199997	101.543	-45.9998
118.000000	101.487	-46.0405
120.599998	101.312	-46.0409
122.000000	101.228	-45.9813
124.099998	101.113	-45.8978
125.000000	101.066	-45.8679
126.500000	100.991	-45.8190
128.000000	100.919	-45.7712
131.500000	100.750	-45.6748
132.000000	100.726	-45.6645
134.000000	100.631	-45.6398
136.000000	100.541	-45.6382
138.000000	100.453	-45.6521
140.000000	100.365	-45.6714
143.000000	100.230	-45.6791
145.000000	100.144	-45.6683
147.500000	100.042	-45.6405
150.000000	99.947	-45.5615
152.500000	99.863	-45.3986
155.000000	99.787	-45.1741
157.500000	99.709	-44.9349
160.000000	99.627	-44.7108
162.500000	99.547	-44.4979
165.000000	99.474	-44.2871
167.500000	99.415	-44.0938
170.000000	99.374	-43.9347
172.500000	99.341	-43.7654
175.000000	99.299	-43.5314
177.500000	99.237	-43.2684
180.000000	99.163	-43.0033
182.500000	99.088	-42.6868
185.000000	99.010	-42.3092
187.500000	98.927	-41.9358
190.000000	98.846	-41.5770
192.500000	98.771	-41.1370
195.000000	98.688	-40.5522
197.500000	98.597	-39.8885
200.000000	98.542	-39.2617
203.000000	98.563	-38.6406
206.000000	98.642	-38.0442
209.000000	98.733	-37.4457
212.000000	98.822	-36.9851
214.000000	98.876	-36.7610
218.000000	98.970	-36.4581
220.000000	99.017	-36.3840
224.000000	99.119	-36.4156
227.000000	99.190	-36.6249
230.000000	99.248	-37.0095
233.000000	99.289	-37.5308
236.000000	99.310	-38.1055
240.000000	99.311	-38.8157
243.000000	99.298	-39.2626
247.000000	99.268	-39.7667
250.000000	99.237	-40.0888
254.000000	99.188	-40.4351
258.000000	99.136	-40.7132
262.000000	99.084	-40.9679
265.000000	99.048	-41.1460
269.000000	99.002	-41.3661
272.000000	98.969	-41.5260
276.000000	98.924	-41.7357
280.000000	98.878	-41.9348
285.000000	98.819	-42.1586
290.000000	98.763	-42.3616
295.000000	98.706	-42.5740
300.000000	98.649	-42.8030
304.000000	98.601	-42.9792
307.000000	98.564	-43.1060
311.000000	98.513	-43.2692
315.000000	98.463	-43.4194
320.000000	98.400	-43.5890
325.000000	98.335	-43.7545
330.000000	98.264	-43.9234
335.000000	98.193	-44.0895
340.000000	98.121	-44.2444
345.000000	98.048	-44.3808
350.000000	97.974	-44.4943
355.000000	97.898	-44.5892
360.000000	97.818	-44.6738
365.000000	97.735	-44.7513
370.000000	97.652	-44.8149
375.000000	97.568	-44.8491
382.000000	97.448	-44.8368
387.000000	97.364	-44.7842
395.000000	97.233	-44.6265
400.000000	97.153	-44.4968
406.000000	97.058	-44.3067
412.000000	96.964	-44.0647
418.000000	96.869	-43.7664
425.000000	96.765	-43.3781
431.000000	96.683	-43.0332
437.000000	96.606	-42.6758
444.000000	96.521	-42.2250
450.000000	96.453	-41.7959
455.000000	96.403	-41.4110
462.000000	96.343	-40.8503
468.000000	96.301	-40.3563
475.000000	96.262	-39.7682
482.000000	96.233	-39.1989
487.000000	96.219	-38.8260
494.000000	96.208	-38.3691
500.000000	96.206	-38.0421
508.000000	96.211	-37.6927
515.000000	96.217	-37.4690
522.000000	96.218	-37.3346
530.000000	96.207	-37.2787
538.000000	96.180	-37.2865
545.000000	96.140	-37.3112
552.000000	96.082	-37.3123
560.000000	95.997	-37.2473
570.000000	95.874	-37.0428
580.000000	95.745	-36.6542
590.000000	95.620	-36.0442
600.000000	95.508	-35.2552
608.000000	95.433	-34.5471
615.000000	95.378	-33.8890
622.000000	95.331	-33.2031
630.000000	95.289	-32.4070
640.000000	95.253	-31.4310
650.000000	95.233	-30.4835
660.000000	95.222	-29.5585
670.000000	95.218	-28.6589
680.000000	95.221	-27.7988
690.000000	95.230	-26.9901
700.000000	95.244	-26.2317
710.000000	95.260	-25.5157
720.000000	95.277	-24.8318
730.000000	95.293	-24.1730
740.000000	95.307	-23.5388
750.000000	95.316	-22.9227
762.000000	95.324	-22.1935
775.000000	95.330	-21.3982
788.000000	95.332	-20.5778
800.000000	95.331	-19.7933
812.000000	95.328	-18.9821
825.000000	95.323	-18.0646
838.000000	95.316	-17.1010
850.000000	95.308	-16.1724
862.000000	95.296	-15.2059
875.000000	95.279	-14.0953
885.000000	95.265	-13.1708
900.000000	95.248	-11.6002
912.000000	95.243	-10.1421
925.000000	95.258	-8.3734
938.000000	95.307	-6.4838
950.000000	95.387	-4.7079
962.000000	95.499	-2.9551
975.000000	95.650	-1.1177
988.000000	95.830	0.6470
1000.000000	96.020	2.2108
1015.000000	96.282	4.0624
1030.000000	96.567	5.7655
1044.000000	96.851	7.1810
1060.000000	97.192	8.5750
1075.000000	97.523	9.6752
1090.000000	97.861	10.5796
1106.000000	98.226	11.3297
1120.000000	98.544	11.8112
1138.000000	98.949	12.1993
1150.000000	99.213	12.3207
1172.000000	99.680	12.2827
1180.000000	99.844	12.1921
1206.000000	100.346	11.6497
1220.000000	100.597	11.2216
1241.000000	100.944	10.4321
1250.000000	101.082	10.0493
1265.000000	101.299	9.3684
1280.000000	101.498	8.6489
1315.000000	101.894	6.8879
1320.000000	101.943	6.6336
1340.000000	102.123	5.6271
1360.000000	102.276	4.6538
1380.000000	102.405	3.7349
1400.000000	102.515	2.8892
1430.000000	102.648	1.7849
1450.000000	102.721	1.1727
1475.000000	102.799	0.5526
1500.000000	102.865	0.1008
1525.000000	102.925	-0.1786
1550.000000	102.984	-0.2987
1575.000000	103.048	-0.2766
1600.000000	103.121	-0.1265
1625.000000	103.210	0.1296
1650.000000	103.317	0.4710
1675.000000	103.443	0.8759
1700.000000	103.589	1.3030
1725.000000	103.754	1.6958
1750.000000	103.937	2.0119
1775.000000	104.133	2.2239
1800.000000	104.337	2.3114
1825.000000	104.546	2.2629
1850.000000	104.753	2.0739
1875.000000	104.954	1.7465
1900.000000	105.142	1.2928
1925.000000	105.313	0.7369
1950.000000	105.464	0.1124
1975.000000	105.591	-0.5466
2000.000000	105.693	-1.2071
2030.000000	105.785	-1.9480
2060.000000	105.847	-2.5664
2090.000000	105.887	-2.9949
2120.000000	105.914	-3.1852
2140.000000	105.931	-3.1696
2180.000000	105.983	-2.8112
2200.000000	106.026	-2.4901
2240.000000	106.161	-1.6583
2270.000000	106.315	-0.9747
2300.000000	106.516	-0.3578
2330.000000	106.758	0.0879
2360.000000	107.031	0.2739
2400.000000	107.416	0.0151
2430.000000	107.701	-0.5905
2470.000000	108.050	-1.9253
2500.000000	108.276	-3.2718
2540.000000	108.513	-5.4242
2580.000000	108.666	-7.8492
2620.000000	108.729	-10.3928
2650.000000	108.716	-12.2860
2690.000000	108.621	-14.6725
2720.000000	108.494	-16.2849
2760.000000	108.257	-18.0983
2800.000000	107.955	-19.4194
2850.000000	107.510	-20.2209
2900.000000	107.028	-19.9438
2950.000000	106.566	-18.5364
3000.000000	106.194	-16.1415
3040.000000	106.003	-13.7582
3070.000000	105.934	-11.8719
3110.000000	105.938	-9.4606
3150.000000	106.028	-7.3964
3200.000000	106.201	-5.5236
3250.000000	106.367	-4.4434
3300.000000	106.466	-3.9121
3350.000000	106.470	-3.5260
3400.000000	106.386	-2.8468
3450.000000	106.254	-1.5385
3500.000000	106.140	0.5227
3550.000000	106.118	3.1917
3600.000000	106.238	6.0758
3650.000000	106.498	8.6718
3700.000000	106.850	10.5596
3750.000000	107.226	11.5295
3820.000000	107.671	11.4154
3870.000000	107.877	10.5763
3950.000000	107.960	8.7732
4000.000000	107.859	7.8606
4060.000000	107.608	7.4790
4120.000000	107.266	8.2544
4180.000000	106.919	10.3935
4250.000000	106.661	14.4600
4310.000000	106.689	18.7385
4370.000000	106.998	22.9431
4440.000000	107.647	26.6945
4500.000000	108.326	28.2870
4550.000000	108.892	28.3011
4620.000000	109.585	26.4001
4680.000000	110.021	23.2629
4750.000000	110.292	18.3690
4820.000000	110.274	12.8508
4870.000000	110.080	8.9820
4940.000000	109.575	4.2797
5000.000000	108.965	1.3074
5080.000000	107.991	-0.9059
5150.000000	107.082	-1.4156
5220.000000	106.181	-1.0133
5300.000000	105.183	0.1192
5380.000000	104.192	1.7739
5450.000000	103.300	3.7382
5520.000000	102.372	6.3875
5600.000000	101.278	10.4858
5700.000000	99.937	17.2792
5800.000000	98.737	25.4494
5900.000000	97.729	34.2588
6000.000000	96.862	43.4450
6080.000000	96.248	51.2871
6150.000000	95.811	58.5802
6220.000000	95.527	66.0048
6300.000000	95.413	73.9532
6400.000000	95.453	81.9893
6500.000000	95.413	87.7823
6600.000000	95.095	92.7014
6700.000000	94.503	98.5050
6800.000000	93.822	105.8680
6900.000000	93.268	113.7632
7000.000000	92.841	120.5267
7100.000000	92.283	126.0890
7200.000000	91.331	133.6309
7300.000000	90.053	149.0943
7400.000000	89.368	176.1180
7500.000000	90.481	-151.8958
7620.000000	93.036	-124.1796
7750.000000	95.397	-112.1590
7880.000000	97.121	-108.6868
8000.000000	98.467	-106.6201
8120.000000	99.734	-104.9611
8250.000000	100.890	-105.0015
8380.000000	101.629	-107.0641
8500.000000	101.913	-109.4740
8620.000000	101.905	-111.2839
8750.000000	101.682	-112.3439
8850.000000	101.380	-112.6752
9000.000000	100.657	-112.0956
9120.000000	99.811	-109.7422
9250.000000	98.709	-104.3140
9380.000000	97.650	-96.1709
9500.000000	96.909	-87.5197
9620.000000	96.407	-78.7609
9750.000000	96.046	-69.1927
9880.000000	95.887	-59.2790
10000.000000	95.996	-50.3144
10150.000000	96.401	-40.8636
10300.000000	96.801	-34.1249
10440.000000	96.966	-29.3610
10600.000000	96.934	-23.9579
10750.000000	96.879	-18.4330
10900.000000	96.898	-13.3688
11060.000000	96.877	-9.2550
11200.000000	96.702	-6.2328
11380.000000	96.300	-1.9299
11500.000000	96.023	1.1807
11720.000000	95.560	6.1186
11800.000000	95.362	7.6291
12060.000000	94.529	13.1706
12200.000000	94.095	16.8712
12410.000000	93.663	22.1079
12500.000000	93.540	23.9702
12650.000000	93.380	26.6207
12800.000000	93.267	28.8128
13150.000000	93.068	32.1560
13200.000000	93.028	32.5605
13400.000000	92.876	34.5364
13600.000000	92.849	36.7547
13800.000000	92.937	38.0089
14000.000000	92.953	37.8113
14300.000000	92.543	36.0049
14500.000000	91.900	34.8576
14750.000000	90.645	34.8207
15000.000000	88.884	38.1655
15250.000000	86.603	48.7335
15500.000000	84.146	70.0999
15750.000000	82.932	95.2931
16000.000000	83.284	109.3815
16250.000000	83.367	109.9465
16500.000000	82.396	106.5072
16750.000000	80.612	105.6777
17000.000000	78.541	106.9146
17250.000000	76.551	107.8468
17500.000000	74.573	109.4570
17750.000000	72.279	116.5620
18000.000000	69.651	131.5463
18250.000000	67.225	150.4936
18500.000000	65.541	169.2243
18750.000000	64.551	-173.2611
19000.000000	63.855	-156.4944
19250.000000	63.143	-140.0648
19500.000000	62.303	-124.4156
19750.000000	61.424	-111.4207
