* Measurement data measured by REW V5.20.13
* Source: EXCL: Headset Microphone (Realtek(R) Audio), MICROPHONE (Hauptlautstärke), L, volume: 1,000
* Format: 256k Log Swept Sine, 1 sweep at -8,0 dBFS with no timing reference
* Dated: 30.06.2023 16:59:31
* REW Settings:
*  C-weighting compensation: Off
*  Target level: 75.0 dB
* Note: 
* Measurement: Jun 30
* Smoothing: 1/12 octave
* Frequency Step: 1/48 octave
* Start Frequency: 20.000 Hz
*
* Freq(Hz)	SPL(dB)	Phase(degrees)
20.000000	105.746	10.2347
20.299999	105.737	9.5397
20.600000	105.722	8.8634
20.900000	105.702	8.2259
21.200001	105.681	7.6338
21.400000	105.668	7.2587
21.799999	105.645	6.5391
22.000000	105.635	6.1862
22.400000	105.619	5.4823
22.700001	105.607	4.9545
23.000000	105.595	4.4282
23.299999	105.583	3.9050
23.600000	105.570	3.3859
24.000000	105.552	2.7021
24.299999	105.536	2.1999
24.700001	105.514	1.5515
25.000000	105.496	1.0851
25.400000	105.472	0.4887
25.799999	105.449	-0.0878
26.200001	105.425	-0.6550
26.500000	105.406	-1.0762
26.900000	105.378	-1.6281
27.200001	105.355	-2.0296
27.600000	105.323	-2.5447
28.000000	105.290	-3.0385
28.500000	105.247	-3.6378
29.000000	105.204	-4.2280
29.500000	105.160	-4.8103
30.000000	105.114	-5.3828
30.400000	105.078	-5.8353
30.700001	105.050	-6.1727
31.100000	105.014	-6.6204
31.500000	104.977	-7.0630
32.000000	104.932	-7.6053
32.500000	104.888	-8.1359
33.000000	104.845	-8.6604
33.500000	104.802	-9.1788
34.000000	104.758	-9.6780
34.500000	104.713	-10.1403
35.000000	104.669	-10.5627
35.500000	104.630	-10.9637
36.000000	104.593	-11.3679
36.500000	104.555	-11.7842
37.000000	104.512	-12.1996
37.500000	104.464	-12.5926
38.200001	104.395	-13.0889
38.700001	104.347	-13.4177
39.500000	104.273	-13.9411
40.000000	104.229	-14.2766
40.599998	104.176	-14.6893
41.200001	104.124	-15.1148
41.799999	104.070	-15.5524
42.500000	104.005	-16.0599
43.099998	103.947	-16.4651
43.700001	103.888	-16.8274
44.400002	103.825	-17.2078
45.000000	103.774	-17.5198
45.500000	103.731	-17.7761
46.200001	103.671	-18.1215
46.799999	103.618	-18.4003
47.500000	103.556	-18.7145
48.200001	103.492	-19.0242
48.700001	103.446	-19.2393
49.400002	103.380	-19.5292
50.000000	103.324	-19.7744
50.799999	103.249	-20.0980
51.500000	103.181	-20.3576
52.200001	103.116	-20.5840
53.000000	103.048	-20.8252
53.799999	102.984	-21.0731
54.500000	102.930	-21.2948
55.200001	102.877	-21.5231
56.000000	102.815	-21.8034
57.000000	102.730	-22.1496
58.000000	102.641	-22.4269
59.000000	102.557	-22.6736
60.000000	102.469	-22.9142
60.799999	102.396	-23.0504
61.500000	102.338	-23.1375
62.200001	102.286	-23.2416
63.000000	102.228	-23.4010
64.000000	102.158	-23.6153
65.000000	102.096	-23.8430
66.000000	102.038	-24.1197
67.000000	101.974	-24.3846
68.000000	101.905	-24.5585
69.000000	101.834	-24.6471
70.000000	101.762	-24.6969
71.000000	101.689	-24.7709
72.000000	101.612	-24.9129
73.000000	101.535	-25.1048
74.000000	101.466	-25.3207
75.000000	101.409	-25.5326
76.199997	101.350	-25.7047
77.500000	101.287	-25.7279
78.800003	101.207	-25.6158
80.000000	101.112	-25.5132
81.199997	101.002	-25.5543
82.500000	100.882	-25.8170
83.800003	100.783	-26.1545
85.000000	100.723	-26.3521
86.199997	100.676	-26.3533
87.500000	100.594	-26.1228
88.500000	100.491	-25.8464
90.000000	100.292	-25.5587
91.199997	100.154	-25.7023
92.500000	100.100	-26.1727
93.800003	100.204	-26.3542
95.000000	100.474	-25.5050
96.199997	100.928	-23.2271
97.500000	101.608	-19.6512
98.800003	102.295	-16.7734
100.000000	102.615	-16.3369
101.500000	102.290	-17.8865
103.000000	101.396	-19.3312
104.400002	100.559	-20.5129
106.000000	99.977	-22.1907
107.500000	99.778	-23.5278
109.000000	99.737	-23.9870
110.599998	99.716	-23.6704
112.000000	99.663	-23.2759
113.800003	99.560	-23.1328
115.000000	99.502	-23.2177
117.199997	99.461	-23.1967
118.000000	99.464	-23.0554
120.599998	99.467	-22.3962
122.000000	99.443	-22.2717
124.099998	99.363	-22.6183
125.000000	99.318	-22.8584
126.500000	99.242	-23.2210
128.000000	99.167	-23.4702
131.500000	98.985	-23.8059
132.000000	98.958	-23.8469
134.000000	98.858	-23.9423
136.000000	98.790	-23.8242
138.000000	98.758	-23.5520
140.000000	98.730	-23.2925
143.000000	98.651	-23.0465
145.000000	98.582	-22.9332
147.500000	98.496	-22.7737
150.000000	98.412	-22.5675
152.500000	98.331	-22.3389
155.000000	98.255	-22.1437
157.500000	98.184	-21.9846
160.000000	98.116	-21.8237
162.500000	98.052	-21.6336
165.000000	97.990	-21.4218
167.500000	97.929	-21.1995
170.000000	97.866	-20.9670
172.500000	97.803	-20.7257
175.000000	97.740	-20.4801
177.500000	97.678	-20.2336
180.000000	97.617	-19.9858
182.500000	97.558	-19.7320
185.000000	97.499	-19.4764
187.500000	97.442	-19.2299
190.000000	97.384	-18.9890
192.500000	97.328	-18.7445
195.000000	97.274	-18.4898
197.500000	97.220	-18.2153
200.000000	97.165	-17.9077
203.000000	97.094	-17.4843
206.000000	97.022	-17.0161
209.000000	96.953	-16.4998
212.000000	96.894	-15.9093
214.000000	96.864	-15.4758
218.000000	96.833	-14.5817
220.000000	96.834	-14.1617
224.000000	96.865	-13.4642
227.000000	96.903	-13.1218
230.000000	96.936	-12.9581
233.000000	96.953	-12.9377
236.000000	96.949	-12.9849
240.000000	96.916	-13.0375
243.000000	96.879	-13.0248
247.000000	96.825	-12.9266
250.000000	96.783	-12.8019
254.000000	96.726	-12.5875
258.000000	96.670	-12.3330
262.000000	96.619	-12.0504
265.000000	96.583	-11.8239
269.000000	96.534	-11.5083
272.000000	96.499	-11.2695
276.000000	96.454	-10.9559
280.000000	96.414	-10.6428
285.000000	96.365	-10.2472
290.000000	96.319	-9.8574
295.000000	96.275	-9.4713
300.000000	96.235	-9.0695
304.000000	96.204	-8.7356
307.000000	96.181	-8.4814
311.000000	96.151	-8.1354
315.000000	96.121	-7.7819
320.000000	96.085	-7.3466
325.000000	96.048	-6.9325
330.000000	96.013	-6.5385
335.000000	95.982	-6.1522
340.000000	95.954	-5.7598
345.000000	95.925	-5.3602
350.000000	95.897	-4.9679
355.000000	95.871	-4.5870
360.000000	95.845	-4.2069
365.000000	95.820	-3.8261
370.000000	95.794	-3.4495
375.000000	95.770	-3.0748
382.000000	95.737	-2.5460
387.000000	95.715	-2.1636
395.000000	95.684	-1.5504
400.000000	95.666	-1.1710
406.000000	95.646	-0.7233
412.000000	95.628	-0.2882
418.000000	95.612	0.1371
425.000000	95.592	0.6375
431.000000	95.574	1.0780
437.000000	95.556	1.5195
444.000000	95.536	2.0251
450.000000	95.521	2.4534
455.000000	95.509	2.8089
462.000000	95.493	3.3030
468.000000	95.480	3.7239
475.000000	95.467	4.2152
482.000000	95.453	4.7031
487.000000	95.445	5.0483
494.000000	95.433	5.5260
500.000000	95.425	5.9286
508.000000	95.417	6.4618
515.000000	95.410	6.9353
522.000000	95.403	7.4136
530.000000	95.394	7.9564
538.000000	95.386	8.4880
545.000000	95.380	8.9451
552.000000	95.374	9.4037
560.000000	95.369	9.9395
570.000000	95.364	10.6235
580.000000	95.362	11.3034
590.000000	95.362	11.9734
600.000000	95.365	12.6371
608.000000	95.368	13.1647
615.000000	95.371	13.6251
622.000000	95.373	14.0842
630.000000	95.377	14.6077
640.000000	95.384	15.2599
650.000000	95.392	15.9114
660.000000	95.401	16.5701
670.000000	95.412	17.2404
680.000000	95.427	17.9139
690.000000	95.445	18.5780
700.000000	95.465	19.2241
710.000000	95.484	19.8585
720.000000	95.505	20.4970
730.000000	95.526	21.1442
740.000000	95.550	21.7925
750.000000	95.576	22.4402
762.000000	95.610	23.2201
775.000000	95.651	24.0654
788.000000	95.695	24.9016
800.000000	95.739	25.6579
812.000000	95.785	26.3962
825.000000	95.839	27.1821
838.000000	95.898	27.9669
850.000000	95.955	28.6928
862.000000	96.015	29.4130
875.000000	96.083	30.1797
885.000000	96.139	30.7573
900.000000	96.228	31.6061
912.000000	96.301	32.2722
925.000000	96.382	32.9741
938.000000	96.466	33.6484
950.000000	96.546	34.2451
962.000000	96.630	34.8202
975.000000	96.724	35.4216
988.000000	96.820	35.9994
1000.000000	96.909	36.5108
1015.000000	97.020	37.1181
1030.000000	97.132	37.6872
1044.000000	97.237	38.1879
1060.000000	97.358	38.7318
1075.000000	97.471	39.2159
1090.000000	97.585	39.6734
1106.000000	97.706	40.1350
1120.000000	97.812	40.5179
1138.000000	97.949	40.9842
1150.000000	98.043	41.2760
1172.000000	98.217	41.7434
1180.000000	98.279	41.8853
1206.000000	98.475	42.2543
1220.000000	98.574	42.4173
1241.000000	98.718	42.6482
1250.000000	98.778	42.7456
1265.000000	98.876	42.9058
1280.000000	98.971	43.0606
1315.000000	99.186	43.3949
1320.000000	99.215	43.4393
1340.000000	99.332	43.6090
1360.000000	99.447	43.7685
1380.000000	99.560	43.9230
1400.000000	99.673	44.0770
1430.000000	99.841	44.3065
1450.000000	99.952	44.4565
1475.000000	100.089	44.6355
1500.000000	100.225	44.7992
1525.000000	100.360	44.9448
1550.000000	100.494	45.0724
1575.000000	100.627	45.1874
1600.000000	100.760	45.2919
1625.000000	100.892	45.3814
1650.000000	101.023	45.4553
1675.000000	101.155	45.5127
1700.000000	101.287	45.5519
1725.000000	101.419	45.5702
1750.000000	101.551	45.5659
1775.000000	101.683	45.5410
1800.000000	101.815	45.4970
1825.000000	101.945	45.4318
1850.000000	102.074	45.3422
1875.000000	102.203	45.2272
1900.000000	102.330	45.0864
1925.000000	102.455	44.9202
1950.000000	102.578	44.7283
1975.000000	102.699	44.5106
2000.000000	102.820	44.2674
2030.000000	102.962	43.9445
2060.000000	103.100	43.5876
2090.000000	103.233	43.1939
2120.000000	103.361	42.7651
2140.000000	103.444	42.4607
2180.000000	103.602	41.8073
2200.000000	103.678	41.4598
2240.000000	103.821	40.7321
2270.000000	103.921	40.1616
2300.000000	104.013	39.5716
2330.000000	104.098	38.9637
2360.000000	104.176	38.3403
2400.000000	104.268	37.4924
2430.000000	104.329	36.8519
2470.000000	104.397	36.0034
2500.000000	104.438	35.3806
2540.000000	104.482	34.5830
2580.000000	104.516	33.8354
2620.000000	104.541	33.1439
2650.000000	104.557	32.6619
2690.000000	104.576	32.0625
2720.000000	104.590	31.6399
2760.000000	104.608	31.1024
2800.000000	104.624	30.5845
2850.000000	104.641	29.9582
2900.000000	104.652	29.3570
2950.000000	104.660	28.7871
3000.000000	104.663	28.2633
3040.000000	104.663	27.8964
3070.000000	104.662	27.6604
3110.000000	104.663	27.4041
3150.000000	104.672	27.2130
3200.000000	104.703	27.0403
3250.000000	104.765	26.8689
3300.000000	104.859	26.5797
3350.000000	104.972	26.0610
3400.000000	105.084	25.2688
3450.000000	105.179	24.2394
3500.000000	105.249	23.0538
3550.000000	105.291	21.7836
3600.000000	105.309	20.4718
3650.000000	105.304	19.1454
3700.000000	105.276	17.8278
3750.000000	105.226	16.5477
3820.000000	105.123	14.8972
3870.000000	105.033	13.8737
3950.000000	104.888	12.5221
4000.000000	104.810	11.7983
4060.000000	104.736	10.9578
4120.000000	104.680	10.0659
4180.000000	104.634	9.0682
4250.000000	104.582	7.7411
4310.000000	104.530	6.4600
4370.000000	104.466	5.0530
4440.000000	104.364	3.2791
4500.000000	104.249	1.6856
4550.000000	104.132	0.3427
4620.000000	103.934	-1.5002
4680.000000	103.733	-2.9957
4750.000000	103.468	-4.5931
4820.000000	103.175	-5.9962
4870.000000	102.953	-6.8669
4940.000000	102.629	-7.8942
5000.000000	102.344	-8.5959
5080.000000	101.958	-9.2762
5150.000000	101.621	-9.6429
5220.000000	101.287	-9.8081
5300.000000	100.912	-9.7540
5380.000000	100.549	-9.4490
5450.000000	100.243	-8.9928
5520.000000	99.951	-8.3777
5600.000000	99.635	-7.4982
5700.000000	99.273	-6.1544
5800.000000	98.950	-4.5627
5900.000000	98.667	-2.7529
6000.000000	98.427	-0.7551
6080.000000	98.266	0.9636
6150.000000	98.149	2.5464
6220.000000	98.054	4.1942
6300.000000	97.975	6.1459
6400.000000	97.923	8.6659
6500.000000	97.927	11.2288
6600.000000	97.986	13.7688
6700.000000	98.097	16.2552
6800.000000	98.260	18.6926
6900.000000	98.482	21.0613
7000.000000	98.768	23.3014
7100.000000	99.125	25.3375
7200.000000	99.555	27.0807
7300.000000	100.060	28.4181
7400.000000	100.636	29.2115
7500.000000	101.272	29.2920
7620.000000	102.085	28.1645
7750.000000	102.953	25.0372
7880.000000	103.692	19.6192
8000.000000	104.144	12.6730
8120.000000	104.286	4.4548
8250.000000	104.044	-4.7125
8380.000000	103.416	-12.8328
8500.000000	102.573	-18.6151
8620.000000	101.575	-22.5345
8750.000000	100.423	-24.8613
8850.000000	99.544	-25.5348
9000.000000	98.300	-25.1722
9120.000000	97.399	-24.0104
9250.000000	96.531	-22.1320
9380.000000	95.777	-19.7936
9500.000000	95.182	-17.3564
9620.000000	94.679	-14.7472
9750.000000	94.235	-11.8094
9880.000000	93.890	-8.8293
10000.000000	93.654	-6.0952
10150.000000	93.464	-2.7563
10300.000000	93.388	0.4473
10440.000000	93.418	3.2671
10600.000000	93.576	6.1959
10750.000000	93.843	8.5049
10900.000000	94.212	10.1866
11060.000000	94.682	11.0424
11200.000000	95.111	10.8505
11380.000000	95.618	9.3315
11500.000000	95.906	7.6588
11720.000000	96.329	3.4946
11800.000000	96.450	1.5992
12060.000000	96.631	-6.3235
12200.000000	96.503	-11.4906
12410.000000	95.913	-19.0753
12500.000000	95.516	-21.8120
12650.000000	94.698	-25.2498
12800.000000	93.747	-27.1271
13150.000000	91.414	-26.2271
13200.000000	91.099	-25.6439
13400.000000	89.938	-22.5859
13600.000000	88.961	-18.7576
13800.000000	88.178	-14.5632
14000.000000	87.584	-10.2961
14300.000000	87.027	-4.2411
14500.000000	86.866	-0.7208
14750.000000	86.874	2.7531
15000.000000	87.069	4.8219
15250.000000	87.375	5.1237
15500.000000	87.688	3.4398
15750.000000	87.885	-0.1432
16000.000000	87.861	-5.0548
16250.000000	87.569	-10.3294
16500.000000	87.035	-15.0095
16750.000000	86.346	-18.5840
17000.000000	85.615	-21.1869
17250.000000	84.941	-23.5327
17500.000000	84.355	-26.6980
17750.000000	83.772	-31.6650
18000.000000	82.998	-38.4944
18250.000000	81.829	-45.7199
18500.000000	80.172	-51.1040
18750.000000	78.074	-53.1996
19000.000000	75.655	-51.8121
19250.000000	73.048	-47.5210
19500.000000	70.390	-41.4346
19750.000000	67.912	-35.2534
