* Measurement data measured by REW V5.20.9
* Source: Mikrofon (Realtek(R) Audio), MICROPHONE (Hauptlautstärke), L, volume: 0,680
* Format: 256k Log Swept Sine, 1 sweep at -8,0 dBFS with no timing reference
* Dated: 29.08.2022 19:31:53
* REW Settings:
*  C-weighting compensation: Off
*  Target level: 75.0 dB
* Note: 
* Measurement: Ikko OH 10 Filter
* Smoothing: 1/12 octave
* Frequency Step: 1/48 octave
* Start Frequency: 20.000 Hz
*
* Freq(Hz)	SPL(dB)	Phase(degrees)
20.000000	95.941	-176.8236
20.299999	95.913	-176.9122
20.600000	95.901	-176.9387
20.900000	95.907	-176.9601
21.200001	95.928	-177.0332
21.400000	95.946	-177.1277
21.799999	95.982	-177.4183
22.000000	95.997	-177.6013
22.400000	96.017	-177.9972
22.700001	96.024	-178.2879
23.000000	96.028	-178.5596
23.299999	96.031	-178.8198
23.600000	96.032	-179.0792
24.000000	96.029	-179.4337
24.299999	96.021	-179.7009
24.700001	96.003	179.9618
25.000000	95.985	179.7372
25.400000	95.958	179.4817
25.799999	95.932	179.2637
26.200001	95.909	179.0602
26.500000	95.895	178.9040
26.900000	95.878	178.6777
27.200001	95.866	178.4866
27.600000	95.850	178.1983
28.000000	95.830	177.8796
28.500000	95.797	177.4813
29.000000	95.761	177.1429
29.500000	95.735	176.8738
30.000000	95.725	176.6072
30.400000	95.726	176.3429
30.700001	95.728	176.1066
31.100000	95.727	175.7607
31.500000	95.721	175.4126
32.000000	95.709	175.0132
32.500000	95.698	174.6558
33.000000	95.687	174.3207
33.500000	95.674	174.0084
34.000000	95.659	173.7399
34.500000	95.644	173.5209
35.000000	95.632	173.3297
35.500000	95.621	173.1414
36.000000	95.608	172.9566
36.500000	95.593	172.7902
37.000000	95.579	172.6392
37.500000	95.568	172.4742
38.200001	95.550	172.1716
38.700001	95.528	171.9216
39.500000	95.478	171.5806
40.000000	95.447	171.4312
40.599998	95.420	171.2732
41.200001	95.405	171.0665
41.799999	95.392	170.7775
42.500000	95.369	170.3661
43.099998	95.341	170.0123
43.700001	95.307	169.7039
44.400002	95.271	169.4062
45.000000	95.246	169.1745
45.500000	95.226	168.9823
46.200001	95.197	168.7252
46.799999	95.172	168.5354
47.500000	95.146	168.3447
48.200001	95.122	168.1543
48.700001	95.105	168.0078
49.400002	95.078	167.7960
50.000000	95.052	167.6185
50.799999	95.019	167.3814
51.500000	94.991	167.1468
52.200001	94.960	166.8778
53.000000	94.916	166.5846
53.799999	94.873	166.3834
54.500000	94.849	166.2595
55.200001	94.840	166.0995
56.000000	94.833	165.8178
57.000000	94.809	165.3781
58.000000	94.760	164.9797
59.000000	94.695	164.7257
60.000000	94.633	164.6099
60.799999	94.593	164.5507
61.500000	94.566	164.4741
62.200001	94.543	164.3517
63.000000	94.516	164.1640
64.000000	94.478	163.9067
65.000000	94.437	163.6669
66.000000	94.397	163.4518
67.000000	94.354	163.2577
68.000000	94.309	163.0805
69.000000	94.262	162.9069
70.000000	94.215	162.7197
71.000000	94.170	162.5135
72.000000	94.129	162.2984
73.000000	94.093	162.0944
74.000000	94.063	161.9166
75.000000	94.035	161.7761
76.199997	93.998	161.6700
77.500000	93.950	161.6111
78.800003	93.895	161.5421
80.000000	93.839	161.4055
81.199997	93.782	161.1994
82.500000	93.725	160.9501
83.800003	93.674	160.7072
85.000000	93.625	160.5247
86.199997	93.566	160.4097
87.500000	93.493	160.3406
88.500000	93.437	160.2975
90.000000	93.372	160.1832
91.199997	93.341	160.0089
92.500000	93.316	159.8168
93.800003	93.282	159.7634
95.000000	93.227	159.9126
96.199997	93.135	160.2747
97.500000	93.004	160.8979
98.800003	92.885	161.6241
100.000000	92.836	162.0157
101.500000	92.836	161.6250
103.000000	92.828	160.6050
104.400002	92.806	159.7673
106.000000	92.782	159.2579
107.500000	92.753	159.1161
109.000000	92.704	159.1171
110.599998	92.637	159.1315
112.000000	92.580	159.1039
113.800003	92.518	159.0199
115.000000	92.482	158.9630
117.199997	92.407	158.9001
118.000000	92.376	158.8859
120.599998	92.262	158.8339
122.000000	92.205	158.8132
124.099998	92.136	158.8022
125.000000	92.111	158.7995
126.500000	92.067	158.8000
128.000000	92.020	158.8173
131.500000	91.902	158.8979
132.000000	91.885	158.9103
134.000000	91.820	158.9628
136.000000	91.753	159.0239
138.000000	91.684	159.1026
140.000000	91.615	159.2068
143.000000	91.518	159.3858
145.000000	91.455	159.5202
147.500000	91.375	159.7296
150.000000	91.298	159.9954
152.500000	91.235	160.2743
155.000000	91.189	160.5230
157.500000	91.156	160.7154
160.000000	91.122	160.8567
162.500000	91.079	160.9476
165.000000	91.030	160.9968
167.500000	90.979	161.0084
170.000000	90.923	161.0151
172.500000	90.862	161.0703
175.000000	90.800	161.1845
177.500000	90.737	161.3455
180.000000	90.678	161.5289
182.500000	90.620	161.7102
185.000000	90.566	161.8870
187.500000	90.517	162.0587
190.000000	90.471	162.2237
192.500000	90.424	162.3852
195.000000	90.374	162.5562
197.500000	90.321	162.7484
200.000000	90.268	162.9537
203.000000	90.206	163.1834
206.000000	90.146	163.3837
209.000000	90.088	163.5802
212.000000	90.032	163.7880
214.000000	89.996	163.9337
218.000000	89.925	164.2498
220.000000	89.891	164.4193
224.000000	89.825	164.7585
227.000000	89.776	165.0087
230.000000	89.726	165.2611
233.000000	89.678	165.5173
236.000000	89.631	165.7702
240.000000	89.573	166.0980
243.000000	89.531	166.3490
247.000000	89.475	166.6951
250.000000	89.432	166.9561
254.000000	89.375	167.2983
258.000000	89.322	167.6414
262.000000	89.267	168.0052
265.000000	89.227	168.2912
269.000000	89.178	168.6779
272.000000	89.144	168.9650
276.000000	89.100	169.3362
280.000000	89.056	169.6985
285.000000	88.998	170.1512
290.000000	88.940	170.5908
295.000000	88.887	171.0004
300.000000	88.838	171.4003
304.000000	88.800	171.7373
307.000000	88.772	172.0026
311.000000	88.734	172.3718
315.000000	88.696	172.7460
320.000000	88.649	173.1664
325.000000	88.605	173.5280
330.000000	88.568	173.9274
335.000000	88.535	174.3881
340.000000	88.501	174.8660
345.000000	88.463	175.3292
350.000000	88.423	175.7503
355.000000	88.383	176.1425
360.000000	88.346	176.5699
365.000000	88.312	177.0406
370.000000	88.277	177.5234
375.000000	88.240	178.0140
382.000000	88.191	178.7224
387.000000	88.160	179.2197
395.000000	88.118	179.9976
400.000000	88.099	-179.5104
406.000000	88.082	-178.9361
412.000000	88.068	-178.3864
418.000000	88.051	-177.8539
425.000000	88.027	-177.2538
431.000000	88.005	-176.7482
437.000000	87.986	-176.2423
444.000000	87.968	-175.6381
450.000000	87.956	-175.0998
455.000000	87.946	-174.6455
462.000000	87.933	-174.0201
468.000000	87.922	-173.4973
475.000000	87.910	-172.9014
482.000000	87.898	-172.3173
487.000000	87.890	-171.9029
494.000000	87.880	-171.3238
500.000000	87.872	-170.8287
508.000000	87.863	-170.1745
515.000000	87.857	-169.6094
522.000000	87.851	-169.0479
530.000000	87.845	-168.4026
538.000000	87.841	-167.7459
545.000000	87.838	-167.1702
552.000000	87.836	-166.6079
560.000000	87.835	-165.9827
570.000000	87.838	-165.2113
580.000000	87.843	-164.4388
590.000000	87.849	-163.6557
600.000000	87.855	-162.8662
608.000000	87.861	-162.2362
615.000000	87.868	-161.6869
622.000000	87.876	-161.1381
630.000000	87.887	-160.5101
640.000000	87.902	-159.7254
650.000000	87.918	-158.9470
660.000000	87.937	-158.1774
670.000000	87.956	-157.4107
680.000000	87.976	-156.6438
690.000000	87.999	-155.8819
700.000000	88.023	-155.1257
710.000000	88.050	-154.3720
720.000000	88.081	-153.6187
730.000000	88.115	-152.8653
740.000000	88.151	-152.1136
750.000000	88.189	-151.3650
762.000000	88.239	-150.4716
775.000000	88.294	-149.5114
788.000000	88.353	-148.5569
800.000000	88.411	-147.6823
812.000000	88.474	-146.8195
825.000000	88.545	-145.9032
838.000000	88.621	-145.0038
850.000000	88.695	-144.1836
862.000000	88.774	-143.3747
875.000000	88.863	-142.5154
885.000000	88.933	-141.8689
900.000000	89.043	-140.9246
912.000000	89.134	-140.1912
925.000000	89.236	-139.4194
938.000000	89.341	-138.6740
950.000000	89.440	-138.0135
962.000000	89.542	-137.3809
975.000000	89.655	-136.7262
988.000000	89.770	-136.1015
1000.000000	89.878	-135.5498
1015.000000	90.014	-134.8961
1030.000000	90.152	-134.2871
1044.000000	90.281	-133.7601
1060.000000	90.429	-133.2047
1075.000000	90.567	-132.7262
1090.000000	90.704	-132.2856
1106.000000	90.849	-131.8548
1120.000000	90.975	-131.5099
1138.000000	91.135	-131.1105
1150.000000	91.240	-130.8701
1172.000000	91.429	-130.4738
1180.000000	91.496	-130.3421
1206.000000	91.711	-129.9595
1220.000000	91.823	-129.7803
1241.000000	91.988	-129.5384
1250.000000	92.058	-129.4429
1265.000000	92.171	-129.2936
1280.000000	92.282	-129.1558
1315.000000	92.535	-128.8746
1320.000000	92.570	-128.8386
1340.000000	92.709	-128.7034
1360.000000	92.845	-128.5811
1380.000000	92.979	-128.4700
1400.000000	93.110	-128.3687
1430.000000	93.304	-128.2340
1450.000000	93.432	-128.1549
1475.000000	93.589	-128.0674
1500.000000	93.746	-127.9925
1525.000000	93.902	-127.9323
1550.000000	94.056	-127.8888
1575.000000	94.210	-127.8644
1600.000000	94.364	-127.8600
1625.000000	94.516	-127.8744
1650.000000	94.668	-127.9071
1675.000000	94.820	-127.9606
1700.000000	94.972	-128.0388
1725.000000	95.123	-128.1443
1750.000000	95.273	-128.2772
1775.000000	95.422	-128.4366
1800.000000	95.571	-128.6234
1825.000000	95.718	-128.8391
1850.000000	95.864	-129.0842
1875.000000	96.007	-129.3585
1900.000000	96.149	-129.6621
1925.000000	96.288	-129.9953
1950.000000	96.424	-130.3569
1975.000000	96.558	-130.7448
2000.000000	96.688	-131.1568
2030.000000	96.840	-131.6795
2060.000000	96.988	-132.2287
2090.000000	97.131	-132.8004
2120.000000	97.272	-133.3928
2140.000000	97.364	-133.8008
2180.000000	97.548	-134.6634
2200.000000	97.638	-135.1277
2240.000000	97.813	-136.1376
2270.000000	97.936	-136.9647
2300.000000	98.049	-137.8389
2330.000000	98.151	-138.7456
2360.000000	98.243	-139.6719
2400.000000	98.349	-140.9212
2430.000000	98.418	-141.8598
2470.000000	98.496	-143.1049
2500.000000	98.546	-144.0295
2540.000000	98.600	-145.2440
2580.000000	98.641	-146.4318
2620.000000	98.671	-147.5879
2650.000000	98.686	-148.4309
2690.000000	98.697	-149.5185
2720.000000	98.699	-150.3037
2760.000000	98.695	-151.3056
2800.000000	98.685	-152.2521
2850.000000	98.665	-153.3548
2900.000000	98.643	-154.3739
2950.000000	98.619	-155.3240
3000.000000	98.597	-156.2246
3040.000000	98.581	-156.9227
3070.000000	98.568	-157.4381
3110.000000	98.550	-158.1171
3150.000000	98.532	-158.7857
3200.000000	98.506	-159.6023
3250.000000	98.478	-160.3932
3300.000000	98.450	-161.1578
3350.000000	98.423	-161.9014
3400.000000	98.398	-162.6320
3450.000000	98.374	-163.3545
3500.000000	98.351	-164.0699
3550.000000	98.331	-164.7736
3600.000000	98.317	-165.4621
3650.000000	98.316	-166.1577
3700.000000	98.331	-166.9340
3750.000000	98.357	-167.8860
3820.000000	98.383	-169.5684
3870.000000	98.379	-170.9650
3950.000000	98.329	-173.4380
4000.000000	98.268	-175.1256
4060.000000	98.161	-177.3029
4120.000000	98.003	-179.6358
4180.000000	97.783	177.9166
4250.000000	97.429	175.0183
4310.000000	97.023	172.6459
4370.000000	96.506	170.6141
4440.000000	95.743	169.1853
4500.000000	94.957	169.3928
4550.000000	94.247	171.0216
4620.000000	93.330	175.8374
4680.000000	92.861	-178.1935
4750.000000	92.928	-170.9451
4820.000000	93.526	-165.7189
4870.000000	94.060	-163.9716
4940.000000	94.715	-164.1300
5000.000000	95.095	-165.9257
5080.000000	95.322	-169.3347
5150.000000	95.301	-172.3543
5220.000000	95.131	-174.9266
5300.000000	94.817	-177.1100
5380.000000	94.436	-178.4834
5450.000000	94.081	-179.1050
5520.000000	93.725	-179.2838
5600.000000	93.330	-179.0571
5700.000000	92.864	-178.2704
5800.000000	92.433	-177.0468
5900.000000	92.039	-175.4792
6000.000000	91.683	-173.6306
6080.000000	91.426	-171.9770
6150.000000	91.221	-170.4151
6220.000000	91.036	-168.7556
6300.000000	90.849	-166.7522
6400.000000	90.654	-164.1095
6500.000000	90.506	-161.3406
6600.000000	90.405	-158.4749
6700.000000	90.352	-155.5403
6800.000000	90.349	-152.5605
6900.000000	90.396	-149.5580
7000.000000	90.496	-146.5570
7100.000000	90.652	-143.5852
7200.000000	90.866	-140.6763
7300.000000	91.139	-137.8644
7400.000000	91.475	-135.1786
7500.000000	91.876	-132.6511
7620.000000	92.452	-129.8953
7750.000000	93.204	-127.3818
7880.000000	94.095	-125.5658
8000.000000	95.039	-124.7587
8120.000000	96.080	-125.1046
8250.000000	97.261	-127.2476
8380.000000	98.392	-131.7621
8500.000000	99.267	-138.3310
8620.000000	99.861	-147.0243
8750.000000	100.089	-157.9031
8850.000000	99.948	-166.3366
9000.000000	99.271	-177.4110
9120.000000	98.425	175.9570
9250.000000	97.336	171.2106
9380.000000	96.189	168.6852
9500.000000	95.159	167.9052
9620.000000	94.202	168.2570
9750.000000	93.272	169.6152
9880.000000	92.464	171.7723
10000.000000	91.834	174.3484
10150.000000	91.215	178.2342
10300.000000	90.820	-177.3041
10440.000000	90.701	-172.8885
10600.000000	90.911	-168.1216
10750.000000	91.421	-164.7227
10900.000000	92.116	-163.1988
11060.000000	92.864	-164.2095
11200.000000	93.377	-167.1902
11380.000000	93.750	-172.8362
11500.000000	93.832	-177.1310
11720.000000	93.674	174.5463
11800.000000	93.508	171.5453
12060.000000	92.577	163.1909
12200.000000	91.883	160.0942
12410.000000	90.722	157.4830
12500.000000	90.212	157.0378
12650.000000	89.382	157.0422
12800.000000	88.602	157.8085
13150.000000	87.076	161.5773
13200.000000	86.895	162.2645
13400.000000	86.267	165.2344
13600.000000	85.790	168.4351
13800.000000	85.463	171.7229
14000.000000	85.292	174.9542
14300.000000	85.343	179.3161
14500.000000	85.592	-178.4344
14750.000000	86.126	-176.9290
15000.000000	86.828	-177.6085
15250.000000	87.536	178.8030
15500.000000	88.041	172.1397
15750.000000	88.170	163.3322
16000.000000	87.876	154.1286
16250.000000	87.245	145.9470
16500.000000	86.406	139.3085
16750.000000	85.470	134.2781
17000.000000	84.560	130.6771
17250.000000	83.825	127.8822
17500.000000	83.384	124.8199
17750.000000	83.254	120.1820
18000.000000	83.311	112.7423
18250.000000	83.336	101.8291
18500.000000	83.108	87.8066
18750.000000	82.495	72.0326
19000.000000	81.486	56.0598
19250.000000	80.167	40.8869
19500.000000	78.674	27.1775
19750.000000	77.215	16.1071
