* Measurement data measured by REW V5.20.13
* Source: EXCL: Headset Microphone (Realtek(R) Audio), no input selected, L, volume: 1,000
* Format: 256k Log Swept Sine, 1 sweep at -8,0 dBFS with no timing reference
* Dated: 06.07.2023 17:19:08
* REW Settings:
*  C-weighting compensation: Off
*  Target level: 75.0 dB
* Note: 
* Measurement: Kiwi Ears Quintet L
* Smoothing: 1/12 octave
* Frequency Step: 1/48 octave
* Start Frequency: 20.000 Hz
*
* Freq(Hz)	SPL(dB)	Phase(degrees)
20.000000	121.210	8.6842
20.299999	121.235	7.5633
20.600000	121.246	6.3777
20.900000	121.240	5.2450
21.200001	121.224	4.2805
21.400000	121.217	3.7562
21.799999	121.225	2.9385
22.000000	121.245	2.5971
22.400000	121.314	1.9142
22.700001	121.377	1.3273
23.000000	121.431	0.6675
23.299999	121.467	-0.0043
23.600000	121.486	-0.6212
24.000000	121.495	-1.2874
24.299999	121.505	-1.6862
24.700001	121.534	-2.2125
25.000000	121.564	-2.7322
25.400000	121.594	-3.7138
25.799999	121.577	-4.9952
26.200001	121.488	-6.3429
26.500000	121.377	-7.2006
26.900000	121.200	-7.9640
27.200001	121.075	-8.2418
27.600000	120.955	-8.3722
28.000000	120.900	-8.5236
28.500000	120.881	-9.0637
29.000000	120.846	-9.8983
29.500000	120.776	-10.6078
30.000000	120.715	-10.9248
30.400000	120.708	-11.0021
30.700001	120.730	-11.0809
31.100000	120.781	-11.3368
31.500000	120.834	-11.7885
32.000000	120.880	-12.5401
32.500000	120.902	-13.3924
33.000000	120.902	-14.3297
33.500000	120.877	-15.3621
34.000000	120.820	-16.4151
34.500000	120.742	-17.3821
35.000000	120.666	-18.2557
35.500000	120.604	-19.1384
36.000000	120.551	-20.1099
36.500000	120.491	-21.1265
37.000000	120.424	-22.0643
37.500000	120.363	-22.8508
38.200001	120.308	-23.7580
38.700001	120.290	-24.3537
39.500000	120.273	-25.2560
40.000000	120.265	-25.7655
40.599998	120.258	-26.3432
41.200001	120.249	-26.9500
41.799999	120.226	-27.6155
42.500000	120.171	-28.3998
43.099998	120.106	-28.9814
43.700001	120.042	-29.4588
44.400002	119.987	-29.9879
45.000000	119.957	-30.5263
45.500000	119.934	-31.0534
46.200001	119.896	-31.8513
46.799999	119.859	-32.5309
47.500000	119.814	-33.3041
48.200001	119.764	-34.0773
48.700001	119.721	-34.6233
49.400002	119.649	-35.3344
50.000000	119.579	-35.8565
50.799999	119.491	-36.4340
51.500000	119.429	-36.9069
52.200001	119.378	-37.4316
53.000000	119.324	-38.1151
53.799999	119.268	-38.8440
54.500000	119.217	-39.4932
55.200001	119.160	-40.1326
56.000000	119.086	-40.7906
57.000000	118.997	-41.4420
58.000000	118.928	-42.0207
59.000000	118.869	-42.6630
60.000000	118.805	-43.3665
60.799999	118.747	-43.9413
61.500000	118.691	-44.4239
62.200001	118.634	-44.8728
63.000000	118.571	-45.3574
64.000000	118.496	-45.9567
65.000000	118.423	-46.5667
66.000000	118.350	-47.1882
67.000000	118.275	-47.8046
68.000000	118.201	-48.3887
69.000000	118.131	-48.9406
70.000000	118.063	-49.4778
71.000000	117.995	-50.0042
72.000000	117.927	-50.5298
73.000000	117.859	-51.0818
74.000000	117.789	-51.6642
75.000000	117.719	-52.2482
76.199997	117.639	-52.9190
77.500000	117.562	-53.6049
78.800003	117.485	-54.2442
80.000000	117.409	-54.7905
81.199997	117.326	-55.3219
82.500000	117.234	-55.9170
83.800003	117.147	-56.5474
85.000000	117.073	-57.1349
86.199997	117.003	-57.6734
87.500000	116.925	-58.1548
88.500000	116.859	-58.4524
90.000000	116.754	-58.8767
91.199997	116.672	-59.3354
92.500000	116.593	-59.9967
93.800003	116.543	-60.7058
95.000000	116.542	-61.2461
96.199997	116.592	-61.5668
97.500000	116.701	-61.7338
98.800003	116.815	-62.0583
100.000000	116.832	-62.7045
101.500000	116.658	-63.5261
103.000000	116.371	-63.9369
104.400002	116.128	-64.2456
106.000000	115.932	-64.8045
107.500000	115.820	-65.4324
109.000000	115.748	-65.9869
110.599998	115.683	-66.4424
112.000000	115.619	-66.7893
113.800003	115.525	-67.2947
115.000000	115.461	-67.6919
117.199997	115.351	-68.4265
118.000000	115.315	-68.6636
120.599998	115.208	-69.3375
122.000000	115.148	-69.6948
124.099998	115.054	-70.2834
125.000000	115.015	-70.5562
126.500000	114.949	-71.0188
128.000000	114.885	-71.4568
131.500000	114.745	-72.3000
132.000000	114.726	-72.4065
134.000000	114.652	-72.8281
136.000000	114.579	-73.2652
138.000000	114.507	-73.7294
140.000000	114.436	-74.2213
143.000000	114.324	-74.9626
145.000000	114.247	-75.4233
147.500000	114.153	-75.9754
150.000000	114.066	-76.5137
152.500000	113.983	-77.0180
155.000000	113.904	-77.5016
157.500000	113.826	-78.0064
160.000000	113.746	-78.5162
162.500000	113.671	-78.9899
165.000000	113.602	-79.4276
167.500000	113.532	-79.8471
170.000000	113.458	-80.2521
172.500000	113.383	-80.6463
175.000000	113.309	-81.0419
177.500000	113.233	-81.4371
180.000000	113.161	-81.8048
182.500000	113.096	-82.1028
185.000000	113.035	-82.3263
187.500000	112.978	-82.5242
190.000000	112.922	-82.6902
192.500000	112.849	-82.7443
195.000000	112.733	-82.6899
197.500000	112.597	-82.6450
200.000000	112.532	-82.7948
203.000000	112.610	-83.5075
206.000000	112.732	-84.5625
209.000000	112.787	-85.5149
212.000000	112.786	-86.3034
214.000000	112.775	-86.7545
218.000000	112.735	-87.5184
220.000000	112.707	-87.8709
224.000000	112.647	-88.5569
227.000000	112.597	-89.0412
230.000000	112.546	-89.5112
233.000000	112.496	-89.9708
236.000000	112.450	-90.4162
240.000000	112.395	-90.9987
243.000000	112.356	-91.4235
247.000000	112.304	-91.9595
250.000000	112.266	-92.3421
254.000000	112.219	-92.8409
258.000000	112.175	-93.3357
262.000000	112.133	-93.8356
265.000000	112.104	-94.2147
269.000000	112.066	-94.7030
272.000000	112.038	-95.0434
276.000000	112.003	-95.4774
280.000000	111.971	-95.9242
285.000000	111.931	-96.5065
290.000000	111.893	-97.0681
295.000000	111.858	-97.5678
300.000000	111.825	-98.0306
304.000000	111.799	-98.4150
307.000000	111.781	-98.7180
311.000000	111.758	-99.1283
315.000000	111.737	-99.5275
320.000000	111.710	-100.0064
325.000000	111.684	-100.4722
330.000000	111.662	-100.9333
335.000000	111.642	-101.3948
340.000000	111.622	-101.8631
345.000000	111.603	-102.3397
350.000000	111.587	-102.8014
355.000000	111.573	-103.2190
360.000000	111.557	-103.6027
365.000000	111.539	-103.9845
370.000000	111.523	-104.3716
375.000000	111.508	-104.7478
382.000000	111.489	-105.2535
387.000000	111.477	-105.6146
395.000000	111.459	-106.1929
400.000000	111.449	-106.5464
406.000000	111.436	-106.9566
412.000000	111.423	-107.3484
418.000000	111.412	-107.7299
425.000000	111.402	-108.1897
431.000000	111.395	-108.6025
437.000000	111.386	-109.0093
444.000000	111.374	-109.4417
450.000000	111.363	-109.7721
455.000000	111.357	-110.0306
462.000000	111.350	-110.3823
468.000000	111.346	-110.6805
475.000000	111.343	-111.0266
482.000000	111.339	-111.3627
487.000000	111.335	-111.5888
494.000000	111.327	-111.8912
500.000000	111.321	-112.1525
508.000000	111.314	-112.5135
515.000000	111.310	-112.8236
522.000000	111.307	-113.1056
530.000000	111.303	-113.3906
538.000000	111.298	-113.6636
545.000000	111.296	-113.9070
552.000000	111.294	-114.1461
560.000000	111.292	-114.3896
570.000000	111.288	-114.6263
580.000000	111.283	-114.8166
590.000000	111.280	-115.0139
600.000000	111.285	-115.2347
608.000000	111.293	-115.4053
615.000000	111.302	-115.5362
622.000000	111.309	-115.6498
630.000000	111.314	-115.7625
640.000000	111.320	-115.8906
650.000000	111.328	-116.0192
660.000000	111.337	-116.1471
670.000000	111.346	-116.2659
680.000000	111.358	-116.3691
690.000000	111.370	-116.4456
700.000000	111.382	-116.4906
710.000000	111.395	-116.5182
720.000000	111.412	-116.5391
730.000000	111.432	-116.5509
740.000000	111.453	-116.5482
750.000000	111.475	-116.5226
762.000000	111.501	-116.4655
775.000000	111.530	-116.3898
788.000000	111.563	-116.3197
800.000000	111.596	-116.2630
812.000000	111.630	-116.2041
825.000000	111.668	-116.1109
838.000000	111.708	-115.9746
850.000000	111.745	-115.8133
862.000000	111.784	-115.6183
875.000000	111.833	-115.3875
885.000000	111.876	-115.2189
900.000000	111.946	-114.9905
912.000000	112.008	-114.8185
925.000000	112.081	-114.6401
938.000000	112.158	-114.4682
950.000000	112.231	-114.3120
962.000000	112.304	-114.1599
975.000000	112.382	-114.0063
988.000000	112.459	-113.8661
1000.000000	112.532	-113.7493
1015.000000	112.628	-113.6305
1030.000000	112.729	-113.5407
1044.000000	112.823	-113.4616
1060.000000	112.926	-113.3680
1075.000000	113.019	-113.2876
1090.000000	113.114	-113.2197
1106.000000	113.219	-113.1607
1120.000000	113.310	-113.1161
1138.000000	113.427	-113.0524
1150.000000	113.506	-113.0070
1172.000000	113.655	-112.9347
1180.000000	113.711	-112.9096
1206.000000	113.900	-112.8463
1220.000000	114.004	-112.8498
1241.000000	114.162	-112.9246
1250.000000	114.230	-112.9834
1265.000000	114.344	-113.1129
1280.000000	114.456	-113.2704
1315.000000	114.700	-113.6955
1320.000000	114.733	-113.7619
1340.000000	114.860	-114.0409
1360.000000	114.981	-114.3371
1380.000000	115.095	-114.6428
1400.000000	115.202	-114.9478
1430.000000	115.351	-115.4006
1450.000000	115.444	-115.6843
1475.000000	115.555	-116.0005
1500.000000	115.662	-116.2856
1525.000000	115.768	-116.5488
1550.000000	115.872	-116.7841
1575.000000	115.974	-116.9878
1600.000000	116.073	-117.1718
1625.000000	116.172	-117.3459
1650.000000	116.272	-117.5038
1675.000000	116.373	-117.6391
1700.000000	116.474	-117.7484
1725.000000	116.577	-117.8420
1750.000000	116.682	-117.9385
1775.000000	116.789	-118.0440
1800.000000	116.895	-118.1460
1825.000000	117.003	-118.2374
1850.000000	117.112	-118.3222
1875.000000	117.226	-118.4003
1900.000000	117.342	-118.4728
1925.000000	117.461	-118.5474
1950.000000	117.583	-118.6334
1975.000000	117.705	-118.7374
2000.000000	117.826	-118.8603
2030.000000	117.972	-119.0270
2060.000000	118.122	-119.2086
2090.000000	118.276	-119.4084
2120.000000	118.433	-119.6361
2140.000000	118.538	-119.8071
2180.000000	118.751	-120.1954
2200.000000	118.858	-120.4134
2240.000000	119.074	-120.9018
2270.000000	119.237	-121.3122
2300.000000	119.400	-121.7612
2330.000000	119.563	-122.2549
2360.000000	119.725	-122.7984
2400.000000	119.940	-123.6008
2430.000000	120.098	-124.2598
2470.000000	120.304	-125.2160
2500.000000	120.452	-125.9924
2540.000000	120.640	-127.1112
2580.000000	120.817	-128.3251
2620.000000	120.982	-129.6236
2650.000000	121.097	-130.6475
2690.000000	121.236	-132.0719
2720.000000	121.328	-133.1785
2760.000000	121.436	-134.6952
2800.000000	121.524	-136.2425
2850.000000	121.606	-138.1809
2900.000000	121.660	-140.0891
2950.000000	121.690	-141.9534
3000.000000	121.705	-143.7782
3040.000000	121.707	-145.2274
3070.000000	121.702	-146.3208
3110.000000	121.683	-147.7919
3150.000000	121.647	-149.2667
3200.000000	121.576	-151.0806
3250.000000	121.474	-152.8124
3300.000000	121.346	-154.4191
3350.000000	121.197	-155.8758
3400.000000	121.031	-157.1688
3450.000000	120.854	-158.2915
3500.000000	120.670	-159.2366
3550.000000	120.484	-159.9990
3600.000000	120.299	-160.5862
3650.000000	120.122	-161.0110
3700.000000	119.957	-161.2915
3750.000000	119.805	-161.4480
3820.000000	119.621	-161.5042
3870.000000	119.511	-161.4716
3950.000000	119.370	-161.3682
4000.000000	119.304	-161.2942
4060.000000	119.246	-161.2153
4120.000000	119.207	-161.1747
4180.000000	119.185	-161.1951
4250.000000	119.176	-161.3133
4310.000000	119.180	-161.5129
4370.000000	119.191	-161.8089
4440.000000	119.211	-162.2679
4500.000000	119.231	-162.7507
4550.000000	119.247	-163.2113
4620.000000	119.268	-163.9424
4680.000000	119.282	-164.6499
4750.000000	119.293	-165.5728
4820.000000	119.298	-166.6009
4870.000000	119.294	-167.3938
4940.000000	119.280	-168.5747
5000.000000	119.257	-169.6488
5080.000000	119.210	-171.1676
5150.000000	119.147	-172.5681
5220.000000	119.059	-174.0199
5300.000000	118.921	-175.7006
5380.000000	118.739	-177.3360
5450.000000	118.544	-178.6652
5520.000000	118.315	-179.8398
5600.000000	118.016	179.0724
5700.000000	117.596	178.2004
5800.000000	117.142	177.9879
5900.000000	116.675	178.5262
6000.000000	116.226	179.8498
6080.000000	115.904	-178.5456
6150.000000	115.666	-176.7748
6220.000000	115.481	-174.7095
6300.000000	115.349	-172.0795
6400.000000	115.324	-168.5983
6500.000000	115.462	-165.2122
6600.000000	115.748	-162.2686
6700.000000	116.136	-160.0630
6800.000000	116.567	-158.7503
6900.000000	116.984	-158.3083
7000.000000	117.351	-158.5535
7100.000000	117.655	-159.2174
7200.000000	117.907	-160.0730
7300.000000	118.128	-161.0105
7400.000000	118.338	-162.0378
7500.000000	118.548	-163.2567
7620.000000	118.799	-165.2016
7750.000000	119.027	-168.1950
7880.000000	119.129	-172.2055
8000.000000	119.041	-176.5347
8120.000000	118.740	179.0724
8250.000000	118.170	174.9471
8380.000000	117.371	172.1899
8500.000000	116.474	171.4344
8620.000000	115.501	172.7660
8750.000000	114.503	176.5544
8850.000000	113.891	-179.1853
9000.000000	113.406	-171.5421
9120.000000	113.469	-165.2277
9250.000000	113.974	-159.0837
9380.000000	114.832	-154.4427
9500.000000	115.809	-152.0810
9620.000000	116.831	-151.9885
9750.000000	117.839	-154.6933
9880.000000	118.604	-160.1375
10000.000000	119.005	-166.9017
10150.000000	119.052	-176.0743
10300.000000	118.648	175.8706
10440.000000	117.987	170.4677
10600.000000	117.077	167.0504
10750.000000	116.234	166.1161
10900.000000	115.523	166.7037
11060.000000	114.978	168.2529
11200.000000	114.692	169.9161
11380.000000	114.566	171.9787
11500.000000	114.612	173.0631
11720.000000	114.893	173.8998
11800.000000	115.031	173.7219
12060.000000	115.479	171.1849
12200.000000	115.671	168.7025
12410.000000	115.870	163.5475
12500.000000	115.896	160.6887
12650.000000	115.775	155.2040
12800.000000	115.394	149.6244
13150.000000	113.753	140.1564
13200.000000	113.477	139.2545
13400.000000	112.355	136.3867
13600.000000	111.237	134.2263
13800.000000	110.116	132.4296
14000.000000	108.953	131.0247
14300.000000	107.075	130.2437
14500.000000	105.740	131.0732
14750.000000	104.049	133.9417
15000.000000	102.468	138.6208
15250.000000	101.151	144.3543
15500.000000	100.181	150.1231
15750.000000	99.516	155.0309
16000.000000	99.020	158.5985
16250.000000	98.526	160.8857
16500.000000	97.895	162.5577
16750.000000	97.052	164.7790
17000.000000	96.003	168.7719
17250.000000	94.844	175.3823
17500.000000	93.780	-175.2129
17750.000000	93.138	-163.6699
18000.000000	93.269	-151.4314
18250.000000	94.255	-140.4302
18500.000000	95.787	-132.7370
18750.000000	97.433	-130.0837
19000.000000	98.866	-133.2949
19250.000000	99.887	-141.8195
19500.000000	100.424	-153.4973
19750.000000	100.554	-164.8273
