* Measurement data measured by REW V5.20.13
* Source: Mikrofon (US-2x2 HR), no input selected, R, volume: no control
* Format: 256k Log Swept Sine, 1 sweep at -8,0 dBFS with no timing reference
* Dated: 26.09.2023 20:06:40
* REW Settings:
*  C-weighting compensation: Off
*  Target level: 75.0 dB
* Note: 
* Measurement: KZ Castor Black UDUD
* Smoothing: 1/12 octave
* Frequency Step: 1/48 octave
* Start Frequency: 20.300 Hz
*
* Freq(Hz)	SPL(dB)	Phase(degrees)
20.299999	94.257	-122.5355
20.600000	94.278	-123.0997
20.900000	94.330	-124.2717
21.200001	94.389	-125.4902
21.400000	94.432	-126.2513
21.799999	94.527	-127.6250
22.000000	94.577	-128.2414
22.400000	94.680	-129.3860
22.700001	94.756	-130.2085
23.000000	94.826	-131.0278
23.299999	94.887	-131.8496
23.600000	94.940	-132.6698
24.000000	94.999	-133.7492
24.299999	95.040	-134.5437
24.700001	95.091	-135.5912
25.000000	95.129	-136.3813
25.400000	95.176	-137.4562
25.799999	95.216	-138.5572
26.200001	95.249	-139.6667
26.500000	95.270	-140.4900
26.900000	95.299	-141.5653
27.200001	95.324	-142.3552
27.600000	95.363	-143.3928
28.000000	95.406	-144.4178
28.500000	95.460	-145.6697
29.000000	95.505	-146.8573
29.500000	95.541	-147.9645
30.000000	95.572	-149.0153
30.400000	95.597	-149.8480
30.700001	95.616	-150.4814
31.100000	95.641	-151.3439
31.500000	95.666	-152.2225
32.000000	95.696	-153.3263
32.500000	95.723	-154.4154
33.000000	95.747	-155.4737
33.500000	95.769	-156.4935
34.000000	95.789	-157.4763
34.500000	95.810	-158.4350
35.000000	95.831	-159.3842
35.500000	95.850	-160.3280
36.000000	95.865	-161.2545
36.500000	95.876	-162.1501
37.000000	95.888	-163.0166
37.500000	95.899	-163.8737
38.200001	95.913	-165.0927
38.700001	95.918	-165.9721
39.500000	95.915	-167.3337
40.000000	95.912	-168.1396
40.599998	95.912	-169.0791
41.200001	95.915	-170.0199
41.799999	95.918	-170.9762
42.500000	95.918	-172.1003
43.099998	95.913	-173.0505
43.700001	95.906	-173.9745
44.400002	95.897	-175.0149
45.000000	95.888	-175.8813
45.500000	95.881	-176.5936
46.200001	95.870	-177.5875
46.799999	95.860	-178.4425
47.500000	95.844	-179.4412
48.200001	95.824	179.5749
48.700001	95.807	178.8927
49.400002	95.782	177.9739
50.000000	95.763	177.2132
50.799999	95.741	176.2165
51.500000	95.723	175.3473
52.200001	95.704	174.4775
53.000000	95.680	173.4835
53.799999	95.651	172.4960
54.500000	95.623	171.6484
55.200001	95.593	170.8251
56.000000	95.558	169.9168
57.000000	95.511	168.8188
58.000000	95.465	167.7375
59.000000	95.418	166.6590
60.000000	95.369	165.5900
60.799999	95.327	164.7491
61.500000	95.289	164.0253
62.200001	95.250	163.3114
63.000000	95.206	162.5041
64.000000	95.151	161.5031
65.000000	95.093	160.5179
66.000000	95.034	159.5626
67.000000	94.974	158.6413
68.000000	94.914	157.7457
69.000000	94.850	156.8627
70.000000	94.784	155.9843
71.000000	94.718	155.1140
72.000000	94.651	154.2593
73.000000	94.585	153.4213
74.000000	94.518	152.5970
75.000000	94.451	151.7840
76.199997	94.370	150.8273
77.500000	94.281	149.8308
78.800003	94.189	148.8862
80.000000	94.100	148.0357
81.199997	94.009	147.1731
82.500000	93.916	146.2334
83.800003	93.823	145.3329
85.000000	93.731	144.5452
86.199997	93.634	143.7719
87.500000	93.531	142.9327
88.500000	93.455	142.2938
90.000000	93.340	141.3545
91.199997	93.246	140.6155
92.500000	93.143	139.8303
93.800003	93.040	139.0681
95.000000	92.946	138.3853
96.199997	92.851	137.7214
97.500000	92.748	137.0226
98.800003	92.645	136.3397
100.000000	92.548	135.7183
101.500000	92.424	134.9583
103.000000	92.299	134.2220
104.400002	92.182	133.5515
106.000000	92.048	132.8083
107.500000	91.922	132.1405
109.000000	91.797	131.4966
110.599998	91.662	130.8295
112.000000	91.545	130.2566
113.800003	91.393	129.5305
115.000000	91.292	129.0577
117.199997	91.106	128.2259
118.000000	91.038	127.9347
120.599998	90.818	127.0294
122.000000	90.697	126.5701
124.099998	90.516	125.9141
125.000000	90.438	125.6420
126.500000	90.309	125.1974
128.000000	90.179	124.7618
131.500000	89.880	123.7978
132.000000	89.837	123.6691
134.000000	89.667	123.1755
136.000000	89.495	122.7060
138.000000	89.323	122.2560
140.000000	89.151	121.8258
143.000000	88.894	121.2204
145.000000	88.722	120.8494
147.500000	88.507	120.4231
150.000000	88.294	120.0422
152.500000	88.085	119.7084
155.000000	87.878	119.4082
157.500000	87.670	119.1359
160.000000	87.463	118.8977
162.500000	87.255	118.7035
165.000000	87.048	118.5425
167.500000	86.842	118.3924
170.000000	86.637	118.2626
172.500000	86.434	118.1777
175.000000	86.233	118.1457
177.500000	86.035	118.1577
180.000000	85.840	118.2058
182.500000	85.647	118.2864
185.000000	85.456	118.3955
187.500000	85.266	118.5258
190.000000	85.080	118.6746
192.500000	84.894	118.8412
195.000000	84.711	119.0244
197.500000	84.530	119.2311
200.000000	84.350	119.4730
203.000000	84.138	119.8185
206.000000	83.929	120.2166
209.000000	83.725	120.6497
212.000000	83.527	121.1089
214.000000	83.397	121.4283
218.000000	83.144	122.0864
220.000000	83.022	122.4265
224.000000	82.785	123.1530
227.000000	82.613	123.7386
230.000000	82.445	124.3452
233.000000	82.279	124.9734
236.000000	82.117	125.6317
240.000000	81.910	126.5616
243.000000	81.764	127.2853
247.000000	81.580	128.2581
250.000000	81.449	128.9868
254.000000	81.283	129.9693
258.000000	81.126	130.9740
262.000000	80.975	131.9976
265.000000	80.868	132.7716
269.000000	80.731	133.8083
272.000000	80.635	134.5904
276.000000	80.513	135.6413
280.000000	80.398	136.7021
285.000000	80.270	138.0247
290.000000	80.160	139.3062
295.000000	80.059	140.5433
300.000000	79.966	141.7635
304.000000	79.898	142.7364
307.000000	79.851	143.4608
311.000000	79.794	144.4120
315.000000	79.741	145.3369
320.000000	79.679	146.4492
325.000000	79.624	147.5162
330.000000	79.578	148.5530
335.000000	79.541	149.5753
340.000000	79.511	150.5812
345.000000	79.484	151.5582
350.000000	79.461	152.4971
355.000000	79.439	153.3952
360.000000	79.422	154.2487
365.000000	79.409	155.0580
370.000000	79.399	155.8362
375.000000	79.389	156.5957
382.000000	79.377	157.6309
387.000000	79.370	158.3405
395.000000	79.361	159.4142
400.000000	79.358	160.0569
406.000000	79.357	160.8095
412.000000	79.359	161.5413
418.000000	79.360	162.2505
425.000000	79.360	163.0399
431.000000	79.362	163.6805
437.000000	79.365	164.2988
444.000000	79.371	165.0007
450.000000	79.376	165.5829
455.000000	79.379	166.0520
462.000000	79.380	166.6858
468.000000	79.381	167.2091
475.000000	79.382	167.7991
482.000000	79.383	168.3737
487.000000	79.385	168.7780
494.000000	79.386	169.3365
500.000000	79.388	169.8116
508.000000	79.389	170.4381
515.000000	79.389	170.9716
522.000000	79.389	171.4908
530.000000	79.390	172.0702
538.000000	79.390	172.6340
545.000000	79.390	173.1179
552.000000	79.390	173.5969
560.000000	79.388	174.1405
570.000000	79.386	174.8174
580.000000	79.385	175.4913
590.000000	79.384	176.1518
600.000000	79.383	176.8002
608.000000	79.382	177.3168
615.000000	79.382	177.7704
622.000000	79.381	178.2251
630.000000	79.381	178.7463
640.000000	79.382	179.4034
650.000000	79.384	-179.9367
660.000000	79.387	-179.2809
670.000000	79.391	-178.6302
680.000000	79.394	-177.9805
690.000000	79.399	-177.3339
700.000000	79.407	-176.6963
710.000000	79.417	-176.0703
720.000000	79.428	-175.4547
730.000000	79.438	-174.8468
740.000000	79.446	-174.2397
750.000000	79.453	-173.6261
762.000000	79.464	-172.8813
775.000000	79.481	-172.0836
788.000000	79.493	-171.3174
800.000000	79.492	-170.5877
812.000000	79.484	-169.7307
825.000000	79.493	-168.6500
838.000000	79.528	-167.5461
850.000000	79.577	-166.5915
862.000000	79.632	-165.7066
875.000000	79.696	-164.8059
885.000000	79.746	-164.1429
900.000000	79.820	-163.1862
912.000000	79.880	-162.4361
925.000000	79.945	-161.6139
938.000000	80.013	-160.7692
950.000000	80.082	-159.9781
962.000000	80.158	-159.1964
975.000000	80.248	-158.3778
988.000000	80.345	-157.5959
1000.000000	80.438	-156.9103
1015.000000	80.558	-156.1055
1030.000000	80.681	-155.3539
1044.000000	80.798	-154.6963
1060.000000	80.935	-153.9990
1075.000000	81.065	-153.3990
1090.000000	81.195	-152.8481
1106.000000	81.334	-152.3143
1120.000000	81.455	-151.8946
1138.000000	81.609	-151.4135
1150.000000	81.711	-151.1226
1172.000000	81.893	-150.6455
1180.000000	81.958	-150.4902
1206.000000	82.162	-150.0438
1220.000000	82.268	-149.8326
1241.000000	82.422	-149.5466
1250.000000	82.486	-149.4343
1265.000000	82.590	-149.2591
1280.000000	82.690	-149.0968
1315.000000	82.912	-148.7554
1320.000000	82.943	-148.7098
1340.000000	83.063	-148.5324
1360.000000	83.180	-148.3584
1380.000000	83.293	-148.1846
1400.000000	83.404	-148.0104
1430.000000	83.565	-147.7403
1450.000000	83.669	-147.5505
1475.000000	83.797	-147.3031
1500.000000	83.923	-147.0429
1525.000000	84.049	-146.7702
1550.000000	84.175	-146.4923
1575.000000	84.301	-146.2106
1600.000000	84.429	-145.9231
1625.000000	84.558	-145.6317
1650.000000	84.689	-145.3411
1675.000000	84.822	-145.0540
1700.000000	84.957	-144.7713
1725.000000	85.095	-144.4935
1750.000000	85.235	-144.2233
1775.000000	85.379	-143.9638
1800.000000	85.526	-143.7159
1825.000000	85.675	-143.4823
1850.000000	85.827	-143.2680
1875.000000	85.982	-143.0777
1900.000000	86.140	-142.9125
1925.000000	86.300	-142.7721
1950.000000	86.462	-142.6572
1975.000000	86.627	-142.5702
2000.000000	86.793	-142.5143
2030.000000	86.996	-142.4929
2060.000000	87.201	-142.5249
2090.000000	87.409	-142.6145
2120.000000	87.620	-142.7647
2140.000000	87.761	-142.8999
2180.000000	88.044	-143.2612
2200.000000	88.185	-143.4900
2240.000000	88.464	-144.0466
2270.000000	88.671	-144.5504
2300.000000	88.874	-145.1276
2330.000000	89.073	-145.7799
2360.000000	89.267	-146.5099
2400.000000	89.516	-147.6091
2430.000000	89.694	-148.5290
2470.000000	89.917	-149.8783
2500.000000	90.071	-150.9759
2540.000000	90.255	-152.5393
2580.000000	90.416	-154.1986
2620.000000	90.550	-155.9385
2650.000000	90.633	-157.2878
2690.000000	90.719	-159.1272
2720.000000	90.763	-160.5215
2760.000000	90.797	-162.3790
2800.000000	90.801	-164.2112
2850.000000	90.767	-166.4263
2900.000000	90.692	-168.5155
2950.000000	90.583	-170.4457
3000.000000	90.444	-172.1952
3040.000000	90.315	-173.4536
3070.000000	90.210	-174.3119
3110.000000	90.061	-175.3417
3150.000000	89.904	-176.2417
3200.000000	89.701	-177.1903
3250.000000	89.494	-177.9562
3300.000000	89.287	-178.5553
3350.000000	89.081	-178.9998
3400.000000	88.879	-179.2997
3450.000000	88.684	-179.4689
3500.000000	88.495	-179.5271
3550.000000	88.315	-179.4894
3600.000000	88.143	-179.3647
3650.000000	87.981	-179.1658
3700.000000	87.829	-178.9065
3750.000000	87.688	-178.5950
3820.000000	87.507	-178.0833
3870.000000	87.391	-177.6748
3950.000000	87.225	-176.9719
4000.000000	87.135	-176.5129
4060.000000	87.041	-175.9535
4120.000000	86.962	-175.3934
4180.000000	86.897	-174.8396
4250.000000	86.838	-174.2124
4310.000000	86.802	-173.7018
4370.000000	86.780	-173.2250
4440.000000	86.770	-172.7226
4500.000000	86.775	-172.3487
4550.000000	86.788	-172.0831
4620.000000	86.819	-171.7902
4680.000000	86.856	-171.6237
4750.000000	86.909	-171.5423
4820.000000	86.973	-171.5917
4870.000000	87.023	-171.7119
4940.000000	87.099	-172.0086
5000.000000	87.166	-172.3882
5080.000000	87.253	-173.0767
5150.000000	87.322	-173.8475
5220.000000	87.382	-174.7703
5300.000000	87.431	-175.9961
5380.000000	87.457	-177.3755
5450.000000	87.455	-178.6810
5520.000000	87.430	179.9494
5600.000000	87.370	178.3465
5700.000000	87.247	176.3590
5800.000000	87.073	174.4713
5900.000000	86.853	172.7650
6000.000000	86.593	171.3058
6080.000000	86.363	170.3476
6150.000000	86.149	169.6754
6220.000000	85.928	169.1648
6300.000000	85.668	168.7818
6400.000000	85.341	168.6028
6500.000000	85.018	168.7465
6600.000000	84.706	169.1947
6700.000000	84.410	169.9282
6800.000000	84.135	170.9272
6900.000000	83.886	172.1694
7000.000000	83.666	173.6285
7100.000000	83.481	175.2711
7200.000000	83.335	177.0544
7300.000000	83.226	178.9364
7400.000000	83.154	-179.1085
7500.000000	83.119	-177.0929
7620.000000	83.130	-174.6147
7750.000000	83.212	-171.9061
7880.000000	83.372	-169.2520
8000.000000	83.591	-166.9284
8120.000000	83.880	-164.7972
8250.000000	84.274	-162.7944
8380.000000	84.755	-161.2342
8500.000000	85.275	-160.3381
8620.000000	85.859	-160.1472
8750.000000	86.539	-160.9793
8850.000000	87.065	-162.5210
9000.000000	87.789	-166.5345
9120.000000	88.239	-171.2553
9250.000000	88.522	-177.6460
9380.000000	88.542	175.2072
9500.000000	88.310	168.6277
9620.000000	87.855	162.6943
9750.000000	87.158	157.4959
9880.000000	86.316	153.8045
10000.000000	85.472	151.7114
10150.000000	84.404	150.6420
10300.000000	83.384	150.9479
10440.000000	82.515	152.1622
10600.000000	81.642	154.3284
10750.000000	80.948	156.8617
10900.000000	80.370	159.6808
11060.000000	79.867	162.8292
11200.000000	79.512	165.6029
11380.000000	79.151	169.0972
11500.000000	78.959	171.3434
11720.000000	78.684	175.2413
11800.000000	78.604	176.5888
12060.000000	78.396	-179.2187
12200.000000	78.318	-177.0226
12410.000000	78.261	-173.7555
12500.000000	78.268	-172.3781
12650.000000	78.335	-170.1735
12800.000000	78.484	-168.2058
13150.000000	79.143	-165.7498
13200.000000	79.261	-165.7772
13400.000000	79.726	-167.1220
13600.000000	80.085	-170.5001
13800.000000	80.225	-175.5419
14000.000000	80.077	178.6064
14300.000000	79.313	170.5737
14500.000000	78.525	166.8366
14750.000000	77.378	164.4686
15000.000000	76.206	164.4529
15250.000000	75.135	166.2748
15500.000000	74.243	169.3924
15750.000000	73.563	173.3497
16000.000000	73.105	177.7792
16250.000000	72.865	-177.6526
16500.000000	72.831	-173.3318
16750.000000	72.973	-169.7548
17000.000000	73.226	-167.4875
17250.000000	73.487	-167.0240
17500.000000	73.626	-168.5779
17750.000000	73.518	-171.8488
18000.000000	73.074	-175.9562
18250.000000	72.272	-179.7384
18500.000000	71.157	177.7249
18750.000000	69.821	176.7570
19000.000000	68.375	177.1057
19250.000000	66.929	178.2029
19500.000000	65.583	179.4468
19750.000000	64.468	-179.5859
