* Measurement data measured by REW V5.20.13
* Source: Mikrofon (US-2x2 HR), MICROPHONE (Hauptlautstärke), L, volume: 0,590
* Format: 256k Log Swept Sine, 1 sweep at -8,0 dBFS with no timing reference
* Dated: 24.08.2023 22:59:56
* REW Settings:
*  C-weighting compensation: Off
*  Target level: 75.0 dB
* Note: 
* Measurement: Penon Vortex poke hole mod L
* Smoothing: 1/12 octave
* Frequency Step: 1/48 octave
* Start Frequency: 20.000 Hz
*
* Freq(Hz)	SPL(dB)	Phase(degrees)
20.000000	100.437	-148.8805
20.299999	100.449	-149.4675
20.600000	100.468	-150.0157
20.900000	100.494	-150.5624
21.200001	100.523	-151.1353
21.400000	100.541	-151.5333
21.799999	100.569	-152.3460
22.000000	100.578	-152.7460
22.400000	100.589	-153.4991
22.700001	100.593	-154.0089
23.000000	100.598	-154.4733
23.299999	100.605	-154.9067
23.600000	100.615	-155.3233
24.000000	100.631	-155.8706
24.299999	100.644	-156.2821
24.700001	100.663	-156.8339
25.000000	100.677	-157.2511
25.400000	100.696	-157.8146
25.799999	100.713	-158.3877
26.200001	100.727	-158.9632
26.500000	100.735	-159.3878
26.900000	100.746	-159.9355
27.200001	100.754	-160.3329
27.600000	100.768	-160.8564
28.000000	100.784	-161.3943
28.500000	100.802	-162.1072
29.000000	100.810	-162.8414
29.500000	100.805	-163.5314
30.000000	100.795	-164.1174
30.400000	100.791	-164.5109
30.700001	100.793	-164.7805
31.100000	100.804	-165.1408
31.500000	100.821	-165.5310
32.000000	100.843	-166.0786
32.500000	100.859	-166.6739
33.000000	100.866	-167.2764
33.500000	100.865	-167.8544
34.000000	100.860	-168.3914
34.500000	100.856	-168.8882
35.000000	100.854	-169.3624
35.500000	100.855	-169.8408
36.000000	100.854	-170.3342
36.500000	100.847	-170.8208
37.000000	100.836	-171.2580
37.500000	100.826	-171.6247
38.200001	100.828	-172.0783
38.700001	100.841	-172.4362
39.500000	100.858	-173.1279
40.000000	100.858	-173.5783
40.599998	100.849	-174.0638
41.200001	100.843	-174.4808
41.799999	100.844	-174.8801
42.500000	100.850	-175.3816
43.099998	100.853	-175.8407
43.700001	100.852	-176.3068
44.400002	100.846	-176.8519
45.000000	100.836	-177.3101
45.500000	100.824	-177.6637
46.200001	100.806	-178.0900
46.799999	100.796	-178.4085
47.500000	100.793	-178.7876
48.200001	100.792	-179.2087
48.700001	100.789	-179.5247
49.400002	100.780	-179.9632
50.000000	100.771	179.6703
50.799999	100.758	179.1886
51.500000	100.746	178.7689
52.200001	100.734	178.3461
53.000000	100.720	177.8588
53.799999	100.702	177.3906
54.500000	100.688	177.0137
55.200001	100.677	176.6536
56.000000	100.668	176.2355
57.000000	100.655	175.7087
58.000000	100.640	175.2087
59.000000	100.624	174.7226
60.000000	100.607	174.2318
60.799999	100.592	173.8372
61.500000	100.576	173.4935
62.200001	100.560	173.1559
63.000000	100.541	172.7854
64.000000	100.520	172.3423
65.000000	100.502	171.9041
66.000000	100.486	171.4642
67.000000	100.468	171.0226
68.000000	100.447	170.5876
69.000000	100.423	170.1757
70.000000	100.400	169.7855
71.000000	100.377	169.4014
72.000000	100.356	169.0161
73.000000	100.335	168.6313
74.000000	100.314	168.2484
75.000000	100.293	167.8713
76.199997	100.265	167.4335
77.500000	100.233	166.9745
78.800003	100.199	166.5218
80.000000	100.166	166.1044
81.199997	100.133	165.6874
82.500000	100.097	165.2430
83.800003	100.063	164.8190
85.000000	100.032	164.4489
86.199997	100.001	164.0872
87.500000	99.964	163.6995
88.500000	99.933	163.4099
90.000000	99.888	162.9844
91.199997	99.859	162.6315
92.500000	99.829	162.2397
93.800003	99.800	161.8700
95.000000	99.770	161.5686
96.199997	99.736	161.3085
97.500000	99.693	161.0710
98.800003	99.651	160.8598
100.000000	99.618	160.6252
101.500000	99.583	160.1981
103.000000	99.543	159.6834
104.400002	99.503	159.2225
106.000000	99.455	158.7643
107.500000	99.410	158.4005
109.000000	99.364	158.0747
110.599998	99.315	157.7343
112.000000	99.274	157.4296
113.800003	99.224	157.0354
115.000000	99.192	156.7769
117.199997	99.132	156.3185
118.000000	99.109	156.1572
120.599998	99.035	155.6544
122.000000	98.996	155.3996
124.099998	98.940	155.0360
125.000000	98.916	154.8867
126.500000	98.875	154.6471
128.000000	98.832	154.4150
131.500000	98.731	153.8643
132.000000	98.717	153.7821
134.000000	98.661	153.4462
136.000000	98.606	153.1094
138.000000	98.551	152.7852
140.000000	98.496	152.4759
143.000000	98.411	152.0378
145.000000	98.352	151.7525
147.500000	98.275	151.4097
150.000000	98.199	151.0965
152.500000	98.123	150.8116
155.000000	98.049	150.5474
157.500000	97.976	150.3077
160.000000	97.905	150.1127
162.500000	97.837	149.9627
165.000000	97.767	149.8359
167.500000	97.695	149.7339
170.000000	97.629	149.6609
172.500000	97.576	149.5805
175.000000	97.535	149.4519
177.500000	97.498	149.2676
180.000000	97.460	149.0419
182.500000	97.418	148.7894
185.000000	97.372	148.5254
187.500000	97.319	148.2655
190.000000	97.262	148.0197
192.500000	97.203	147.7857
195.000000	97.142	147.5584
197.500000	97.081	147.3414
200.000000	97.020	147.1444
203.000000	96.948	146.9353
206.000000	96.877	146.7398
209.000000	96.804	146.5517
212.000000	96.732	146.3806
214.000000	96.684	146.2814
218.000000	96.589	146.1212
220.000000	96.541	146.0517
224.000000	96.447	145.9123
227.000000	96.379	145.8087
230.000000	96.312	145.7139
233.000000	96.245	145.6318
236.000000	96.180	145.5635
240.000000	96.097	145.4944
243.000000	96.037	145.4554
247.000000	95.959	145.4085
250.000000	95.903	145.3725
254.000000	95.828	145.3239
258.000000	95.752	145.2787
262.000000	95.675	145.2424
265.000000	95.618	145.2253
269.000000	95.545	145.2182
272.000000	95.491	145.2235
276.000000	95.422	145.2403
280.000000	95.357	145.2665
285.000000	95.279	145.3068
290.000000	95.205	145.3408
295.000000	95.139	145.3519
300.000000	95.074	145.3372
304.000000	95.019	145.3193
307.000000	94.976	145.3090
311.000000	94.917	145.2999
315.000000	94.858	145.2948
320.000000	94.785	145.2943
325.000000	94.711	145.2976
330.000000	94.637	145.3080
335.000000	94.564	145.3314
340.000000	94.491	145.3665
345.000000	94.419	145.4128
350.000000	94.349	145.4716
355.000000	94.281	145.5414
360.000000	94.212	145.6213
365.000000	94.144	145.7094
370.000000	94.078	145.8034
375.000000	94.013	145.9042
382.000000	93.925	146.0601
387.000000	93.863	146.1831
395.000000	93.768	146.3995
400.000000	93.710	146.5404
406.000000	93.641	146.7068
412.000000	93.574	146.8706
418.000000	93.509	147.0394
425.000000	93.434	147.2467
431.000000	93.372	147.4296
437.000000	93.310	147.6165
444.000000	93.240	147.8459
450.000000	93.181	148.0544
455.000000	93.133	148.2338
462.000000	93.068	148.4888
468.000000	93.013	148.7090
475.000000	92.949	148.9681
482.000000	92.888	149.2300
487.000000	92.846	149.4194
494.000000	92.788	149.6889
500.000000	92.741	149.9244
508.000000	92.679	150.2448
515.000000	92.626	150.5320
522.000000	92.573	150.8262
530.000000	92.513	151.1698
538.000000	92.455	151.5191
545.000000	92.407	151.8275
552.000000	92.360	152.1376
560.000000	92.307	152.4969
570.000000	92.244	152.9573
580.000000	92.183	153.4324
590.000000	92.124	153.9208
600.000000	92.067	154.4209
608.000000	92.023	154.8286
615.000000	91.986	155.1920
622.000000	91.950	155.5634
630.000000	91.910	156.0002
640.000000	91.863	156.5650
650.000000	91.818	157.1489
660.000000	91.777	157.7532
670.000000	91.740	158.3766
680.000000	91.710	159.0100
690.000000	91.685	159.6431
700.000000	91.665	160.2722
710.000000	91.649	160.8978
720.000000	91.636	161.5184
730.000000	91.625	162.1339
740.000000	91.615	162.7476
750.000000	91.608	163.3648
762.000000	91.603	164.1161
775.000000	91.601	164.9473
788.000000	91.604	165.7963
800.000000	91.613	166.5959
812.000000	91.627	167.4101
825.000000	91.649	168.3026
838.000000	91.678	169.2031
850.000000	91.712	170.0419
862.000000	91.754	170.8858
875.000000	91.807	171.8010
885.000000	91.854	172.5031
900.000000	91.936	173.5468
912.000000	92.011	174.3676
925.000000	92.101	175.2362
938.000000	92.202	176.0760
950.000000	92.304	176.8191
962.000000	92.414	177.5251
975.000000	92.541	178.2407
988.000000	92.677	178.8967
1000.000000	92.808	179.4435
1015.000000	92.978	-179.9578
1030.000000	93.154	-179.4568
1044.000000	93.320	-179.0780
1060.000000	93.511	-178.7506
1075.000000	93.689	-178.5430
1090.000000	93.863	-178.4253
1106.000000	94.044	-178.3887
1120.000000	94.197	-178.4219
1138.000000	94.384	-178.5406
1150.000000	94.503	-178.6607
1172.000000	94.709	-178.9486
1180.000000	94.779	-179.0704
1206.000000	94.996	-179.5092
1220.000000	95.104	-179.7644
1241.000000	95.257	179.8372
1250.000000	95.319	179.6625
1265.000000	95.419	179.3684
1280.000000	95.515	179.0732
1315.000000	95.722	178.3932
1320.000000	95.750	178.2976
1340.000000	95.860	177.9198
1360.000000	95.964	177.5501
1380.000000	96.065	177.1896
1400.000000	96.161	176.8381
1430.000000	96.300	176.3287
1450.000000	96.390	176.0010
1475.000000	96.500	175.6031
1500.000000	96.608	175.2150
1525.000000	96.714	174.8353
1550.000000	96.819	174.4625
1575.000000	96.923	174.0938
1600.000000	97.027	173.7266
1625.000000	97.129	173.3600
1650.000000	97.232	172.9926
1675.000000	97.334	172.6225
1700.000000	97.436	172.2480
1725.000000	97.537	171.8676
1750.000000	97.638	171.4799
1775.000000	97.740	171.0830
1800.000000	97.841	170.6751
1825.000000	97.942	170.2535
1850.000000	98.042	169.8154
1875.000000	98.142	169.3591
1900.000000	98.240	168.8848
1925.000000	98.337	168.3933
1950.000000	98.433	167.8849
1975.000000	98.526	167.3596
2000.000000	98.617	166.8174
2030.000000	98.724	166.1441
2060.000000	98.827	165.4463
2090.000000	98.926	164.7240
2120.000000	99.020	163.9777
2140.000000	99.081	163.4678
2180.000000	99.194	162.4222
2200.000000	99.247	161.8879
2240.000000	99.346	160.7977
2270.000000	99.412	159.9634
2300.000000	99.472	159.1184
2330.000000	99.524	158.2668
2360.000000	99.570	157.4127
2400.000000	99.618	156.2767
2430.000000	99.645	155.4328
2470.000000	99.668	154.3300
2500.000000	99.677	153.5287
2540.000000	99.676	152.5112
2580.000000	99.662	151.5745
2620.000000	99.640	150.7454
2650.000000	99.620	150.2072
2690.000000	99.598	149.6038
2720.000000	99.589	149.2222
2760.000000	99.594	148.7570
2800.000000	99.618	148.2581
2850.000000	99.662	147.4688
2900.000000	99.698	146.4619
2950.000000	99.706	145.3238
3000.000000	99.680	144.1812
3040.000000	99.638	143.3270
3070.000000	99.599	142.7376
3110.000000	99.538	142.0263
3150.000000	99.471	141.3994
3200.000000	99.384	140.7257
3250.000000	99.295	140.1608
3300.000000	99.207	139.6891
3350.000000	99.122	139.2955
3400.000000	99.040	138.9668
3450.000000	98.962	138.6910
3500.000000	98.888	138.4579
3550.000000	98.817	138.2596
3600.000000	98.750	138.0908
3650.000000	98.685	137.9496
3700.000000	98.621	137.8372
3750.000000	98.560	137.7569
3820.000000	98.478	137.7050
3870.000000	98.425	137.7110
3950.000000	98.354	137.7740
4000.000000	98.320	137.8265
4060.000000	98.290	137.8782
4120.000000	98.272	137.8947
4180.000000	98.263	137.8556
4250.000000	98.261	137.7188
4310.000000	98.263	137.5109
4370.000000	98.266	137.2132
4440.000000	98.267	136.7496
4500.000000	98.262	136.2540
4550.000000	98.251	135.7753
4620.000000	98.225	135.0136
4680.000000	98.188	134.2878
4750.000000	98.127	133.3768
4820.000000	98.045	132.4214
4870.000000	97.974	131.7245
4940.000000	97.856	130.7419
5000.000000	97.739	129.9016
5080.000000	97.557	128.8005
5150.000000	97.375	127.8771
5220.000000	97.171	127.0196
5300.000000	96.914	126.1565
5380.000000	96.637	125.4391
5450.000000	96.384	124.9196
5520.000000	96.121	124.4823
5600.000000	95.806	124.0916
5700.000000	95.388	123.8226
5800.000000	94.952	123.8463
5900.000000	94.507	124.1765
6000.000000	94.061	124.8092
6080.000000	93.708	125.5257
6150.000000	93.405	126.3001
6220.000000	93.109	127.2068
6300.000000	92.781	128.3973
6400.000000	92.391	130.0968
6500.000000	92.027	132.0003
6600.000000	91.690	134.0757
6700.000000	91.383	136.2983
6800.000000	91.103	138.6506
6900.000000	90.851	141.1205
7000.000000	90.627	143.7000
7100.000000	90.433	146.3792
7200.000000	90.269	149.1430
7300.000000	90.136	151.9718
7400.000000	90.032	154.8517
7500.000000	89.957	157.7792
7620.000000	89.903	161.3556
7750.000000	89.894	165.3064
7880.000000	89.938	169.3286
8000.000000	90.032	173.0853
8120.000000	90.180	176.8502
8250.000000	90.406	-179.1143
8380.000000	90.702	-175.1813
8500.000000	91.037	-171.6925
8620.000000	91.434	-168.3881
8750.000000	91.933	-165.0770
8850.000000	92.368	-162.7677
9000.000000	93.105	-159.7988
9120.000000	93.769	-157.9759
9250.000000	94.555	-156.7481
9380.000000	95.388	-156.5624
9500.000000	96.155	-157.5870
9620.000000	96.865	-159.9738
9750.000000	97.492	-164.1737
9880.000000	97.893	-169.8316
10000.000000	98.013	-175.8406
10150.000000	97.801	176.6309
10300.000000	97.219	170.2801
10440.000000	96.420	166.1526
10600.000000	95.329	163.7903
10750.000000	94.246	163.6223
10900.000000	93.192	165.0272
11060.000000	92.161	167.8062
11200.000000	91.362	171.0065
11380.000000	90.493	175.8212
11500.000000	90.012	179.3171
11720.000000	89.324	-173.9470
11800.000000	89.134	-171.4464
12060.000000	88.723	-163.3489
12200.000000	88.630	-159.1062
12410.000000	88.652	-153.0347
12500.000000	88.721	-150.5750
12650.000000	88.919	-146.7198
12800.000000	89.221	-143.2451
13150.000000	90.346	-137.3082
13200.000000	90.552	-136.8021
13400.000000	91.459	-135.9934
13600.000000	92.420	-137.6784
13800.000000	93.274	-142.5250
14000.000000	93.824	-150.6505
14300.000000	93.725	-166.3921
14500.000000	92.965	-175.9932
14750.000000	91.381	176.3127
15000.000000	89.402	174.1764
15250.000000	87.376	176.4754
15500.000000	85.567	-178.3728
15750.000000	84.117	-171.6567
16000.000000	83.063	-164.3131
16250.000000	82.377	-157.0380
16500.000000	81.993	-150.3515
16750.000000	81.828	-144.5962
17000.000000	81.811	-139.9652
17250.000000	81.887	-136.5915
17500.000000	82.014	-134.6344
17750.000000	82.137	-134.2791
18000.000000	82.185	-135.6134
18250.000000	82.084	-138.4583
18500.000000	81.774	-142.3021
18750.000000	81.239	-146.4393
19000.000000	80.508	-150.2345
19250.000000	79.652	-153.3201
19500.000000	78.777	-155.6074
19750.000000	78.023	-157.1398
