* Measurement data measured by REW V5.20.13
* Source: Mikrofon (US-2x2 HR), MICROPHONE (Hauptlautstärke), L, volume: 0,660
* Format: 256k Log Swept Sine, 1 sweep at -8,0 dBFS with no timing reference
* Dated: 05.10.2023 16:39:05
* REW Settings:
*  C-weighting compensation: Off
*  Target level: 75.0 dB
* Note: 
* Measurement: Red Zero
* Smoothing: 1/12 octave
* Frequency Step: 1/48 octave
* Start Frequency: 20.300 Hz
*
* Freq(Hz)	SPL(dB)	Phase(degrees)
20.299999	94.190	-146.9846
20.600000	94.203	-147.2811
20.900000	94.233	-147.9050
21.200001	94.263	-148.5812
21.400000	94.281	-149.0296
21.799999	94.312	-149.9084
22.000000	94.325	-150.3362
22.400000	94.350	-151.1719
22.700001	94.367	-151.7803
23.000000	94.386	-152.3740
23.299999	94.406	-152.9617
23.600000	94.429	-153.5540
24.000000	94.460	-154.3655
24.299999	94.481	-154.9930
24.700001	94.504	-155.8410
25.000000	94.516	-156.4672
25.400000	94.528	-157.2659
25.799999	94.541	-158.0139
26.200001	94.559	-158.7249
26.500000	94.576	-159.2494
26.900000	94.601	-159.9515
27.200001	94.619	-160.4820
27.600000	94.637	-161.1851
28.000000	94.648	-161.8657
28.500000	94.651	-162.6656
29.000000	94.649	-163.4107
29.500000	94.646	-164.1197
30.000000	94.647	-164.8134
30.400000	94.651	-165.3661
30.700001	94.657	-165.7819
31.100000	94.666	-166.3396
31.500000	94.675	-166.9016
32.000000	94.684	-167.6086
32.500000	94.688	-168.3167
33.000000	94.686	-169.0194
33.500000	94.679	-169.7076
34.000000	94.668	-170.3691
34.500000	94.656	-170.9979
35.000000	94.643	-171.6019
35.500000	94.631	-172.1992
36.000000	94.616	-172.8002
36.500000	94.599	-173.3970
37.000000	94.584	-173.9710
37.500000	94.573	-174.5125
38.200001	94.566	-175.2221
38.700001	94.563	-175.6946
39.500000	94.550	-176.3640
40.000000	94.538	-176.7336
40.599998	94.524	-177.1696
41.200001	94.511	-177.6333
41.799999	94.496	-178.1165
42.500000	94.481	-178.6867
43.099998	94.474	-179.2169
43.700001	94.468	-179.8382
44.400002	94.457	179.3284
45.000000	94.443	178.5920
45.500000	94.428	178.0172
46.200001	94.406	177.3113
46.799999	94.381	176.7991
47.500000	94.342	176.2750
48.200001	94.298	175.7767
48.700001	94.268	175.4141
49.400002	94.236	174.8917
50.000000	94.220	174.4395
50.799999	94.208	173.8405
51.500000	94.193	173.3272
52.200001	94.166	172.8389
53.000000	94.126	172.3243
53.799999	94.086	171.8420
54.500000	94.056	171.4252
55.200001	94.029	171.0048
56.000000	94.000	170.5225
57.000000	93.960	169.9187
58.000000	93.917	169.2991
59.000000	93.871	168.6553
60.000000	93.821	168.0175
60.799999	93.783	167.5366
61.500000	93.753	167.1388
62.200001	93.724	166.7582
63.000000	93.689	166.3442
64.000000	93.641	165.8626
65.000000	93.588	165.4059
66.000000	93.534	164.9412
67.000000	93.476	164.4603
68.000000	93.419	163.9788
69.000000	93.364	163.5101
70.000000	93.312	163.0668
71.000000	93.263	162.6520
72.000000	93.216	162.2498
73.000000	93.169	161.8506
74.000000	93.123	161.4669
75.000000	93.078	161.1103
76.199997	93.024	160.7090
77.500000	92.960	160.2750
78.800003	92.893	159.8154
80.000000	92.830	159.3698
81.199997	92.768	158.9245
82.500000	92.701	158.4756
83.800003	92.633	158.0789
85.000000	92.568	157.7449
86.199997	92.499	157.4128
87.500000	92.424	157.0397
88.500000	92.366	156.7566
90.000000	92.286	156.3622
91.199997	92.228	156.0651
92.500000	92.166	155.7521
93.800003	92.102	155.4308
95.000000	92.043	155.0869
96.199997	91.986	154.6386
97.500000	91.925	153.9673
98.800003	91.865	153.2140
100.000000	91.803	152.7949
101.500000	91.716	152.9032
103.000000	91.624	153.2452
104.400002	91.542	153.3514
106.000000	91.456	153.2330
107.500000	91.378	153.0407
109.000000	91.302	152.8536
110.599998	91.218	152.6754
112.000000	91.144	152.5355
113.800003	91.049	152.3848
115.000000	90.988	152.2993
117.199997	90.879	152.1580
118.000000	90.840	152.1098
120.599998	90.713	151.9597
122.000000	90.645	151.8885
124.099998	90.547	151.8049
125.000000	90.506	151.7745
126.500000	90.437	151.7248
128.000000	90.368	151.6767
131.500000	90.205	151.6195
132.000000	90.183	151.6197
134.000000	90.094	151.6375
136.000000	90.006	151.6817
138.000000	89.920	151.7509
140.000000	89.835	151.8373
143.000000	89.710	151.9807
145.000000	89.632	152.0743
147.500000	89.541	152.2083
150.000000	89.454	152.3694
152.500000	89.366	152.5491
155.000000	89.279	152.7542
157.500000	89.195	152.9746
160.000000	89.116	153.1913
162.500000	89.045	153.4107
165.000000	88.979	153.6542
167.500000	88.914	153.9254
170.000000	88.849	154.2112
172.500000	88.786	154.4981
175.000000	88.728	154.7829
177.500000	88.674	155.0695
180.000000	88.623	155.3622
182.500000	88.575	155.6562
185.000000	88.532	155.9437
187.500000	88.492	156.2321
190.000000	88.454	156.5391
192.500000	88.421	156.8852
195.000000	88.393	157.2881
197.500000	88.368	157.7229
200.000000	88.340	158.0806
203.000000	88.302	158.3096
206.000000	88.266	158.4489
209.000000	88.236	158.6285
212.000000	88.210	158.8569
214.000000	88.193	159.0252
218.000000	88.161	159.3875
220.000000	88.146	159.5768
224.000000	88.118	159.9584
227.000000	88.099	160.2354
230.000000	88.082	160.5005
233.000000	88.068	160.7693
236.000000	88.056	161.0577
240.000000	88.044	161.4756
243.000000	88.034	161.8040
247.000000	88.020	162.2534
250.000000	88.014	162.5880
254.000000	88.018	163.0040
258.000000	88.031	163.3645
262.000000	88.047	163.6853
265.000000	88.059	163.9245
269.000000	88.080	164.2557
272.000000	88.104	164.5104
276.000000	88.146	164.8343
280.000000	88.195	165.1118
285.000000	88.258	165.3551
290.000000	88.316	165.4437
295.000000	88.365	165.3851
300.000000	88.406	165.2519
304.000000	88.432	165.1559
307.000000	88.446	165.0954
311.000000	88.461	165.0192
315.000000	88.472	164.9441
320.000000	88.483	164.8544
325.000000	88.491	164.7683
330.000000	88.497	164.6885
335.000000	88.502	164.6233
340.000000	88.507	164.5684
345.000000	88.512	164.5140
350.000000	88.515	164.4563
355.000000	88.516	164.3943
360.000000	88.516	164.3268
365.000000	88.516	164.2587
370.000000	88.516	164.1964
375.000000	88.515	164.1396
382.000000	88.512	164.0602
387.000000	88.510	164.0007
395.000000	88.507	163.9079
400.000000	88.503	163.8536
406.000000	88.499	163.7923
412.000000	88.494	163.7347
418.000000	88.488	163.6815
425.000000	88.479	163.6249
431.000000	88.471	163.5778
437.000000	88.462	163.5299
444.000000	88.450	163.4753
450.000000	88.440	163.4339
455.000000	88.432	163.4054
462.000000	88.421	163.3756
468.000000	88.411	163.3574
475.000000	88.399	163.3417
482.000000	88.386	163.3298
487.000000	88.377	163.3232
494.000000	88.365	163.3179
500.000000	88.355	163.3174
508.000000	88.342	163.3205
515.000000	88.330	163.3276
522.000000	88.318	163.3405
530.000000	88.305	163.3634
538.000000	88.292	163.3947
545.000000	88.280	163.4279
552.000000	88.269	163.4651
560.000000	88.257	163.5119
570.000000	88.243	163.5772
580.000000	88.230	163.6479
590.000000	88.217	163.7239
600.000000	88.204	163.8079
608.000000	88.195	163.8769
615.000000	88.187	163.9368
622.000000	88.179	163.9978
630.000000	88.169	164.0714
640.000000	88.156	164.1716
650.000000	88.141	164.2844
660.000000	88.125	164.4175
670.000000	88.110	164.5782
680.000000	88.097	164.7664
690.000000	88.088	164.9763
700.000000	88.081	165.2002
710.000000	88.077	165.4326
720.000000	88.075	165.6716
730.000000	88.076	165.9166
740.000000	88.078	166.1663
750.000000	88.083	166.4193
762.000000	88.092	166.7245
775.000000	88.106	167.0601
788.000000	88.122	167.4052
800.000000	88.141	167.7292
812.000000	88.162	168.0555
825.000000	88.188	168.4120
838.000000	88.219	168.7716
850.000000	88.251	169.1047
862.000000	88.287	169.4365
875.000000	88.330	169.7906
885.000000	88.365	170.0562
900.000000	88.424	170.4418
912.000000	88.475	170.7399
925.000000	88.533	171.0514
938.000000	88.595	171.3474
950.000000	88.656	171.6046
962.000000	88.719	171.8448
975.000000	88.790	172.0843
988.000000	88.864	172.3004
1000.000000	88.934	172.4774
1015.000000	89.022	172.6679
1030.000000	89.113	172.8252
1044.000000	89.197	172.9423
1060.000000	89.294	173.0409
1075.000000	89.385	173.0994
1090.000000	89.475	173.1267
1106.000000	89.570	173.1255
1120.000000	89.651	173.1034
1138.000000	89.753	173.0494
1150.000000	89.819	172.9984
1172.000000	89.936	172.8788
1180.000000	89.977	172.8288
1206.000000	90.104	172.6479
1220.000000	90.170	172.5436
1241.000000	90.265	172.3860
1250.000000	90.305	172.3196
1265.000000	90.369	172.2117
1280.000000	90.432	172.1084
1315.000000	90.574	171.8951
1320.000000	90.595	171.8682
1340.000000	90.675	171.7692
1360.000000	90.757	171.6819
1380.000000	90.839	171.6028
1400.000000	90.925	171.5280
1430.000000	91.058	171.4114
1450.000000	91.151	171.3206
1475.000000	91.271	171.1803
1500.000000	91.394	170.9991
1525.000000	91.518	170.7707
1550.000000	91.641	170.4931
1575.000000	91.759	170.1671
1600.000000	91.873	169.8004
1625.000000	91.980	169.4066
1650.000000	92.080	168.9995
1675.000000	92.173	168.5894
1700.000000	92.261	168.1854
1725.000000	92.344	167.7938
1750.000000	92.424	167.4181
1775.000000	92.501	167.0594
1800.000000	92.576	166.7182
1825.000000	92.649	166.3942
1850.000000	92.723	166.0867
1875.000000	92.796	165.7938
1900.000000	92.870	165.5115
1925.000000	92.944	165.2342
1950.000000	93.019	164.9595
1975.000000	93.094	164.6873
2000.000000	93.171	164.4177
2030.000000	93.263	164.0957
2060.000000	93.356	163.7733
2090.000000	93.450	163.4485
2120.000000	93.546	163.1201
2140.000000	93.610	162.8987
2180.000000	93.739	162.4489
2200.000000	93.805	162.2187
2240.000000	93.939	161.7396
2270.000000	94.042	161.3550
2300.000000	94.145	160.9390
2330.000000	94.249	160.4866
2360.000000	94.350	159.9989
2400.000000	94.481	159.3024
2430.000000	94.575	158.7528
2470.000000	94.695	157.9917
2500.000000	94.781	157.4027
2540.000000	94.890	156.5967
2580.000000	94.993	155.7690
2620.000000	95.090	154.9203
2650.000000	95.158	154.2703
2690.000000	95.243	153.3861
2720.000000	95.303	152.7101
2760.000000	95.376	151.7929
2800.000000	95.441	150.8607
2850.000000	95.510	149.6809
2900.000000	95.566	148.4949
2950.000000	95.608	147.3145
3000.000000	95.637	146.1505
3040.000000	95.651	145.2368
3070.000000	95.657	144.5645
3110.000000	95.658	143.6882
3150.000000	95.652	142.8366
3200.000000	95.636	141.8098
3250.000000	95.614	140.8240
3300.000000	95.585	139.8700
3350.000000	95.550	138.9335
3400.000000	95.507	138.0056
3450.000000	95.454	137.0912
3500.000000	95.389	136.2079
3550.000000	95.312	135.3777
3600.000000	95.225	134.6186
3650.000000	95.129	133.9420
3700.000000	95.028	133.3511
3750.000000	94.924	132.8419
3820.000000	94.776	132.2479
3870.000000	94.672	131.8928
3950.000000	94.506	131.4133
4000.000000	94.403	131.1583
4060.000000	94.276	130.8978
4120.000000	94.147	130.6949
4180.000000	94.015	130.5562
4250.000000	93.861	130.4733
4310.000000	93.731	130.4570
4370.000000	93.604	130.4751
4440.000000	93.457	130.5291
4500.000000	93.330	130.6094
4550.000000	93.223	130.7103
4620.000000	93.074	130.9152
4680.000000	92.946	131.1518
4750.000000	92.798	131.4976
4820.000000	92.652	131.9196
4870.000000	92.549	132.2687
4940.000000	92.409	132.8222
5000.000000	92.295	133.3517
5080.000000	92.153	134.1235
5150.000000	92.040	134.8451
5220.000000	91.937	135.5949
5300.000000	91.832	136.4717
5380.000000	91.736	137.3630
5450.000000	91.659	138.1559
5520.000000	91.590	138.9619
5600.000000	91.518	139.8982
5700.000000	91.441	141.0927
5800.000000	91.380	142.3198
5900.000000	91.336	143.5813
6000.000000	91.313	144.8717
6080.000000	91.312	145.9163
6150.000000	91.324	146.8310
6220.000000	91.349	147.7378
6300.000000	91.393	148.7533
6400.000000	91.472	149.9741
6500.000000	91.579	151.1222
6600.000000	91.713	152.1781
6700.000000	91.873	153.1217
6800.000000	92.059	153.9329
6900.000000	92.272	154.5899
7000.000000	92.510	155.0645
7100.000000	92.773	155.3197
7200.000000	93.058	155.3125
7300.000000	93.360	155.0035
7400.000000	93.676	154.3636
7500.000000	94.003	153.3634
7620.000000	94.410	151.6125
7750.000000	94.862	148.8394
7880.000000	95.293	144.7983
8000.000000	95.605	139.6016
8120.000000	95.734	132.9191
8250.000000	95.548	124.5661
8380.000000	94.946	116.3970
8500.000000	94.036	110.3604
8620.000000	92.868	106.5446
8750.000000	91.450	105.0123
8850.000000	90.337	105.3999
9000.000000	88.748	107.8569
9120.000000	87.594	110.9495
9250.000000	86.478	115.0497
9380.000000	85.497	119.6799
9500.000000	84.699	124.2682
9620.000000	83.989	129.0646
9750.000000	83.307	134.4368
9880.000000	82.704	139.9530
10000.000000	82.211	145.1393
10150.000000	81.674	151.7058
10300.000000	81.215	158.3348
10440.000000	80.853	164.5590
10600.000000	80.517	171.6677
10750.000000	80.275	178.2707
10900.000000	80.099	-175.2228
11060.000000	79.977	-168.4321
11200.000000	79.920	-162.6686
11380.000000	79.901	-155.5465
11500.000000	79.911	-150.9680
11720.000000	79.960	-142.8120
11800.000000	79.984	-139.8679
12060.000000	80.120	-130.0196
12200.000000	80.272	-124.4025
12410.000000	80.705	-115.6061
12500.000000	80.993	-111.7813
12650.000000	81.641	-105.4945
12800.000000	82.525	-99.5301
13150.000000	85.542	-88.6294
13200.000000	86.065	-87.6488
13400.000000	88.248	-86.1032
13600.000000	90.320	-89.8242
13800.000000	91.898	-100.2591
14000.000000	92.656	-116.3987
14300.000000	92.008	-141.3905
14500.000000	90.618	-152.2142
14750.000000	88.364	-157.8154
15000.000000	86.085	-157.3767
15250.000000	84.141	-153.7191
15500.000000	82.644	-148.5015
15750.000000	81.565	-142.6335
16000.000000	80.835	-136.6774
16250.000000	80.399	-131.0696
16500.000000	80.208	-126.2446
16750.000000	80.207	-122.6783
17000.000000	80.318	-120.8546
17250.000000	80.433	-121.1474
17500.000000	80.429	-123.6358
17750.000000	80.192	-127.9180
18000.000000	79.644	-133.1055
18250.000000	78.766	-138.1112
18500.000000	77.595	-142.0663
18750.000000	76.208	-144.5747
19000.000000	74.697	-145.6890
19250.000000	73.156	-145.7328
19500.000000	71.687	-145.1377
19750.000000	70.440	-144.3620
