* Measurement data measured by REW V5.20.13
* Source: EXCL: Headset Microphone (Realtek(R) Audio), MICROPHONE (Hauptlautstärke), L, volume: 1,000
* Format: 256k Log Swept Sine, 1 sweep at -8,0 dBFS with no timing reference
* Dated: 10.08.2023 22:51:46
* REW Settings:
*  C-weighting compensation: Off
*  Target level: 75.0 dB
* Note: 
* Measurement: Simgot EW200 R
* Smoothing: 1/12 octave
* Frequency Step: 1/48 octave
* Start Frequency: 20.000 Hz
*
* Freq(Hz)	SPL(dB)	Phase(degrees)
20.000000	114.958	15.2430
20.299999	114.955	14.7190
20.600000	114.960	14.2104
20.900000	114.970	13.6791
21.200001	114.980	13.1124
21.400000	114.983	12.7263
21.799999	114.983	11.9656
22.000000	114.981	11.6036
22.400000	114.975	10.9254
22.700001	114.973	10.4405
23.000000	114.973	9.9539
23.299999	114.972	9.4552
23.600000	114.970	8.9479
24.000000	114.961	8.2759
24.299999	114.951	7.7902
24.700001	114.937	7.1736
25.000000	114.927	6.7275
25.400000	114.915	6.1410
25.799999	114.903	5.5580
26.200001	114.891	4.9860
26.500000	114.882	4.5694
26.900000	114.871	4.0285
27.200001	114.865	3.6254
27.600000	114.859	3.0787
28.000000	114.852	2.5167
28.500000	114.837	1.8137
29.000000	114.817	1.1525
29.500000	114.795	0.5557
30.000000	114.777	0.0091
30.400000	114.766	-0.4125
30.700001	114.758	-0.7267
31.100000	114.749	-1.1450
31.500000	114.738	-1.5601
32.000000	114.724	-2.0697
32.500000	114.707	-2.5658
33.000000	114.689	-3.0468
33.500000	114.670	-3.5128
34.000000	114.651	-3.9688
34.500000	114.633	-4.4244
35.000000	114.614	-4.8859
35.500000	114.594	-5.3518
36.000000	114.572	-5.8175
36.500000	114.550	-6.2824
37.000000	114.526	-6.7493
37.500000	114.500	-7.2162
38.200001	114.460	-7.8511
38.700001	114.430	-8.2829
39.500000	114.386	-8.9546
40.000000	114.359	-9.3748
40.599998	114.324	-9.8724
41.200001	114.288	-10.3457
41.799999	114.254	-10.7955
42.500000	114.218	-11.3177
43.099998	114.187	-11.7768
43.700001	114.152	-12.2297
44.400002	114.109	-12.7211
45.000000	114.073	-13.1062
45.500000	114.045	-13.4126
46.200001	114.009	-13.8375
46.799999	113.979	-14.2115
47.500000	113.943	-14.6710
48.200001	113.901	-15.1418
48.700001	113.866	-15.4613
49.400002	113.816	-15.8601
50.000000	113.775	-16.1663
50.799999	113.727	-16.5627
51.500000	113.689	-16.9174
52.200001	113.654	-17.2888
53.000000	113.614	-17.7488
53.799999	113.567	-18.2258
54.500000	113.520	-18.6143
55.200001	113.470	-18.9593
56.000000	113.415	-19.3139
57.000000	113.349	-19.7263
58.000000	113.287	-20.1313
59.000000	113.227	-20.5455
60.000000	113.167	-20.9777
60.799999	113.116	-21.3375
61.500000	113.068	-21.6523
62.200001	113.017	-21.9563
63.000000	112.955	-22.2835
64.000000	112.875	-22.6572
65.000000	112.791	-22.9845
66.000000	112.708	-23.2535
67.000000	112.632	-23.4607
68.000000	112.567	-23.6286
69.000000	112.512	-23.7773
70.000000	112.468	-23.9043
71.000000	112.434	-24.0277
72.000000	112.408	-24.1892
73.000000	112.380	-24.4139
74.000000	112.346	-24.7026
75.000000	112.300	-25.0344
76.199997	112.231	-25.4575
77.500000	112.145	-25.9160
78.800003	112.053	-26.3352
80.000000	111.965	-26.6564
81.199997	111.879	-26.9006
82.500000	111.790	-27.0983
83.800003	111.703	-27.2698
85.000000	111.623	-27.4399
86.199997	111.541	-27.6321
87.500000	111.448	-27.8442
88.500000	111.374	-27.9631
90.000000	111.277	-27.9713
91.199997	111.233	-27.9038
92.500000	111.212	-27.8955
93.800003	111.199	-27.9319
95.000000	111.189	-27.9484
96.199997	111.178	-27.9240
97.500000	111.164	-27.8643
98.800003	111.146	-27.8253
100.000000	111.122	-27.8877
101.500000	111.073	-28.1500
103.000000	111.002	-28.5345
104.400002	110.933	-28.9170
106.000000	110.863	-29.3251
107.500000	110.807	-29.6259
109.000000	110.754	-29.8279
110.599998	110.693	-29.9921
112.000000	110.631	-30.1415
113.800003	110.542	-30.3687
115.000000	110.483	-30.5363
117.199997	110.380	-30.8116
118.000000	110.345	-30.8846
120.599998	110.236	-31.0367
122.000000	110.176	-31.1004
124.099998	110.080	-31.1802
125.000000	110.040	-31.2038
126.500000	109.976	-31.2360
128.000000	109.917	-31.2707
131.500000	109.783	-31.3458
132.000000	109.764	-31.3499
134.000000	109.692	-31.3549
136.000000	109.623	-31.3699
138.000000	109.555	-31.3982
140.000000	109.488	-31.4212
143.000000	109.394	-31.4537
145.000000	109.333	-31.5022
147.500000	109.250	-31.5865
150.000000	109.161	-31.6241
152.500000	109.080	-31.5931
155.000000	109.007	-31.5169
157.500000	108.942	-31.4251
160.000000	108.883	-31.3642
162.500000	108.826	-31.3553
165.000000	108.766	-31.3883
167.500000	108.701	-31.4428
170.000000	108.631	-31.5011
172.500000	108.558	-31.5447
175.000000	108.483	-31.5581
177.500000	108.410	-31.5401
180.000000	108.339	-31.5010
182.500000	108.270	-31.4492
185.000000	108.203	-31.3896
187.500000	108.137	-31.3249
190.000000	108.071	-31.2560
192.500000	108.005	-31.1792
195.000000	107.941	-31.0901
197.500000	107.878	-30.9916
200.000000	107.816	-30.8927
203.000000	107.745	-30.7753
206.000000	107.675	-30.6493
209.000000	107.607	-30.5161
212.000000	107.540	-30.3827
214.000000	107.495	-30.2923
218.000000	107.410	-30.1010
220.000000	107.369	-30.0007
224.000000	107.290	-29.8000
227.000000	107.232	-29.6533
230.000000	107.174	-29.5037
233.000000	107.116	-29.3443
236.000000	107.060	-29.1767
240.000000	106.988	-28.9496
243.000000	106.936	-28.7787
247.000000	106.870	-28.5495
250.000000	106.820	-28.3749
254.000000	106.754	-28.1360
258.000000	106.689	-27.8977
262.000000	106.626	-27.6657
265.000000	106.579	-27.4925
269.000000	106.519	-27.2560
272.000000	106.476	-27.0745
276.000000	106.418	-26.8330
280.000000	106.363	-26.5945
285.000000	106.297	-26.2904
290.000000	106.233	-25.9745
295.000000	106.172	-25.6545
300.000000	106.111	-25.3369
304.000000	106.063	-25.0878
307.000000	106.028	-24.9036
311.000000	105.983	-24.6577
315.000000	105.940	-24.4090
320.000000	105.888	-24.0932
325.000000	105.839	-23.7744
330.000000	105.789	-23.4579
335.000000	105.740	-23.1415
340.000000	105.692	-22.8247
345.000000	105.646	-22.5124
350.000000	105.603	-22.2025
355.000000	105.561	-21.8884
360.000000	105.520	-21.5720
365.000000	105.481	-21.2603
370.000000	105.442	-20.9539
375.000000	105.404	-20.6475
382.000000	105.353	-20.2149
387.000000	105.317	-19.9064
395.000000	105.264	-19.4055
400.000000	105.232	-19.0862
406.000000	105.196	-18.7061
412.000000	105.160	-18.3341
418.000000	105.126	-17.9692
425.000000	105.087	-17.5503
431.000000	105.056	-17.1947
437.000000	105.026	-16.8384
444.000000	104.993	-16.4156
450.000000	104.965	-16.0484
455.000000	104.943	-15.7423
462.000000	104.911	-15.3148
468.000000	104.885	-14.9508
475.000000	104.856	-14.5300
482.000000	104.829	-14.1112
487.000000	104.810	-13.8125
494.000000	104.786	-13.3962
500.000000	104.766	-13.0430
508.000000	104.742	-12.5749
515.000000	104.722	-12.1662
522.000000	104.702	-11.7579
530.000000	104.680	-11.2896
538.000000	104.661	-10.8214
545.000000	104.646	-10.4130
552.000000	104.631	-10.0065
560.000000	104.615	-9.5431
570.000000	104.596	-8.9609
580.000000	104.581	-8.3794
590.000000	104.568	-7.8019
600.000000	104.556	-7.2264
608.000000	104.546	-6.7681
615.000000	104.539	-6.3643
622.000000	104.533	-5.9555
630.000000	104.528	-5.4847
640.000000	104.525	-4.8969
650.000000	104.523	-4.3120
660.000000	104.523	-3.7273
670.000000	104.525	-3.1417
680.000000	104.528	-2.5586
690.000000	104.534	-1.9814
700.000000	104.543	-1.4111
710.000000	104.556	-0.8482
720.000000	104.572	-0.2951
730.000000	104.591	0.2443
740.000000	104.613	0.7601
750.000000	104.638	1.2378
762.000000	104.664	1.7359
775.000000	104.676	2.1888
788.000000	104.658	2.6759
800.000000	104.621	3.3356
812.000000	104.597	4.2389
825.000000	104.609	5.3282
838.000000	104.653	6.3572
850.000000	104.704	7.2080
862.000000	104.757	7.9855
875.000000	104.811	8.7820
885.000000	104.850	9.3890
900.000000	104.905	10.3526
912.000000	104.950	11.2323
925.000000	105.017	12.3475
938.000000	105.129	13.5820
950.000000	105.287	14.6040
962.000000	105.472	15.2496
975.000000	105.648	15.5078
988.000000	105.774	15.5811
1000.000000	105.861	15.6930
1015.000000	105.955	15.9627
1030.000000	106.049	16.3258
1044.000000	106.141	16.6978
1060.000000	106.251	17.1294
1075.000000	106.359	17.5225
1090.000000	106.468	17.8936
1106.000000	106.584	18.2622
1120.000000	106.685	18.5613
1138.000000	106.816	18.9112
1150.000000	106.902	19.1243
1172.000000	107.059	19.4836
1180.000000	107.115	19.6054
1206.000000	107.297	19.9685
1220.000000	107.394	20.1447
1241.000000	107.537	20.3856
1250.000000	107.598	20.4816
1265.000000	107.697	20.6339
1280.000000	107.796	20.7789
1315.000000	108.024	21.0938
1320.000000	108.057	21.1350
1340.000000	108.187	21.2855
1360.000000	108.316	21.4139
1380.000000	108.444	21.5248
1400.000000	108.572	21.6212
1430.000000	108.761	21.7378
1450.000000	108.886	21.7950
1475.000000	109.043	21.8414
1500.000000	109.200	21.8539
1525.000000	109.355	21.8277
1550.000000	109.506	21.7655
1575.000000	109.652	21.6769
1600.000000	109.793	21.5749
1625.000000	109.930	21.4696
1650.000000	110.064	21.3641
1675.000000	110.198	21.2543
1700.000000	110.331	21.1387
1725.000000	110.464	21.0185
1750.000000	110.597	20.8911
1775.000000	110.730	20.7512
1800.000000	110.864	20.5951
1825.000000	110.998	20.4205
1850.000000	111.132	20.2249
1875.000000	111.267	20.0041
1900.000000	111.401	19.7566
1925.000000	111.534	19.4858
1950.000000	111.666	19.1958
1975.000000	111.797	18.8857
2000.000000	111.927	18.5505
2030.000000	112.081	18.1107
2060.000000	112.233	17.6302
2090.000000	112.383	17.1079
2120.000000	112.528	16.5428
2140.000000	112.622	16.1431
2180.000000	112.804	15.2929
2200.000000	112.891	14.8433
2240.000000	113.059	13.8953
2270.000000	113.176	13.1452
2300.000000	113.287	12.3657
2330.000000	113.390	11.5596
2360.000000	113.485	10.7308
2400.000000	113.599	9.5983
2430.000000	113.674	8.7333
2470.000000	113.760	7.5669
2500.000000	113.813	6.6903
2540.000000	113.871	5.5320
2580.000000	113.913	4.3976
2620.000000	113.939	3.3019
2650.000000	113.948	2.5153
2690.000000	113.949	1.5250
2720.000000	113.941	0.8335
2760.000000	113.923	-0.0119
2800.000000	113.897	-0.7652
2850.000000	113.859	-1.5757
2900.000000	113.817	-2.2344
2950.000000	113.775	-2.7260
3000.000000	113.741	-3.0367
3040.000000	113.730	-3.1657
3070.000000	113.736	-3.2206
3110.000000	113.766	-3.3018
3150.000000	113.820	-3.4745
3200.000000	113.901	-3.9136
3250.000000	113.975	-4.6045
3300.000000	114.023	-5.4557
3350.000000	114.040	-6.3513
3400.000000	114.032	-7.2070
3450.000000	114.006	-7.9841
3500.000000	113.971	-8.6770
3550.000000	113.929	-9.2968
3600.000000	113.881	-9.8564
3650.000000	113.828	-10.3616
3700.000000	113.768	-10.8077
3750.000000	113.702	-11.1799
3820.000000	113.600	-11.5352
3870.000000	113.526	-11.6427
3950.000000	113.424	-11.5505
4000.000000	113.381	-11.3634
4060.000000	113.356	-11.0808
4120.000000	113.361	-10.8124
4180.000000	113.388	-10.6216
4250.000000	113.440	-10.5407
4310.000000	113.493	-10.6028
4370.000000	113.550	-10.7866
4440.000000	113.617	-11.1544
4500.000000	113.670	-11.5974
4550.000000	113.707	-12.0525
4620.000000	113.747	-12.8090
4680.000000	113.764	-13.5501
4750.000000	113.763	-14.4940
4820.000000	113.736	-15.4905
4870.000000	113.701	-16.2163
4940.000000	113.628	-17.2272
5000.000000	113.546	-18.0680
5080.000000	113.406	-19.1182
5150.000000	113.259	-19.9402
5220.000000	113.089	-20.6456
5300.000000	112.873	-21.2859
5380.000000	112.637	-21.7310
5450.000000	112.417	-21.9484
5520.000000	112.188	-21.9952
5600.000000	111.918	-21.8223
5700.000000	111.575	-21.2170
5800.000000	111.243	-20.1060
5900.000000	110.963	-18.5628
6000.000000	110.756	-16.9331
6080.000000	110.613	-15.6885
6150.000000	110.492	-14.5654
6220.000000	110.378	-13.3461
6300.000000	110.264	-11.8238
6400.000000	110.161	-9.7746
6500.000000	110.105	-7.6313
6600.000000	110.100	-5.4550
6700.000000	110.148	-3.2933
6800.000000	110.249	-1.1852
6900.000000	110.406	0.8284
7000.000000	110.620	2.7010
7100.000000	110.896	4.3743
7200.000000	111.240	5.7650
7300.000000	111.653	6.7545
7400.000000	112.131	7.1862
7500.000000	112.663	6.8663
7620.000000	113.329	5.1752
7750.000000	113.996	1.3480
7880.000000	114.472	-4.6836
8000.000000	114.628	-11.7808
8120.000000	114.447	-19.4085
8250.000000	113.868	-26.9743
8380.000000	112.966	-32.7563
8500.000000	111.944	-36.1265
8620.000000	110.840	-37.6922
8750.000000	109.641	-37.6916
8850.000000	108.757	-36.7494
9000.000000	107.535	-34.1981
9120.000000	106.660	-31.4290
9250.000000	105.817	-27.8948
9380.000000	105.077	-23.9224
9500.000000	104.483	-19.9139
9620.000000	103.979	-15.5915
9750.000000	103.557	-10.6245
9880.000000	103.294	-5.6174
10000.000000	103.192	-1.3274
10150.000000	103.192	3.2382
10300.000000	103.262	6.9385
10440.000000	103.363	9.6817
10600.000000	103.495	11.8241
10750.000000	103.563	12.7006
10900.000000	103.464	12.7597
11060.000000	103.063	13.2852
11200.000000	102.497	15.9871
11380.000000	101.975	24.2588
11500.000000	102.235	31.8903
11720.000000	104.182	43.8982
11800.000000	105.102	46.0149
12060.000000	107.686	41.0744
12200.000000	108.491	31.6024
12410.000000	108.696	12.9855
12500.000000	108.424	4.9588
12650.000000	107.561	-6.8630
12800.000000	106.281	-15.8638
13150.000000	102.111	-22.6681
13200.000000	101.408	-21.6859
13400.000000	98.459	-12.5700
13600.000000	95.721	2.6845
13800.000000	94.062	18.7107
14000.000000	93.668	30.7931
14300.000000	93.668	41.6912
14500.000000	93.556	48.7052
14750.000000	93.900	60.3481
15000.000000	95.369	72.0777
15250.000000	97.350	77.9943
15500.000000	99.034	75.9346
15750.000000	100.141	68.0333
16000.000000	100.672	57.5266
16250.000000	100.812	46.8748
16500.000000	100.852	35.9334
16750.000000	100.772	22.5317
17000.000000	100.276	6.4888
17250.000000	99.209	-10.1700
17500.000000	97.551	-24.9660
17750.000000	95.302	-35.0991
18000.000000	92.512	-38.3490
18250.000000	89.351	-34.8421
18500.000000	86.154	-27.4724
18750.000000	83.448	-20.6499
19000.000000	81.578	-17.7258
19250.000000	80.239	-18.9434
19500.000000	78.922	-22.1357
19750.000000	77.516	-25.0293
