* Measurement data measured by REW V5.20.13
* Source: Mikrofon (US-2x2 HR), no input selected, R, volume: 0,660
* Format: 256k Log Swept Sine, 1 sweep at -8,0 dBFS with no timing reference
* Dated: 26.09.2023 13:04:37
* REW Settings:
*  C-weighting compensation: Off
*  Target level: 75.0 dB
* Note: 
* Measurement: Tin Hifi C0 L
* Smoothing: 1/12 octave
* Frequency Step: 1/48 octave
* Start Frequency: 20.300 Hz
*
* Freq(Hz)	SPL(dB)	Phase(degrees)
20.299999	90.672	-167.8849
20.600000	90.687	-168.3859
20.900000	90.723	-169.4245
21.200001	90.760	-170.4991
21.400000	90.783	-171.1711
21.799999	90.828	-172.4027
22.000000	90.849	-172.9751
22.400000	90.890	-174.0966
22.700001	90.917	-174.9580
23.000000	90.939	-175.8558
23.299999	90.956	-176.7820
23.600000	90.968	-177.7180
24.000000	90.981	-178.9471
24.299999	90.994	-179.8359
24.700001	91.019	179.0272
25.000000	91.044	178.1999
25.400000	91.081	177.1111
25.799999	91.117	176.0232
26.200001	91.147	174.9358
26.500000	91.165	174.1275
26.900000	91.183	173.0704
27.200001	91.193	172.2991
27.600000	91.205	171.3037
28.000000	91.216	170.3456
28.500000	91.227	169.1923
29.000000	91.236	168.0679
29.500000	91.241	166.9449
30.000000	91.244	165.7981
30.400000	91.248	164.8589
30.700001	91.251	164.1467
31.100000	91.256	163.1996
31.500000	91.264	162.2686
32.000000	91.275	161.1391
32.500000	91.286	160.0434
33.000000	91.292	158.9652
33.500000	91.294	157.8926
34.000000	91.293	156.8245
34.500000	91.294	155.7663
35.000000	91.298	154.7245
35.500000	91.306	153.7057
36.000000	91.314	152.7158
36.500000	91.317	151.7548
37.000000	91.316	150.8123
37.500000	91.312	149.8706
38.200001	91.304	148.5273
38.700001	91.300	147.5513
39.500000	91.299	146.0047
40.000000	91.300	145.0701
40.599998	91.300	143.9828
41.200001	91.296	142.9147
41.799999	91.285	141.8513
42.500000	91.266	140.6215
43.099998	91.250	139.5924
43.700001	91.239	138.5887
44.400002	91.231	137.4302
45.000000	91.225	136.4319
45.500000	91.216	135.5984
46.200001	91.201	134.4459
46.799999	91.189	133.4780
47.500000	91.183	132.3599
48.200001	91.181	131.2516
48.700001	91.178	130.4803
49.400002	91.169	129.4471
50.000000	91.157	128.5940
50.799999	91.139	127.4531
51.500000	91.121	126.4174
52.200001	91.100	125.3487
53.000000	91.070	124.1175
53.799999	91.037	122.9116
54.500000	91.010	121.8934
55.200001	90.989	120.9065
56.000000	90.972	119.7944
57.000000	90.954	118.3941
58.000000	90.930	116.9896
59.000000	90.902	115.6079
60.000000	90.872	114.2485
60.799999	90.845	113.1890
61.500000	90.822	112.2963
62.200001	90.802	111.4235
63.000000	90.784	110.4193
64.000000	90.755	109.1506
65.000000	90.717	107.8887
66.000000	90.674	106.6053
67.000000	90.626	105.3186
68.000000	90.579	104.0714
69.000000	90.528	102.8328
70.000000	90.468	101.6171
71.000000	90.412	100.4904
72.000000	90.380	99.4356
73.000000	90.368	98.3879
74.000000	90.356	97.3157
75.000000	90.336	96.1959
76.199997	90.305	94.7613
77.500000	90.258	93.1409
78.800003	90.194	91.5622
80.000000	90.128	90.1860
81.199997	90.067	88.8481
82.500000	90.005	87.3934
83.800003	89.943	85.9265
85.000000	89.883	84.5865
86.199997	89.818	83.2856
87.500000	89.734	81.8976
88.500000	89.659	80.8157
90.000000	89.547	79.1883
91.199997	89.471	77.9160
92.500000	89.391	76.5858
93.800003	89.294	75.3001
95.000000	89.173	74.1140
96.199997	89.008	72.9279
97.500000	88.757	71.6880
98.800003	88.455	70.5467
100.000000	88.231	69.6484
101.500000	88.111	68.7462
103.000000	88.043	68.1495
104.400002	87.916	68.0037
106.000000	87.714	68.4544
107.500000	87.539	69.5445
109.000000	87.455	71.1567
110.599998	87.535	73.0394
112.000000	87.763	74.3768
113.800003	88.212	75.1517
115.000000	88.545	74.9249
117.199997	89.100	73.0343
118.000000	89.267	71.9820
120.599998	89.658	67.9028
122.000000	89.782	65.5702
124.099998	89.881	62.1360
125.000000	89.899	60.7190
126.500000	89.908	58.4552
128.000000	89.896	56.3211
131.500000	89.825	51.8090
132.000000	89.812	51.2128
134.000000	89.753	48.9337
136.000000	89.689	46.7991
138.000000	89.621	44.7821
140.000000	89.552	42.8638
143.000000	89.452	40.1130
145.000000	89.389	38.3371
147.500000	89.316	36.1718
150.000000	89.245	34.0648
152.500000	89.174	32.0235
155.000000	89.104	30.0369
157.500000	89.036	28.0920
160.000000	88.970	26.1805
162.500000	88.907	24.3003
165.000000	88.844	22.4509
167.500000	88.784	20.6321
170.000000	88.726	18.8440
172.500000	88.669	17.0823
175.000000	88.613	15.3426
177.500000	88.559	13.6234
180.000000	88.505	11.9231
182.500000	88.452	10.2364
185.000000	88.399	8.5585
187.500000	88.348	6.8906
190.000000	88.298	5.2383
192.500000	88.250	3.6028
195.000000	88.203	1.9781
197.500000	88.156	0.3616
200.000000	88.109	-1.2391
203.000000	88.056	-3.1246
206.000000	88.006	-4.9764
209.000000	87.958	-6.8121
212.000000	87.912	-8.6434
214.000000	87.882	-9.8604
218.000000	87.823	-12.2775
220.000000	87.794	-13.4789
224.000000	87.737	-15.8723
227.000000	87.694	-17.6580
230.000000	87.650	-19.4366
233.000000	87.605	-21.2100
236.000000	87.559	-22.9771
240.000000	87.500	-25.3182
243.000000	87.461	-27.0642
247.000000	87.414	-29.3821
250.000000	87.380	-31.1113
254.000000	87.335	-33.4008
258.000000	87.288	-35.6736
262.000000	87.241	-37.9317
265.000000	87.206	-39.6155
269.000000	87.161	-41.8488
272.000000	87.130	-43.5164
276.000000	87.089	-45.7318
280.000000	87.048	-47.9428
285.000000	87.000	-50.6971
290.000000	86.953	-53.4305
295.000000	86.906	-56.1475
300.000000	86.860	-58.8550
304.000000	86.826	-61.0183
307.000000	86.801	-62.6376
311.000000	86.768	-64.7878
315.000000	86.735	-66.9247
320.000000	86.696	-69.5714
325.000000	86.658	-72.1809
330.000000	86.624	-74.7540
335.000000	86.591	-77.3011
340.000000	86.558	-79.8265
345.000000	86.526	-82.3312
350.000000	86.494	-84.8197
355.000000	86.463	-87.2944
360.000000	86.432	-89.7570
365.000000	86.403	-92.2101
370.000000	86.376	-94.6552
375.000000	86.349	-97.0907
382.000000	86.312	-100.4845
387.000000	86.285	-102.8959
395.000000	86.244	-106.7224
400.000000	86.219	-109.0938
406.000000	86.192	-111.9175
412.000000	86.166	-114.7123
418.000000	86.142	-117.4780
425.000000	86.115	-120.6701
431.000000	86.092	-123.3798
437.000000	86.071	-126.0703
444.000000	86.048	-129.1875
450.000000	86.028	-131.8456
455.000000	86.012	-134.0569
462.000000	85.989	-137.1475
468.000000	85.969	-139.7822
475.000000	85.947	-142.8302
482.000000	85.928	-145.8536
487.000000	85.916	-147.9993
494.000000	85.899	-150.9794
500.000000	85.885	-153.5090
508.000000	85.865	-156.8496
515.000000	85.848	-159.7429
522.000000	85.834	-162.6032
530.000000	85.821	-165.8292
538.000000	85.810	-169.0226
545.000000	85.801	-171.8040
552.000000	85.790	-174.5800
560.000000	85.777	-177.7499
570.000000	85.761	178.2916
580.000000	85.749	174.3444
590.000000	85.738	170.4173
600.000000	85.729	166.5150
608.000000	85.723	163.4121
615.000000	85.720	160.7106
622.000000	85.717	158.0226
630.000000	85.715	154.9687
640.000000	85.711	151.1795
650.000000	85.707	147.4255
660.000000	85.706	143.7196
670.000000	85.708	140.0742
680.000000	85.713	136.4918
690.000000	85.722	132.9662
700.000000	85.732	129.4841
710.000000	85.744	126.0272
720.000000	85.757	122.5839
730.000000	85.772	119.1509
740.000000	85.789	115.7257
750.000000	85.808	112.3069
762.000000	85.835	108.2159
775.000000	85.869	103.8000
788.000000	85.909	99.3839
800.000000	85.945	95.2736
812.000000	85.966	91.1254
825.000000	85.960	86.7184
838.000000	85.940	82.6195
850.000000	85.952	79.0787
862.000000	86.000	75.5588
875.000000	86.067	71.6648
885.000000	86.119	68.6378
900.000000	86.199	64.0980
912.000000	86.267	60.4703
925.000000	86.348	56.5297
938.000000	86.435	52.5742
950.000000	86.520	48.9194
962.000000	86.609	45.2710
975.000000	86.708	41.3251
988.000000	86.808	37.3743
1000.000000	86.902	33.7112
1015.000000	87.020	29.1044
1030.000000	87.138	24.4756
1044.000000	87.251	20.1490
1060.000000	87.384	15.2103
1075.000000	87.511	10.5842
1090.000000	87.638	5.9364
1106.000000	87.769	0.9286
1120.000000	87.880	-3.4929
1138.000000	88.019	-9.2031
1150.000000	88.112	-13.0048
1172.000000	88.281	-19.9218
1180.000000	88.341	-22.4175
1206.000000	88.531	-30.4746
1220.000000	88.629	-34.7793
1241.000000	88.769	-41.1656
1250.000000	88.827	-43.8696
1265.000000	88.925	-48.3293
1280.000000	89.021	-52.7341
1315.000000	89.229	-62.8547
1320.000000	89.258	-64.2859
1340.000000	89.371	-69.9749
1360.000000	89.481	-75.6130
1380.000000	89.586	-81.2150
1400.000000	89.688	-86.7908
1430.000000	89.836	-95.0870
1450.000000	89.931	-100.5421
1475.000000	90.050	-107.2461
1500.000000	90.167	-113.8190
1525.000000	90.281	-120.2599
1550.000000	90.397	-126.5635
1575.000000	90.515	-132.7546
1600.000000	90.632	-138.8938
1625.000000	90.746	-145.0120
1650.000000	90.861	-151.0806
1675.000000	90.979	-157.0740
1700.000000	91.097	-163.0188
1725.000000	91.211	-168.9578
1750.000000	91.321	-174.8929
1775.000000	91.431	179.2179
1800.000000	91.544	173.4036
1825.000000	91.658	167.6433
1850.000000	91.771	161.8885
1875.000000	91.880	156.0981
1900.000000	91.987	150.2555
1925.000000	92.093	144.3630
1950.000000	92.196	138.4308
1975.000000	92.296	132.4823
2000.000000	92.394	126.5527
2030.000000	92.508	119.5120
2060.000000	92.618	112.5894
2090.000000	92.721	105.8107
2120.000000	92.818	99.2026
2140.000000	92.881	94.8990
2180.000000	92.998	86.5013
2200.000000	93.051	82.3849
2240.000000	93.151	74.3346
2270.000000	93.231	68.5254
2300.000000	93.329	62.9464
2330.000000	93.453	57.5433
2360.000000	93.608	52.1882
2400.000000	93.859	44.8652
2430.000000	94.062	39.0913
2470.000000	94.319	30.9778
2500.000000	94.482	24.6707
2540.000000	94.651	16.1694
2580.000000	94.768	7.7676
2620.000000	94.845	-0.4067
2650.000000	94.886	-6.3721
2690.000000	94.924	-14.1277
2720.000000	94.946	-19.8066
2760.000000	94.974	-27.2048
2800.000000	95.000	-34.4473
2850.000000	95.018	-43.3942
2900.000000	95.012	-52.2943
2950.000000	94.979	-61.0737
3000.000000	94.924	-69.5857
3040.000000	94.867	-76.1194
3070.000000	94.820	-80.8297
3110.000000	94.751	-86.8488
3150.000000	94.678	-92.6003
3200.000000	94.577	-99.4785
3250.000000	94.471	-106.0366
3300.000000	94.361	-112.3010
3350.000000	94.249	-118.3467
3400.000000	94.133	-124.2385
3450.000000	94.015	-129.9863
3500.000000	93.897	-135.5535
3550.000000	93.780	-140.9188
3600.000000	93.663	-146.1016
3650.000000	93.545	-151.0872
3700.000000	93.429	-155.8059
3750.000000	93.318	-160.2290
3820.000000	93.167	-166.0001
3870.000000	93.065	-169.8384
3950.000000	92.921	-175.5260
4000.000000	92.838	-178.9291
4060.000000	92.744	177.0203
4120.000000	92.655	173.0063
4180.000000	92.572	169.0688
4250.000000	92.480	164.6096
4310.000000	92.405	160.9271
4370.000000	92.333	157.3861
4440.000000	92.251	153.4458
4500.000000	92.182	150.2891
4550.000000	92.127	147.8665
4620.000000	92.055	144.7448
4680.000000	91.992	142.1448
4750.000000	91.911	139.0630
4820.000000	91.828	136.0159
4870.000000	91.767	133.9346
4940.000000	91.681	131.2069
5000.000000	91.604	129.0830
5080.000000	91.499	126.6510
5150.000000	91.407	124.9421
5220.000000	91.315	123.5615
5300.000000	91.209	122.2549
5380.000000	91.106	121.1388
5450.000000	91.020	120.2700
5520.000000	90.933	119.5079
5600.000000	90.831	118.8287
5700.000000	90.703	118.3663
5800.000000	90.576	118.4104
5900.000000	90.457	119.0242
6000.000000	90.345	120.1082
6080.000000	90.261	121.2400
6150.000000	90.197	122.4307
6220.000000	90.142	123.7970
6300.000000	90.091	125.5135
6400.000000	90.046	127.7965
6500.000000	90.026	130.1948
6600.000000	90.034	132.6622
6700.000000	90.070	135.0825
6800.000000	90.136	137.4517
6900.000000	90.237	139.8381
7000.000000	90.374	142.2339
7100.000000	90.549	144.6621
7200.000000	90.766	147.2290
7300.000000	91.024	149.9707
7400.000000	91.316	152.8069
7500.000000	91.635	155.6235
7620.000000	92.038	158.7883
7750.000000	92.471	161.7540
7880.000000	92.853	164.1763
8000.000000	93.108	166.0332
8120.000000	93.223	167.7954
8250.000000	93.146	169.9653
8380.000000	92.835	172.6792
8500.000000	92.344	176.0087
8620.000000	91.692	-179.4614
8750.000000	90.849	-173.0515
8850.000000	90.137	-167.1449
9000.000000	89.015	-156.8615
9120.000000	88.105	-147.4796
9250.000000	87.129	-136.1777
9380.000000	86.179	-123.6461
9500.000000	85.335	-111.0129
9620.000000	84.528	-97.5723
9750.000000	83.698	-82.4423
9880.000000	82.915	-66.8989
10000.000000	82.238	-52.0244
10150.000000	81.458	-32.2207
10300.000000	80.758	-10.8010
10440.000000	80.176	10.4675
10600.000000	79.600	35.9493
10750.000000	79.167	60.8534
10900.000000	78.872	86.7676
11060.000000	78.769	115.3654
11200.000000	78.905	140.7297
11380.000000	79.402	172.8289
11500.000000	79.886	-166.5681
11720.000000	80.873	-130.9397
11800.000000	81.213	-118.6021
12060.000000	82.159	-79.4918
12200.000000	82.588	-58.2620
12410.000000	83.201	-25.5425
12500.000000	83.472	-11.2277
12650.000000	83.955	12.9199
12800.000000	84.503	37.4426
13150.000000	86.126	96.1693
13200.000000	86.398	104.6207
13400.000000	87.562	138.1315
13600.000000	88.786	170.7458
13800.000000	89.951	-158.7246
14000.000000	90.922	-133.5436
14300.000000	91.798	-122.8246
14500.000000	91.874	-153.4221
14750.000000	91.307	108.7426
15000.000000	90.266	-39.9688
15250.000000	89.139	148.2378
15500.000000	88.140	-32.0551
15750.000000	87.309	143.2927
16000.000000	86.564	-45.2437
16250.000000	85.744	122.1680
16500.000000	84.664	-73.5078
16750.000000	83.190	90.9023
17000.000000	81.472	-101.3726
17250.000000	80.183	66.9031
17500.000000	79.620	-131.2454
17750.000000	79.139	23.5149
18000.000000	78.370	175.1843
18250.000000	77.381	-33.6296
18500.000000	76.335	117.6143
18750.000000	75.352	-91.0686
19000.000000	74.504	61.4517
19250.000000	73.827	-140.8262
19500.000000	73.330	31.9189
19750.000000	73.001	-120.7075
