* Measurement data measured by REW V5.20 Beta 39
* Source: Microphone (Realtek USB2.0 Audio), MICROPHONE (Master Volume), R, volume: 0.500
* Format: 2M Log Swept Sine, 1 sweep at -3.0 dBFS With no timing reference
* Dated: Mar 7, 2020 2:30:22 PM
* REW Settings:
*  C-weighting compensation: Off
*  Target level: 75.0 dB
* Note: 
* Measurement: AF1120 MK2 R
* Smoothing: 1/24 octave
* Frequency Step: 1/48 octave
* Start Frequency: 20.000 Hz
*
* Freq(Hz)	SPL(dB)	Phase(degrees)
20.000000	71.9	-99.5932
20.299999	72.0	-100.1824
20.600000	72.1	-101.1708
20.900000	72.2	-102.0879
21.200001	72.3	-102.9389
21.400000	72.3	-103.5108
21.799999	72.4	-104.6776
22.000000	72.4	-105.2728
22.400000	72.5	-106.4828
22.700001	72.5	-107.3994
23.000000	72.5	-108.3146
23.299999	72.5	-109.2233
23.600000	72.5	-110.1245
24.000000	72.5	-111.3168
24.299999	72.6	-112.2053
24.700001	72.6	-113.3805
25.000000	72.6	-114.2534
25.400000	72.7	-115.4070
25.799999	72.7	-116.5515
26.200001	72.7	-117.6785
26.500000	72.7	-118.4953
26.900000	72.8	-119.5132
27.200001	72.8	-120.2065
27.600000	72.8	-121.0448
28.000000	72.9	-121.8330
28.500000	72.9	-122.8615
29.000000	73.0	-124.0120
29.500000	73.0	-125.2267
30.000000	73.0	-126.3700
30.400000	73.0	-127.1868
30.700001	73.0	-127.7551
31.100000	73.0	-128.4939
31.500000	73.0	-129.2524
32.000000	73.1	-130.2466
32.500000	73.1	-131.2624
33.000000	73.1	-132.2588
33.500000	73.1	-133.2178
34.000000	73.1	-134.1344
34.500000	73.2	-135.0090
35.000000	73.2	-135.8568
35.500000	73.2	-136.7022
36.000000	73.2	-137.5482
36.500000	73.3	-138.3637
37.000000	73.3	-139.1143
37.500000	73.3	-139.8033
38.200001	73.3	-140.7429
38.700001	73.3	-141.4357
39.500000	73.4	-142.5577
40.000000	73.4	-143.2407
40.599998	73.4	-144.0349
41.200001	73.4	-144.8013
41.799999	73.4	-145.5432
42.500000	73.4	-146.3995
43.099998	73.4	-147.1371
43.700001	73.4	-147.8678
44.400002	73.4	-148.7054
45.000000	73.4	-149.4214
45.500000	73.4	-150.0119
46.200001	73.4	-150.7986
46.799999	73.4	-151.4224
47.500000	73.5	-152.1197
48.200001	73.5	-152.8286
48.700001	73.5	-153.3527
49.400002	73.5	-154.0984
50.000000	73.5	-154.7240
50.799999	73.5	-155.5139
51.500000	73.5	-156.1786
52.200001	73.5	-156.8377
53.000000	73.4	-157.5673
53.799999	73.4	-158.2569
54.500000	73.4	-158.8477
55.200001	73.4	-159.4344
56.000000	73.4	-160.0802
57.000000	73.4	-160.8519
58.000000	73.4	-161.6239
59.000000	73.4	-162.3979
60.000000	73.4	-163.1650
60.799999	73.4	-163.7676
61.500000	73.4	-164.2842
62.200001	73.4	-164.7923
63.000000	73.4	-165.3619
64.000000	73.4	-166.0521
65.000000	73.4	-166.7169
66.000000	73.4	-167.3577
67.000000	73.4	-167.9788
68.000000	73.4	-168.5983
69.000000	73.4	-169.2220
70.000000	73.4	-169.8316
71.000000	73.4	-170.4137
72.000000	73.3	-170.9695
73.000000	73.3	-171.5081
74.000000	73.3	-172.0344
75.000000	73.3	-172.5606
76.199997	73.3	-173.1989
77.500000	73.3	-173.8691
78.800003	73.3	-174.5127
80.000000	73.3	-175.1113
81.199997	73.3	-175.7045
82.500000	73.3	-176.3680
83.800003	73.3	-177.0181
85.000000	73.2	-177.5063
86.199997	73.2	-177.9696
87.500000	73.2	-178.5341
88.500000	73.2	-179.0187
90.000000	73.2	-179.7465
91.199997	73.2	179.7021
92.500000	73.2	179.1338
93.800003	73.1	178.5869
95.000000	73.1	178.1041
96.199997	73.1	177.6398
97.500000	73.1	177.1429
98.800003	73.1	176.6386
100.000000	73.1	176.1638
101.500000	73.1	175.5807
103.000000	73.1	175.0269
104.400002	73.1	174.5244
106.000000	73.0	173.9589
107.500000	73.0	173.4283
109.000000	73.0	172.9007
110.599998	73.0	172.3632
112.000000	73.0	171.9020
113.800003	73.0	171.3145
115.000000	72.9	170.9316
117.199997	72.9	170.2640
118.000000	72.9	170.0271
120.599998	72.9	169.2618
122.000000	72.9	168.8561
124.099998	72.9	168.2518
125.000000	72.9	167.9964
126.500000	72.9	167.5824
128.000000	72.9	167.1802
131.500000	72.8	166.2538
132.000000	72.8	166.1277
134.000000	72.8	165.6432
136.000000	72.8	165.1547
138.000000	72.8	164.6490
140.000000	72.8	164.1466
143.000000	72.7	163.4355
145.000000	72.7	163.0002
147.500000	72.7	162.4732
150.000000	72.7	161.9464
152.500000	72.6	161.4185
155.000000	72.6	160.8934
157.500000	72.6	160.3676
160.000000	72.6	159.8600
162.500000	72.5	159.3847
165.000000	72.5	158.9202
167.500000	72.5	158.4896
170.000000	72.5	158.0895
172.500000	72.4	157.6742
175.000000	72.4	157.2293
177.500000	72.4	156.7951
180.000000	72.4	156.3905
182.500000	72.4	155.9690
185.000000	72.3	155.5136
187.500000	72.3	155.0583
190.000000	72.3	154.6199
192.500000	72.2	154.2194
195.000000	72.2	153.8312
197.500000	72.1	153.4262
200.000000	72.1	153.0178
203.000000	72.1	152.5582
206.000000	72.0	152.1431
209.000000	72.0	151.7836
212.000000	71.9	151.4436
214.000000	71.9	151.2197
218.000000	71.8	150.8680
220.000000	71.8	150.7643
224.000000	71.7	150.7218
227.000000	71.7	150.9252
230.000000	71.8	151.3105
233.000000	71.8	151.4723
236.000000	71.9	151.2842
240.000000	72.0	150.7222
243.000000	72.1	150.0717
247.000000	72.2	148.9670
250.000000	72.2	148.1162
254.000000	72.2	147.1227
258.000000	72.2	146.2757
262.000000	72.2	145.5233
265.000000	72.1	145.0173
269.000000	72.1	144.2375
272.000000	72.0	143.6684
276.000000	72.0	143.2049
280.000000	72.0	142.8603
285.000000	71.9	142.2732
290.000000	71.9	141.5346
295.000000	71.9	140.9077
300.000000	71.8	140.3242
304.000000	71.8	139.8379
307.000000	71.8	139.4912
311.000000	71.7	139.0927
315.000000	71.7	138.6483
320.000000	71.6	138.0220
325.000000	71.6	137.4800
330.000000	71.5	137.0453
335.000000	71.5	136.6056
340.000000	71.5	136.1565
345.000000	71.4	135.7281
350.000000	71.4	135.3167
355.000000	71.3	134.9214
360.000000	71.3	134.5625
365.000000	71.3	134.2431
370.000000	71.2	133.9261
375.000000	71.2	133.5963
382.000000	71.1	133.1355
387.000000	71.1	132.8361
395.000000	71.0	132.4267
400.000000	71.0	132.1940
406.000000	70.9	131.9258
412.000000	70.9	131.6619
418.000000	70.8	131.4151
425.000000	70.8	131.1266
431.000000	70.7	130.8069
437.000000	70.7	130.3983
444.000000	70.7	129.8779
450.000000	70.6	129.3965
455.000000	70.6	128.9719
462.000000	70.6	128.4044
468.000000	70.5	127.9624
475.000000	70.5	127.4639
482.000000	70.4	126.9716
487.000000	70.4	126.6240
494.000000	70.3	126.1462
500.000000	70.3	125.7466
508.000000	70.2	125.2342
515.000000	70.2	124.8350
522.000000	70.1	124.4767
530.000000	70.1	124.0593
538.000000	70.0	123.6499
545.000000	70.0	123.3163
552.000000	69.9	122.9943
560.000000	69.9	122.6263
570.000000	69.8	122.1654
580.000000	69.8	121.7059
590.000000	69.7	121.2567
600.000000	69.7	120.8180
608.000000	69.6	120.4747
615.000000	69.6	120.1821
622.000000	69.6	119.9003
630.000000	69.5	119.5963
640.000000	69.5	119.2429
650.000000	69.4	118.9119
660.000000	69.3	118.6093
670.000000	69.3	118.3318
680.000000	69.3	118.0714
690.000000	69.2	117.8302
700.000000	69.2	117.6182
710.000000	69.1	117.4312
720.000000	69.1	117.2608
730.000000	69.0	117.1104
740.000000	68.9	116.9867
750.000000	68.9	116.8852
762.000000	68.8	116.7802
775.000000	68.8	116.6735
788.000000	68.7	116.5637
800.000000	68.7	116.4868
812.000000	68.6	116.4538
825.000000	68.6	116.4458
838.000000	68.6	116.4509
850.000000	68.5	116.4611
862.000000	68.5	116.4830
875.000000	68.5	116.5272
885.000000	68.4	116.5765
900.000000	68.4	116.6877
912.000000	68.4	116.8179
925.000000	68.4	117.0001
938.000000	68.4	117.2152
950.000000	68.4	117.4324
962.000000	68.4	117.6584
975.000000	68.4	117.9072
988.000000	68.4	118.1616
1000.000000	68.4	118.4152
1015.000000	68.5	118.7763
1030.000000	68.5	119.1724
1044.000000	68.5	119.4803
1060.000000	68.6	119.6044
1075.000000	68.7	119.5601
1090.000000	68.7	119.4904
1106.000000	68.8	119.4359
1120.000000	68.9	119.4067
1138.000000	68.9	119.3850
1150.000000	69.0	119.3760
1172.000000	69.1	119.3735
1180.000000	69.1	119.3801
1206.000000	69.3	119.4210
1220.000000	69.3	119.4587
1241.000000	69.4	119.5399
1250.000000	69.5	119.5863
1265.000000	69.5	119.6919
1280.000000	69.5	119.8346
1315.000000	69.6	120.2482
1320.000000	69.6	120.3122
1340.000000	69.7	120.5839
1360.000000	69.7	120.9015
1380.000000	69.7	121.2676
1400.000000	69.7	121.6701
1430.000000	69.7	122.2814
1450.000000	69.7	122.6642
1475.000000	69.7	123.1715
1500.000000	69.7	123.7563
1525.000000	69.7	124.3690
1550.000000	69.6	124.9878
1575.000000	69.6	125.6203
1600.000000	69.6	126.2524
1625.000000	69.5	126.8809
1650.000000	69.5	127.5280
1675.000000	69.5	128.2170
1700.000000	69.5	128.9436
1725.000000	69.5	129.6721
1750.000000	69.4	130.3737
1775.000000	69.4	131.0485
1800.000000	69.4	131.7154
1825.000000	69.4	132.3834
1850.000000	69.4	133.0591
1875.000000	69.4	133.7338
1900.000000	69.4	134.3743
1925.000000	69.4	134.9955
1950.000000	69.4	135.6386
1975.000000	69.4	136.3167
2000.000000	69.4	137.0077
2030.000000	69.4	137.8519
2060.000000	69.3	138.7493
2090.000000	69.3	139.7144
2120.000000	69.3	140.7420
2140.000000	69.2	141.4572
2180.000000	69.2	142.9815
2200.000000	69.1	143.8073
2240.000000	69.0	145.5673
2270.000000	69.0	146.9638
2300.000000	68.9	148.4204
2330.000000	68.9	149.9392
2360.000000	68.8	151.5515
2400.000000	68.7	153.8452
2430.000000	68.6	155.6305
2470.000000	68.5	158.0690
2500.000000	68.5	159.9445
2540.000000	68.4	162.5302
2580.000000	68.3	165.2480
2620.000000	68.3	168.0920
2650.000000	68.2	170.2518
2690.000000	68.1	173.1453
2720.000000	68.1	175.3468
2760.000000	68.1	178.3546
2800.000000	68.0	-178.5358
2850.000000	68.0	-174.5500
2900.000000	68.0	-170.5150
2950.000000	68.0	-166.4975
3000.000000	68.1	-162.4926
3040.000000	68.2	-159.2429
3070.000000	68.2	-156.8054
3110.000000	68.3	-153.6194
3150.000000	68.4	-150.5148
3200.000000	68.5	-146.6754
3250.000000	68.6	-142.8583
3300.000000	68.7	-139.0788
3350.000000	68.8	-135.3570
3400.000000	69.0	-131.7645
3450.000000	69.1	-128.3213
3500.000000	69.3	-125.0001
3550.000000	69.4	-121.8027
3600.000000	69.6	-118.7661
3650.000000	69.7	-115.8917
3700.000000	69.8	-113.1910
3750.000000	69.9	-110.6821
3820.000000	70.0	-107.4877
3870.000000	70.0	-105.2547
3950.000000	70.0	-101.6642
4000.000000	69.9	-99.5374
4060.000000	69.7	-97.0810
4120.000000	69.5	-94.6261
4180.000000	69.1	-92.1067
4250.000000	68.7	-88.8846
4310.000000	68.2	-85.7068
4370.000000	67.6	-82.0662
4440.000000	66.8	-77.2015
4500.000000	66.0	-72.4695
4550.000000	65.3	-68.3260
4620.000000	64.2	-62.5544
4680.000000	63.3	-57.2120
4750.000000	62.2	-49.8908
4820.000000	61.3	-41.2147
4870.000000	60.7	-34.2465
4940.000000	60.0	-23.6613
5000.000000	59.6	-14.1300
5080.000000	59.3	-1.2598
5150.000000	59.2	9.7250
5220.000000	59.2	20.2610
5300.000000	59.3	31.8074
5380.000000	59.5	42.9507
5450.000000	59.7	52.3732
5520.000000	60.0	61.5000
5600.000000	60.3	71.4441
5700.000000	60.8	82.8874
5800.000000	61.3	93.4362
5900.000000	61.7	103.2619
6000.000000	62.0	112.5117
6080.000000	62.1	119.6700
6150.000000	62.2	125.8797
6220.000000	62.3	132.1217
6300.000000	62.3	139.3367
6400.000000	62.3	148.6274
6500.000000	62.3	158.5280
6600.000000	62.3	169.2818
6700.000000	62.3	-178.8827
6800.000000	62.3	-165.7717
6900.000000	62.2	-151.2280
7000.000000	62.1	-135.0439
7100.000000	61.8	-116.7606
7200.000000	61.5	-95.9045
7300.000000	61.1	-72.2724
7400.000000	60.7	-46.5130
7500.000000	60.5	-20.2617
7620.000000	60.8	9.2705
7750.000000	61.7	36.6330
7880.000000	63.3	58.7125
8000.000000	65.0	74.7422
8120.000000	66.8	86.6116
8250.000000	68.6	94.6927
8380.000000	69.7	98.5793
8500.000000	70.1	100.3021
8620.000000	69.8	102.7137
8750.000000	69.0	108.1356
8850.000000	68.2	114.5938
9000.000000	67.1	127.1186
9120.000000	66.3	138.6555
9250.000000	65.7	151.7590
9380.000000	65.3	164.8104
9500.000000	65.0	176.4151
9620.000000	65.0	-172.7371
9750.000000	65.0	-161.9077
9880.000000	65.1	-152.1668
10000.000000	65.0	-144.4195
10150.000000	64.6	-136.2049
10300.000000	63.6	-128.4542
10440.000000	62.3	-119.9147
10600.000000	60.3	-107.0180
10750.000000	58.4	-91.6380
10900.000000	56.6	-73.6838
11060.000000	55.1	-52.5096
11200.000000	54.1	-32.7941
11380.000000	52.9	-6.4208
11500.000000	52.3	11.7211
11720.000000	51.1	46.0778
11800.000000	50.7	58.7471
12060.000000	49.3	99.9299
12200.000000	48.5	122.2417
12410.000000	47.4	156.6265
12500.000000	47.1	171.6934
12650.000000	46.7	-163.0551
12800.000000	46.7	-137.8625
13150.000000	47.7	-80.2600
13200.000000	47.9	-72.2621
13400.000000	48.7	-41.0469
13600.000000	49.2	-10.9102
13800.000000	49.4	18.5767
14000.000000	49.3	47.8127
14300.000000	49.3	90.2834
14500.000000	49.5	115.5151
14750.000000	49.5	144.3621
15000.000000	48.7	178.5928
15250.000000	48.2	-140.8199
15500.000000	48.0	-100.9062
15750.000000	47.5	-63.7194
16000.000000	46.0	-27.8337
16250.000000	43.5	8.5691
16500.000000	40.3	46.2788
16750.000000	37.0	85.8704
17000.000000	33.6	128.7329
17250.000000	30.0	178.2761
17500.000000	27.5	-127.1538
17750.000000	27.6	-83.7460
18000.000000	28.0	-46.4995
18250.000000	30.8	4.7035
18500.000000	37.3	68.7380
18750.000000	41.8	117.7043
19000.000000	42.4	140.7378
19250.000000	39.4	165.7715
19500.000000	35.1	-157.8499
19750.000000	32.5	-120.4170
