* Measurement data measured by REW V5.20.4
* Source: Microphone (Realtek USB2.0 Audio), MICROPHONE (Master Volume), R, volume: 0.250. Timing signal peak level -38.8 dBFS, measurement signal peak level -31.3 dBFS
* Format: 4M Log Swept Sine, 1 sweep at -15.0 dBFS using an acoustic timing reference
* Dated: Jan 22, 2022 10:43:48 AM
* REW Settings:
*  C-weighting compensation: Off
*  Target level: 75.0 dB
* Note: Delay -0.3828 ms (-131 mm, -5.17 in) using estimated IR delay relative to Acoustic reference on  R with no timing offset
* Measurement: Autumn R Bass
* Smoothing: 1/24 octave
* Frequency Step: 1/48 octave
* Start Frequency: 20.000 Hz
*
* Freq(Hz)	SPL(dB)	Phase(degrees)
20.000000	85.218	-84.4339
20.299999	85.219	-86.4328
20.600000	85.151	-87.9528
20.900000	85.049	-88.8766
21.200001	84.967	-89.2662
21.400000	84.951	-89.3910
21.799999	85.015	-89.7098
22.000000	85.083	-90.0879
22.400000	85.230	-91.5123
22.700001	85.298	-93.0812
23.000000	85.295	-94.8292
23.299999	85.222	-96.4553
23.600000	85.099	-97.7393
24.000000	84.917	-98.7439
24.299999	84.818	-99.0562
24.700001	84.783	-99.2578
25.000000	84.823	-99.5694
25.400000	84.921	-100.4756
25.799999	85.006	-101.9214
26.200001	85.039	-103.6029
26.500000	85.033	-104.8037
26.900000	85.005	-106.1720
27.200001	84.988	-107.0304
27.600000	84.984	-108.0644
28.000000	84.992	-109.1122
28.500000	84.998	-110.4790
29.000000	84.989	-111.7578
29.500000	84.986	-112.8672
30.000000	85.003	-113.9229
30.400000	85.019	-114.8009
30.700001	85.026	-115.4579
31.100000	85.027	-116.2604
31.500000	85.033	-116.9529
32.000000	85.062	-117.7729
32.500000	85.104	-118.7353
33.000000	85.123	-119.8406
33.500000	85.109	-120.8652
34.000000	85.093	-121.6709
34.500000	85.104	-122.4234
35.000000	85.130	-123.3562
35.500000	85.129	-124.4558
36.000000	85.089	-125.4647
36.500000	85.039	-126.2000
37.000000	85.015	-126.7330
37.500000	85.028	-127.2699
38.200001	85.075	-128.2837
38.700001	85.101	-129.2023
39.500000	85.100	-130.7315
40.000000	85.090	-131.5415
40.599998	85.109	-132.4418
41.200001	85.157	-133.6658
41.799999	85.154	-135.3074
42.500000	85.024	-136.9801
43.099998	84.887	-137.5395
43.700001	84.843	-137.5771
44.400002	84.905	-137.8190
45.000000	84.971	-138.4190
45.500000	85.004	-139.0261
46.200001	85.020	-139.8858
46.799999	85.007	-140.5947
47.500000	84.962	-141.2720
48.200001	84.915	-141.7635
48.700001	84.890	-142.0963
49.400002	84.864	-142.6544
50.000000	84.845	-143.2615
50.799999	84.811	-144.3404
51.500000	84.740	-145.4397
52.200001	84.632	-146.3045
53.000000	84.545	-146.7920
53.799999	84.553	-147.2552
54.500000	84.582	-147.9881
55.200001	84.576	-148.7652
56.000000	84.560	-149.3740
57.000000	84.573	-150.0910
58.000000	84.545	-150.9485
59.000000	84.482	-151.4298
60.000000	84.470	-151.7466
60.799999	84.478	-152.2777
61.500000	84.460	-152.8566
62.200001	84.431	-153.3387
63.000000	84.415	-153.8681
64.000000	84.381	-154.6426
65.000000	84.344	-155.1189
66.000000	84.362	-155.7405
67.000000	84.331	-156.6471
68.000000	84.282	-157.2292
69.000000	84.267	-157.9199
70.000000	84.221	-158.7484
71.000000	84.160	-159.3240
72.000000	84.135	-159.6797
73.000000	84.142	-160.2378
74.000000	84.086	-160.8914
75.000000	84.015	-160.9417
76.199997	84.032	-161.1698
77.500000	83.977	-162.0749
78.800003	83.887	-162.8215
80.000000	83.804	-163.4853
81.199997	83.764	-163.8380
82.500000	83.818	-164.3093
83.800003	83.866	-165.1660
85.000000	83.844	-165.7419
86.199997	83.805	-166.0794
87.500000	83.716	-166.4242
88.500000	83.627	-166.5034
90.000000	83.552	-166.7341
91.199997	83.496	-167.2293
92.500000	83.458	-167.6097
93.800003	83.462	-168.1221
95.000000	83.434	-168.5883
96.199997	83.391	-168.7596
97.500000	83.355	-168.8696
98.800003	83.311	-169.1201
100.000000	83.257	-169.5007
101.500000	83.177	-170.0173
103.000000	83.126	-170.4598
104.400002	83.124	-170.8417
106.000000	83.148	-171.5220
107.500000	83.120	-172.1292
109.000000	83.078	-172.3838
110.599998	83.062	-172.4662
112.000000	83.070	-172.7476
113.800003	82.998	-173.4368
115.000000	82.909	-173.6397
117.199997	82.796	-174.0364
118.000000	82.754	-174.2784
120.599998	82.643	-174.6701
122.000000	82.637	-174.7407
124.099998	82.618	-174.9589
125.000000	82.593	-175.0797
126.500000	82.529	-175.3229
128.000000	82.464	-175.5311
131.500000	82.420	-176.5637
132.000000	82.407	-176.7260
134.000000	82.331	-177.1101
136.000000	82.246	-177.3390
138.000000	82.156	-177.5664
140.000000	82.138	-177.6124
143.000000	82.188	-178.0660
145.000000	82.127	-178.2126
147.500000	82.007	-177.9184
150.000000	81.954	-177.7095
152.500000	81.927	-178.0294
155.000000	81.860	-178.4270
157.500000	81.791	-178.8023
160.000000	81.723	-179.1884
162.500000	81.660	-179.4134
165.000000	81.617	-179.3988
167.500000	81.586	-179.2780
170.000000	81.552	-179.2616
172.500000	81.490	-179.4438
175.000000	81.431	-179.5764
177.500000	81.394	-179.6895
180.000000	81.341	-179.7901
182.500000	81.276	-179.9177
185.000000	81.223	179.9191
187.500000	81.188	179.7690
190.000000	81.133	179.7732
192.500000	81.057	179.8989
195.000000	80.986	179.9172
197.500000	80.942	179.8020
200.000000	80.912	179.6921
203.000000	80.872	179.7928
206.000000	80.834	179.9905
209.000000	80.795	-179.9724
212.000000	80.721	179.9721
214.000000	80.656	179.9041
218.000000	80.550	179.8327
220.000000	80.524	179.8933
224.000000	80.470	-179.8283
227.000000	80.401	-179.6577
230.000000	80.324	-179.5092
233.000000	80.256	-179.2859
236.000000	80.195	-179.1251
240.000000	80.113	-179.0374
243.000000	80.055	-178.9245
247.000000	79.975	-178.7526
250.000000	79.927	-178.6492
254.000000	79.879	-178.4843
258.000000	79.810	-178.3060
262.000000	79.757	-177.9442
265.000000	79.720	-177.6143
269.000000	79.651	-177.2510
272.000000	79.606	-177.0330
276.000000	79.549	-176.7292
280.000000	79.485	-176.5426
285.000000	79.417	-176.2641
290.000000	79.343	-175.9844
295.000000	79.276	-175.6348
300.000000	79.215	-175.0217
304.000000	79.145	-174.5484
307.000000	79.094	-174.2820
311.000000	79.038	-173.9824
315.000000	78.987	-173.6762
320.000000	78.920	-173.2453
325.000000	78.844	-172.8073
330.000000	78.767	-172.3108
335.000000	78.698	-171.7716
340.000000	78.623	-171.2934
345.000000	78.558	-170.8121
350.000000	78.501	-170.3139
355.000000	78.431	-169.8289
360.000000	78.364	-169.2738
365.000000	78.293	-168.6431
370.000000	78.230	-168.0690
375.000000	78.172	-167.5123
382.000000	78.094	-166.7474
387.000000	78.040	-166.2185
395.000000	77.981	-165.3444
400.000000	77.947	-164.7821
406.000000	77.884	-164.1114
412.000000	77.817	-163.4192
418.000000	77.756	-162.6341
425.000000	77.683	-161.7153
431.000000	77.640	-160.9521
437.000000	77.611	-160.3299
444.000000	77.574	-159.4620
450.000000	77.544	-158.5970
455.000000	77.506	-157.9735
462.000000	77.450	-157.1476
468.000000	77.404	-156.4136
475.000000	77.351	-155.5266
482.000000	77.318	-154.6075
487.000000	77.294	-153.9666
494.000000	77.256	-153.1277
500.000000	77.227	-152.4241
508.000000	77.187	-151.3642
515.000000	77.142	-150.4153
522.000000	77.107	-149.4659
530.000000	77.086	-148.3914
538.000000	77.064	-147.3216
545.000000	77.032	-146.3351
552.000000	76.998	-145.3764
560.000000	76.967	-144.3106
570.000000	76.940	-142.9774
580.000000	76.910	-141.6524
590.000000	76.877	-140.2809
600.000000	76.846	-138.8788
608.000000	76.822	-137.7834
615.000000	76.802	-136.8656
622.000000	76.786	-135.9497
630.000000	76.769	-134.8750
640.000000	76.744	-133.5131
650.000000	76.727	-132.0334
660.000000	76.704	-130.4625
670.000000	76.668	-129.0371
680.000000	76.638	-127.8250
690.000000	76.601	-126.5004
700.000000	76.574	-125.0446
710.000000	76.552	-123.6227
720.000000	76.527	-122.2665
730.000000	76.515	-120.8980
740.000000	76.500	-119.5108
750.000000	76.484	-118.1477
762.000000	76.480	-116.5272
775.000000	76.488	-114.7171
788.000000	76.503	-112.8882
800.000000	76.523	-111.2023
812.000000	76.542	-109.4995
825.000000	76.571	-107.6609
838.000000	76.614	-105.8490
850.000000	76.657	-104.1347
862.000000	76.701	-102.4243
875.000000	76.749	-100.6151
885.000000	76.788	-99.2126
900.000000	76.853	-97.0885
912.000000	76.914	-95.3855
925.000000	76.987	-93.5462
938.000000	77.067	-91.7109
950.000000	77.148	-90.0095
962.000000	77.238	-88.3150
975.000000	77.341	-86.4754
988.000000	77.453	-84.6149
1000.000000	77.562	-82.9166
1015.000000	77.705	-80.8007
1030.000000	77.856	-78.6588
1044.000000	78.005	-76.6761
1060.000000	78.178	-74.4196
1075.000000	78.344	-72.2963
1090.000000	78.514	-70.1684
1106.000000	78.698	-67.9021
1120.000000	78.865	-65.9368
1138.000000	79.087	-63.4107
1150.000000	79.239	-61.7167
1172.000000	79.529	-58.6104
1180.000000	79.636	-57.4825
1206.000000	79.978	-53.8167
1220.000000	80.153	-51.8489
1241.000000	80.396	-48.8835
1250.000000	80.501	-47.6220
1265.000000	80.680	-45.5526
1280.000000	80.856	-43.4626
1315.000000	81.248	-38.5572
1320.000000	81.302	-37.8577
1340.000000	81.514	-35.0621
1360.000000	81.718	-32.2789
1380.000000	81.923	-29.5160
1400.000000	82.124	-26.7570
1430.000000	82.410	-22.6258
1450.000000	82.590	-19.8631
1475.000000	82.807	-16.4284
1500.000000	83.019	-13.0145
1525.000000	83.226	-9.6260
1550.000000	83.433	-6.2675
1575.000000	83.642	-2.9308
1600.000000	83.855	0.3731
1625.000000	84.074	3.6160
1650.000000	84.302	6.7943
1675.000000	84.542	9.8994
1700.000000	84.788	12.9112
1725.000000	85.039	15.8133
1750.000000	85.291	18.5908
1775.000000	85.543	21.2265
1800.000000	85.798	23.6827
1825.000000	86.047	25.9486
1850.000000	86.279	28.0133
1875.000000	86.489	29.8808
1900.000000	86.671	31.5938
1925.000000	86.825	33.2048
1950.000000	86.950	34.7615
1975.000000	87.042	36.3144
2000.000000	87.106	37.9030
2030.000000	87.157	39.8832
2060.000000	87.186	41.9812
2090.000000	87.199	44.2070
2120.000000	87.207	46.5455
2140.000000	87.213	48.1526
2180.000000	87.227	51.4429
2200.000000	87.236	53.1204
2240.000000	87.258	56.5289
2270.000000	87.273	59.1172
2300.000000	87.282	61.7276
2330.000000	87.283	64.3617
2360.000000	87.276	67.0187
2400.000000	87.252	70.6109
2430.000000	87.225	73.3415
2470.000000	87.174	77.0518
2500.000000	87.128	79.8822
2540.000000	87.058	83.7224
2580.000000	86.982	87.6420
2620.000000	86.905	91.6434
2650.000000	86.847	94.7032
2690.000000	86.768	98.8648
2720.000000	86.711	102.0424
2760.000000	86.639	106.3493
2800.000000	86.570	110.7367
2850.000000	86.487	116.3238
2900.000000	86.409	122.0259
2950.000000	86.334	127.8388
3000.000000	86.262	133.7620
3040.000000	86.208	138.5930
3070.000000	86.172	142.2635
3110.000000	86.133	147.2146
3150.000000	86.103	152.2364
3200.000000	86.081	158.6105
3250.000000	86.075	165.0448
3300.000000	86.083	171.5082
3350.000000	86.106	178.0472
3400.000000	86.141	-175.3344
3450.000000	86.192	-168.6811
3500.000000	86.259	-162.0148
3550.000000	86.341	-155.3316
3600.000000	86.442	-148.6303
3650.000000	86.563	-141.9309
3700.000000	86.700	-135.2659
3750.000000	86.855	-128.6588
3820.000000	87.098	-119.5165
3870.000000	87.291	-113.0998
3950.000000	87.619	-103.0968
4000.000000	87.831	-97.0308
4060.000000	88.087	-89.9601
4120.000000	88.329	-83.1501
4180.000000	88.548	-76.6247
4250.000000	88.758	-69.3809
4310.000000	88.886	-63.5090
4370.000000	88.951	-57.9284
4440.000000	88.940	-51.7484
4500.000000	88.854	-46.7067
4550.000000	88.717	-42.6264
4620.000000	88.429	-36.9902
4680.000000	88.104	-32.0874
4750.000000	87.646	-26.1266
4820.000000	87.116	-19.7900
4870.000000	86.705	-14.9629
4940.000000	86.104	-7.7247
5000.000000	85.576	-1.0619
5080.000000	84.872	8.4271
5150.000000	84.269	17.2457
5220.000000	83.689	26.5154
5300.000000	83.076	37.6267
5380.000000	82.536	49.2642
5450.000000	82.127	59.8267
5520.000000	81.765	70.6766
5600.000000	81.383	83.3815
5700.000000	80.892	99.8309
5800.000000	80.423	117.5005
5900.000000	80.190	135.2413
6000.000000	79.916	151.6570
6080.000000	79.579	165.0942
6150.000000	79.281	177.2072
6220.000000	79.008	-170.4946
6300.000000	78.734	-156.3009
6400.000000	78.452	-138.3727
6500.000000	78.247	-120.2255
6600.000000	78.113	-101.9114
6700.000000	78.056	-83.4788
6800.000000	78.072	-64.9608
6900.000000	78.154	-46.3901
7000.000000	78.297	-27.7651
7100.000000	78.509	-9.0544
7200.000000	78.801	9.7263
7300.000000	79.159	28.5992
7400.000000	79.565	47.5688
7500.000000	79.992	66.5858
7620.000000	80.460	89.4807
7750.000000	80.827	114.4219
7880.000000	80.991	139.4449
8000.000000	80.927	162.5009
8120.000000	80.640	-174.8015
8250.000000	80.090	-151.0596
8380.000000	79.347	-127.9746
8500.000000	78.562	-106.8934
8620.000000	77.739	-85.9265
8750.000000	76.869	-63.3619
8850.000000	76.249	-46.1233
9000.000000	75.432	-20.4814
9120.000000	74.890	-0.1533
9250.000000	74.412	21.6814
9380.000000	74.038	43.1934
9500.000000	73.780	62.5765
9620.000000	73.596	81.3838
9750.000000	73.466	100.9530
9880.000000	73.391	119.3652
10000.000000	73.337	135.0563
10150.000000	73.212	152.6937
10300.000000	72.895	168.2965
10440.000000	72.309	-178.2502
10600.000000	71.230	-162.7588
10750.000000	69.876	-146.8445
10900.000000	68.309	-128.8497
11060.000000	66.553	-107.2483
11200.000000	65.060	-86.5160
11380.000000	63.344	-57.9447
11500.000000	62.379	-38.3053
11720.000000	60.863	-1.6187
11800.000000	60.373	12.1284
12060.000000	59.118	57.8995
12200.000000	58.646	82.8075
12410.000000	58.134	120.3651
12500.000000	57.968	136.5391
12650.000000	57.748	163.5753
12800.000000	57.595	-169.3521
13150.000000	57.544	-106.0356
13200.000000	57.588	-96.9336
13400.000000	57.928	-60.3513
13600.000000	58.489	-23.7363
13800.000000	59.156	12.4153
14000.000000	59.833	47.9601
14300.000000	60.793	100.3369
14500.000000	61.403	134.3711
14750.000000	62.204	175.3103
15000.000000	63.086	-146.3425
15250.000000	63.956	-110.9609
15500.000000	64.586	-77.9268
15750.000000	64.763	-45.6829
16000.000000	64.429	-12.2739
16250.000000	63.724	23.5503
16500.000000	62.860	61.8835
16750.000000	61.843	102.2422
17000.000000	60.204	143.9136
17250.000000	57.121	-174.0657
17500.000000	52.140	-132.8052
17750.000000	45.450	-92.7673
18000.000000	37.715	-54.2502
18250.000000	29.740	-17.4663
18500.000000	22.376	17.8743
18750.000000	16.258	54.3958
19000.000000	11.230	97.8232
19250.000000	7.060	152.5847
19500.000000	5.005	-143.8813
19750.000000	5.886	-87.9102
