* Measurement data measured by REW V5.20.13
* Source: EXCL: Microphone (High Definition Audio Device), MICROPHONE (Master Volume), L, volume: 1.000. Timing signal peak level -25.8 dBFS, measurement signal peak level -25.7 dBFS
* Format: 4M Log Swept Sine, 1 sweep at 0.0 dBFS using an acoustic timing reference
* Dated: Oct 18, 2022 8:23:32 PM
* REW Settings:
*  C-weighting compensation: Off
*  Target level: 75.0 dB
* Note: Delay -0.0471 ms (-16 mm, -0.64 in) using estimated IR delay relative to Acoustic reference played from  L with no timing offset
* Measurement: Talos L (1)[Generic]
* Smoothing: None
* Frequency Step: 1/48 octave
* Start Frequency: 20.000 Hz
*
* Freq(Hz)	SPL(dB)	Phase(degrees)
20.000000	84.708	34.8390
20.299999	84.747	33.5895
20.600000	84.751	32.3732
20.900000	84.727	31.2911
21.200001	84.688	30.4073
21.400000	84.664	29.9270
21.799999	84.629	29.1640
22.000000	84.623	28.8372
22.400000	84.634	28.1895
22.700001	84.655	27.6517
23.000000	84.678	27.0468
23.299999	84.698	26.3899
23.600000	84.710	25.7068
24.000000	84.715	24.8019
24.299999	84.711	24.1577
24.700001	84.702	23.3622
25.000000	84.696	22.8088
25.400000	84.690	22.1082
25.799999	84.687	21.4243
26.200001	84.686	20.7461
26.500000	84.684	20.2449
26.900000	84.682	19.5944
27.200001	84.682	19.1193
27.600000	84.684	18.4901
28.000000	84.688	17.8440
28.500000	84.691	16.9966
29.000000	84.683	16.1364
29.500000	84.663	15.3253
30.000000	84.640	14.6066
30.400000	84.626	14.0898
30.700001	84.620	13.7180
31.100000	84.617	13.2115
31.500000	84.618	12.6685
32.000000	84.615	11.9336
32.500000	84.600	11.1873
33.000000	84.575	10.5051
33.500000	84.552	9.9065
34.000000	84.538	9.3316
34.500000	84.526	8.7153
35.000000	84.505	8.0749
35.500000	84.474	7.4929
36.000000	84.446	7.0043
36.500000	84.429	6.5406
37.000000	84.416	6.0090
37.500000	84.389	5.4224
38.200001	84.325	4.7415
38.700001	84.283	4.4490
39.500000	84.269	3.9965
40.000000	84.271	3.5054
40.599998	84.242	2.7722
41.200001	84.180	2.1768
41.799999	84.125	1.8195
42.500000	84.105	1.3984
43.099998	84.091	0.8080
43.700001	84.045	0.1798
44.400002	83.980	-0.3071
45.000000	83.952	-0.6044
45.500000	83.946	-0.9553
46.200001	83.922	-1.6101
46.799999	83.875	-2.1140
47.500000	83.819	-2.4904
48.200001	83.785	-2.7545
48.700001	83.774	-2.9642
49.400002	83.766	-3.3729
50.000000	83.748	-3.8544
50.799999	83.679	-4.5326
51.500000	83.584	-4.8909
52.200001	83.499	-4.9102
53.000000	83.470	-4.8331
53.799999	83.479	-5.2051
54.500000	83.440	-5.8128
55.200001	83.362	-6.2075
56.000000	83.307	-6.4082
57.000000	83.266	-7.0096
58.000000	83.155	-7.5251
59.000000	83.084	-7.4833
60.000000	83.081	-7.7479
60.799999	83.036	-8.1296
61.500000	82.994	-8.2394
62.200001	82.983	-8.4697
63.000000	82.917	-9.0510
64.000000	82.772	-8.9402
65.000000	82.798	-8.8796
66.000000	82.723	-9.6165
67.000000	82.657	-9.4374
68.000000	82.670	-10.0035
69.000000	82.576	-10.2753
70.000000	82.595	-10.4102
71.000000	82.531	-11.1711
72.000000	82.432	-11.1906
73.000000	82.396	-11.2708
74.000000	82.350	-11.4618
75.000000	82.293	-11.7889
76.199997	82.184	-11.8446
77.500000	82.151	-11.8619
78.800003	82.080	-12.0876
80.000000	82.023	-12.1557
81.199997	81.977	-12.1828
82.500000	81.927	-12.6611
83.800003	81.793	-12.5934
85.000000	81.795	-12.5518
86.199997	81.733	-12.8665
87.500000	81.695	-12.8944
88.500000	81.651	-13.0358
90.000000	81.602	-12.9728
91.199997	81.560	-13.1417
92.500000	81.485	-13.2194
93.800003	81.425	-13.2136
95.000000	81.376	-13.2754
96.199997	81.328	-13.3102
97.500000	81.283	-13.3452
98.800003	81.236	-13.3484
100.000000	81.199	-13.3362
101.500000	81.148	-13.5276
103.000000	81.055	-13.5126
104.400002	81.022	-13.5259
106.000000	80.949	-13.4872
107.500000	80.927	-13.4960
109.000000	80.863	-13.3788
110.599998	80.818	-13.4552
112.000000	80.763	-13.4005
113.800003	80.666	-13.5018
115.000000	80.644	-13.3501
117.199997	80.576	-13.3242
118.000000	80.596	-13.1732
120.599998	80.522	-13.2111
122.000000	80.472	-13.5669
124.099998	80.414	-13.1195
125.000000	80.405	-13.3038
126.500000	80.267	-13.2247
128.000000	80.252	-12.6566
131.500000	80.066	-12.4894
132.000000	80.049	-12.3920
134.000000	79.999	-12.2947
136.000000	80.066	-12.1190
138.000000	79.976	-12.2632
140.000000	79.888	-11.0033
143.000000	79.728	-9.6369
145.000000	79.727	-10.1237
147.500000	79.763	-9.0316
150.000000	79.821	-8.3262
152.500000	79.931	-8.1679
155.000000	79.938	-8.0580
157.500000	79.867	-8.8746
160.000000	79.924	-9.2066
162.500000	79.896	-8.7094
165.000000	79.827	-9.3155
167.500000	79.822	-9.0294
170.000000	79.704	-9.4180
172.500000	79.691	-9.2645
175.000000	79.674	-8.9271
177.500000	79.610	-9.0966
180.000000	79.618	-8.7188
182.500000	79.509	-8.6849
185.000000	79.588	-8.6532
187.500000	79.493	-8.5471
190.000000	79.459	-8.4533
192.500000	79.458	-8.2078
195.000000	79.397	-8.1544
197.500000	79.387	-8.1332
200.000000	79.345	-7.7847
203.000000	79.339	-7.7820
206.000000	79.269	-7.4513
209.000000	79.208	-7.5350
212.000000	79.178	-7.1685
214.000000	79.172	-7.0181
218.000000	79.133	-6.7390
220.000000	79.095	-6.6370
224.000000	79.072	-6.4219
227.000000	79.036	-6.1545
230.000000	79.010	-5.9645
233.000000	78.981	-5.8846
236.000000	78.974	-5.6227
240.000000	78.959	-4.5878
243.000000	78.924	-4.9783
247.000000	78.868	-4.8445
250.000000	78.852	-4.5428
254.000000	78.836	-4.3004
258.000000	78.797	-4.0690
262.000000	78.793	-3.9567
265.000000	78.757	-3.6312
269.000000	78.717	-3.3312
272.000000	78.703	-3.0540
276.000000	78.678	-2.6807
280.000000	78.665	-2.5198
285.000000	78.639	-2.1600
290.000000	78.615	-1.8063
295.000000	78.601	-1.5052
300.000000	78.573	-1.1772
304.000000	78.558	-0.8226
307.000000	78.542	-0.6366
311.000000	78.514	-0.4047
315.000000	78.504	-0.2227
320.000000	78.498	0.1339
325.000000	78.480	0.5139
330.000000	78.453	0.8038
335.000000	78.446	1.1210
340.000000	78.431	1.4961
345.000000	78.415	1.7903
350.000000	78.403	2.1460
355.000000	78.390	2.4229
360.000000	78.377	2.7883
365.000000	78.363	3.0325
370.000000	78.357	3.3530
375.000000	78.349	3.6825
382.000000	78.336	4.1356
387.000000	78.319	4.3790
395.000000	78.312	4.8257
400.000000	78.305	5.2555
406.000000	78.296	5.6177
412.000000	78.290	5.9484
418.000000	78.280	6.3201
425.000000	78.276	6.7563
431.000000	78.275	7.1842
437.000000	78.270	7.4197
444.000000	78.270	7.9006
450.000000	78.266	8.2753
455.000000	78.261	8.5635
462.000000	78.270	8.9232
468.000000	78.263	9.3285
475.000000	78.260	9.7138
482.000000	78.257	10.0847
487.000000	78.249	10.3916
494.000000	78.257	10.8137
500.000000	78.262	11.1718
508.000000	78.255	11.6145
515.000000	78.266	12.0551
522.000000	78.271	12.4051
530.000000	78.285	12.8151
538.000000	78.274	13.3632
545.000000	78.289	13.7004
552.000000	78.297	14.1212
560.000000	78.309	14.6168
570.000000	78.315	15.1939
580.000000	78.332	15.7528
590.000000	78.341	16.3735
600.000000	78.356	16.9174
608.000000	78.370	17.2659
615.000000	78.387	17.7242
622.000000	78.395	18.1040
630.000000	78.405	18.5715
640.000000	78.432	19.1720
650.000000	78.449	19.6698
660.000000	78.479	20.2645
670.000000	78.504	20.8860
680.000000	78.530	21.4170
690.000000	78.562	21.9501
700.000000	78.585	22.5591
710.000000	78.621	23.1110
720.000000	78.651	23.6624
730.000000	78.680	24.2365
740.000000	78.726	24.7655
750.000000	78.755	25.3832
762.000000	78.803	26.0449
775.000000	78.870	26.7015
788.000000	78.929	27.4670
800.000000	78.979	28.1641
812.000000	79.033	28.7903
825.000000	79.103	29.4966
838.000000	79.176	30.1588
850.000000	79.245	30.8523
862.000000	79.324	31.4084
875.000000	79.404	32.0922
885.000000	79.465	32.5562
900.000000	79.561	33.3119
912.000000	79.662	33.8268
925.000000	79.740	34.4236
938.000000	79.843	34.9637
950.000000	79.930	35.4627
962.000000	80.026	35.9560
975.000000	80.129	36.4145
988.000000	80.228	36.8757
1000.000000	80.326	37.2936
1015.000000	80.450	37.7648
1030.000000	80.576	38.1730
1044.000000	80.687	38.5105
1060.000000	80.816	38.9432
1075.000000	80.935	39.2729
1090.000000	81.057	39.6254
1106.000000	81.192	39.9187
1120.000000	81.306	40.1288
1138.000000	81.441	40.4662
1150.000000	81.529	40.5900
1172.000000	81.696	40.8622
1180.000000	81.753	40.9608
1206.000000	81.938	41.3081
1220.000000	82.052	41.4228
1241.000000	82.199	41.6115
1250.000000	82.260	41.7202
1265.000000	82.366	41.8079
1280.000000	82.465	41.9408
1315.000000	82.697	42.1973
1320.000000	82.729	42.2654
1340.000000	82.869	42.4023
1360.000000	83.001	42.5419
1380.000000	83.132	42.6232
1400.000000	83.263	42.7497
1430.000000	83.465	42.9231
1450.000000	83.594	42.9844
1475.000000	83.764	43.0863
1500.000000	83.929	43.2042
1525.000000	84.099	43.2819
1550.000000	84.273	43.3809
1575.000000	84.443	43.3980
1600.000000	84.621	43.4160
1625.000000	84.793	43.4180
1650.000000	84.975	43.3866
1675.000000	85.162	43.3547
1700.000000	85.348	43.3196
1725.000000	85.544	43.2472
1750.000000	85.751	43.1354
1775.000000	85.963	42.9374
1800.000000	86.181	42.6416
1825.000000	86.391	42.2413
1850.000000	86.612	41.7282
1875.000000	86.819	41.1897
1900.000000	87.022	40.5613
1925.000000	87.217	39.8716
1950.000000	87.418	39.1592
1975.000000	87.612	38.3854
2000.000000	87.806	37.5399
2030.000000	88.033	36.4467
2060.000000	88.257	35.2629
2090.000000	88.477	33.9584
2120.000000	88.680	32.5628
2140.000000	88.821	31.5518
2180.000000	89.075	29.3966
2200.000000	89.194	28.2477
2240.000000	89.414	25.7017
2270.000000	89.554	23.6107
2300.000000	89.658	21.3583
2330.000000	89.715	19.0235
2360.000000	89.720	16.7375
2400.000000	89.686	14.1006
2430.000000	89.684	12.2714
2470.000000	89.701	9.3540
2500.000000	89.663	6.6600
2540.000000	89.426	2.3271
2580.000000	88.758	-1.3785
2620.000000	87.876	-0.6849
2650.000000	87.617	2.0767
2690.000000	87.731	4.2643
2720.000000	87.879	4.4994
2760.000000	88.006	3.8181
2800.000000	88.065	2.7172
2850.000000	88.053	1.2191
2900.000000	87.986	-0.1904
2950.000000	87.890	-1.4679
3000.000000	87.776	-2.6447
3040.000000	87.676	-3.4472
3070.000000	87.595	-4.0009
3110.000000	87.493	-4.5982
3150.000000	87.407	-5.1162
3200.000000	87.326	-5.8266
3250.000000	87.234	-6.5331
3300.000000	87.153	-7.1902
3350.000000	87.090	-7.8711
3400.000000	87.053	-8.5878
3450.000000	87.020	-9.4856
3500.000000	86.994	-10.5530
3550.000000	86.998	-11.6733
3600.000000	87.079	-13.1884
3650.000000	87.227	-15.8176
3700.000000	87.352	-21.0201
3750.000000	86.816	-29.7659
3820.000000	84.275	-30.1676
3870.000000	84.108	-23.3810
3950.000000	84.471	-29.9548
4000.000000	82.447	-35.8224
4060.000000	80.495	-23.1182
4120.000000	80.619	-12.4514
4180.000000	80.996	-7.4365
4250.000000	81.222	-4.6180
4310.000000	81.109	-1.6525
4370.000000	81.519	3.6279
4440.000000	82.214	3.4442
4500.000000	82.269	1.2841
4550.000000	81.788	1.4219
4620.000000	81.822	6.7531
4680.000000	82.210	8.5445
4750.000000	82.508	9.1051
4820.000000	82.744	9.9873
4870.000000	83.043	10.2869
4940.000000	83.435	8.9683
5000.000000	83.674	6.4749
5080.000000	83.413	0.2048
5150.000000	82.227	1.3997
5220.000000	82.166	4.9382
5300.000000	81.777	6.9689
5380.000000	81.861	11.2349
5450.000000	82.046	13.1019
5520.000000	82.181	14.2710
5600.000000	82.214	15.8434
5700.000000	82.524	18.5938
5800.000000	82.894	19.4198
5900.000000	83.197	19.6685
6000.000000	83.408	19.1997
6080.000000	83.384	18.0691
6150.000000	82.981	19.1113
6220.000000	83.158	24.0297
6300.000000	83.889	25.2363
6400.000000	84.463	23.3806
6500.000000	84.723	20.7875
6600.000000	84.613	17.8910
6700.000000	84.417	17.2649
6800.000000	84.073	16.4304
6900.000000	83.622	20.1603
7000.000000	83.562	20.2980
7100.000000	82.377	31.0271
7200.000000	84.468	44.7646
7300.000000	86.843	43.6108
7400.000000	88.343	34.1209
7500.000000	88.755	27.1709
7620.000000	87.886	17.0070
7750.000000	88.766	25.4581
7880.000000	90.547	16.6737
8000.000000	91.213	2.7983
8120.000000	90.706	-13.3633
8250.000000	88.531	-23.1538
8380.000000	86.829	-21.7053
8500.000000	86.499	-21.8806
8620.000000	85.387	-26.8953
8750.000000	83.888	-20.5376
8850.000000	83.756	-18.5493
9000.000000	82.639	-15.7368
9120.000000	82.499	-7.9208
9250.000000	82.895	-4.6238
9380.000000	83.158	-2.8709
9500.000000	83.460	-2.2244
9620.000000	83.742	-3.0441
9750.000000	83.828	-4.9151
9880.000000	83.781	-6.5323
10000.000000	83.627	-8.2093
10150.000000	83.404	-9.9590
10300.000000	82.901	-11.5105
10440.000000	82.513	-10.9939
10600.000000	82.185	-10.9595
10750.000000	81.780	-10.7900
10900.000000	81.332	-9.7489
11060.000000	80.963	-8.2205
11200.000000	80.552	-6.0286
11380.000000	80.481	-1.4994
11500.000000	80.702	0.1433
11720.000000	80.342	-4.8298
11800.000000	79.457	-2.6250
12060.000000	80.027	12.4244
12200.000000	80.902	13.7578
12410.000000	81.832	10.3307
12500.000000	81.931	7.9154
12650.000000	81.758	5.1823
12800.000000	81.546	4.6014
13150.000000	81.680	4.1817
13200.000000	81.736	3.8023
13400.000000	81.832	0.3973
13600.000000	81.346	-4.0999
13800.000000	80.551	-4.7048
14000.000000	80.018	-3.8740
14300.000000	79.162	-0.8351
14500.000000	78.812	4.0126
14750.000000	79.180	9.7701
15000.000000	79.884	11.1235
15250.000000	80.318	9.0844
15500.000000	80.296	6.6851
15750.000000	80.165	7.8005
16000.000000	81.034	8.7917
16250.000000	81.831	0.3494
16500.000000	81.205	-8.5062
16750.000000	80.586	-12.7875
17000.000000	79.712	-18.9064
17250.000000	78.308	-20.4852
17500.000000	77.149	-18.4666
17750.000000	76.381	-14.9459
18000.000000	75.909	-11.6895
18250.000000	75.488	-9.1305
18500.000000	75.126	-5.7781
18750.000000	75.092	-1.7899
19000.000000	75.436	0.6022
19250.000000	75.828	0.1176
19500.000000	75.965	-1.9486
19750.000000	75.909	-5.0530
