* Measurement data measured by REW V5.20 Beta 56
* Source: Microphone (Realtek USB2.0 Audio), MICROPHONE (Master Volume), L, volume: 0.588. Timing signal peak level -15.1 dBFS, measurement signal peak level -6.5 dBFS
* Format: 4M Log Swept Sine, 1 sweep at -10.0 dBFS using an acoustic timing reference
* Dated: Jul 21, 2020 7:06:09 PM
* REW Settings:
*  C-weighting compensation: Off
*  Target level: 75.0 dB
* Note: Delay -1.6073 ms (-551 mm, -(1 ft 9.7 in)) using estimated IR delay relative to Acoustic reference on SPEAKER L with no timing offset
* Measurement: Freya L
* Smoothing: 1/24 octave
* Frequency Step: 1/48 octave
* Start Frequency: 20.000 Hz
*
* Freq(Hz)	SPL(dB)	Phase(degrees)
20.000000	71.0	141.9192
20.299999	71.2	140.5805
20.600000	71.3	139.2938
20.900000	71.5	138.0447
21.200001	71.7	136.8168
21.400000	71.8	136.0032
21.799999	72.0	134.3832
22.000000	72.1	133.5784
22.400000	72.2	131.9888
22.700001	72.3	130.8239
23.000000	72.4	129.6859
23.299999	72.5	128.5720
23.600000	72.6	127.4753
24.000000	72.8	126.0258
24.299999	72.9	124.9435
24.700001	73.0	123.5124
25.000000	73.1	122.4599
25.400000	73.2	121.1009
25.799999	73.4	119.7986
26.200001	73.5	118.5373
26.500000	73.6	117.5995
26.900000	73.7	116.3387
27.200001	73.8	115.3813
27.600000	73.9	114.1061
28.000000	74.0	112.8639
28.500000	74.1	111.3985
29.000000	74.3	110.0143
29.500000	74.4	108.6405
30.000000	74.5	107.2228
30.400000	74.6	106.0742
30.700001	74.6	105.2320
31.100000	74.7	104.1636
31.500000	74.8	103.1633
32.000000	74.9	101.9658
32.500000	75.0	100.7611
33.000000	75.1	99.5226
33.500000	75.2	98.2768
34.000000	75.3	97.0569
34.500000	75.4	95.8745
35.000000	75.5	94.7374
35.500000	75.6	93.6630
36.000000	75.7	92.6478
36.500000	75.8	91.6426
37.000000	75.9	90.5872
37.500000	76.0	89.4777
38.200001	76.1	87.9648
38.700001	76.1	86.9863
39.500000	76.2	85.5015
40.000000	76.3	84.5329
40.599998	76.4	83.3504
41.200001	76.5	82.2407
41.799999	76.5	81.2287
42.500000	76.6	80.0804
43.099998	76.7	79.0615
43.700001	76.7	78.0272
44.400002	76.8	76.8534
45.000000	76.9	75.8883
45.500000	76.9	75.1007
46.200001	77.0	74.0005
46.799999	77.0	73.0551
47.500000	77.1	71.9715
48.200001	77.2	70.9314
48.700001	77.2	70.2170
49.400002	77.2	69.2584
50.000000	77.3	68.4720
50.799999	77.3	67.4364
51.500000	77.4	66.5299
52.200001	77.4	65.6751
53.000000	77.4	64.7633
53.799999	77.5	63.8043
54.500000	77.5	62.9229
55.200001	77.5	62.0821
56.000000	77.6	61.1650
57.000000	77.6	59.9768
58.000000	77.6	58.7899
59.000000	77.7	57.7094
60.000000	77.7	56.7059
60.799999	77.7	55.9104
61.500000	77.7	55.2402
62.200001	77.7	54.5735
63.000000	77.7	53.7641
64.000000	77.8	52.8127
65.000000	77.8	51.9969
66.000000	77.8	51.0513
67.000000	77.8	50.0456
68.000000	77.8	49.1407
69.000000	77.8	48.3453
70.000000	77.8	47.5577
71.000000	77.9	46.6524
72.000000	77.9	45.8058
73.000000	77.8	45.1031
74.000000	77.8	44.4295
75.000000	77.8	43.7747
76.199997	77.8	42.9605
77.500000	77.8	41.9322
78.800003	77.8	40.9265
80.000000	77.8	40.0694
81.199997	77.8	39.3402
82.500000	77.8	38.5500
83.800003	77.8	37.5882
85.000000	77.8	36.8557
86.199997	77.8	36.2641
87.500000	77.8	35.6111
88.500000	77.7	35.0564
90.000000	77.7	34.2050
91.199997	77.7	33.5536
92.500000	77.7	32.8993
93.800003	77.7	32.2855
95.000000	77.7	31.7645
96.199997	77.6	31.2484
97.500000	77.6	30.6756
98.800003	77.6	30.1128
100.000000	77.6	29.6567
101.500000	77.6	29.1680
103.000000	77.6	28.5988
104.400002	77.6	28.0427
106.000000	77.5	27.4420
107.500000	77.5	26.9138
109.000000	77.5	26.4849
110.599998	77.4	26.0381
112.000000	77.4	25.5781
113.800003	77.4	24.8809
115.000000	77.4	24.4639
117.199997	77.3	24.0109
118.000000	77.3	23.8964
120.599998	77.3	23.4489
122.000000	77.3	23.1215
124.099998	77.2	22.6519
125.000000	77.2	22.4738
126.500000	77.2	22.1918
128.000000	77.2	21.9512
131.500000	77.2	21.2306
132.000000	77.2	21.1028
134.000000	77.1	20.6232
136.000000	77.1	20.3546
138.000000	77.1	20.3320
140.000000	77.0	20.2010
143.000000	76.9	19.6926
145.000000	76.9	19.5153
147.500000	76.8	19.5352
150.000000	76.8	19.3278
152.500000	76.7	19.0992
155.000000	76.6	19.0051
157.500000	76.6	18.9535
160.000000	76.5	19.1344
162.500000	76.4	19.3513
165.000000	76.4	19.3148
167.500000	76.3	19.2476
170.000000	76.2	19.2788
172.500000	76.2	19.3138
175.000000	76.1	19.4882
177.500000	76.0	19.8745
180.000000	76.0	20.0167
182.500000	75.9	19.9758
185.000000	75.8	20.0596
187.500000	75.8	20.2187
190.000000	75.8	20.3660
192.500000	75.7	20.3835
195.000000	75.6	20.4779
197.500000	75.5	20.7925
200.000000	75.4	21.2391
203.000000	75.3	21.7346
206.000000	75.2	22.0377
209.000000	75.1	22.2430
212.000000	75.0	22.5145
214.000000	75.0	22.7592
218.000000	74.9	23.3103
220.000000	74.9	23.5789
224.000000	74.7	24.1305
227.000000	74.6	24.5923
230.000000	74.6	25.1390
233.000000	74.5	25.7084
236.000000	74.4	26.2217
240.000000	74.3	26.9317
243.000000	74.3	27.5541
247.000000	74.2	28.4713
250.000000	74.1	29.1160
254.000000	74.0	29.9651
258.000000	73.9	30.7685
262.000000	73.8	31.5960
265.000000	73.7	32.1892
269.000000	73.6	32.7732
272.000000	73.6	33.3090
276.000000	73.5	34.2413
280.000000	73.4	35.1529
285.000000	73.3	36.5358
290.000000	73.1	37.9442
295.000000	73.0	39.3575
300.000000	72.9	40.5269
304.000000	72.8	41.5784
307.000000	72.7	42.4092
311.000000	72.6	43.5361
315.000000	72.5	44.6849
320.000000	72.4	46.0417
325.000000	72.3	47.8483
330.000000	72.1	49.8338
335.000000	72.1	51.6150
340.000000	72.0	53.2047
345.000000	72.0	54.8405
350.000000	71.9	56.5026
355.000000	71.8	57.9282
360.000000	71.8	59.2409
365.000000	71.7	60.7249
370.000000	71.7	62.2631
375.000000	71.6	63.7509
382.000000	71.5	65.7916
387.000000	71.4	67.2638
395.000000	71.3	69.8960
400.000000	71.2	71.6292
406.000000	71.1	73.6256
412.000000	71.0	75.6408
418.000000	70.9	77.6625
425.000000	70.7	80.0643
431.000000	70.7	82.1862
437.000000	70.6	84.2821
444.000000	70.4	86.7372
450.000000	70.3	88.8564
455.000000	70.3	90.6573
462.000000	70.2	93.1809
468.000000	70.1	95.3411
475.000000	70.0	97.9046
482.000000	69.8	100.5560
487.000000	69.8	102.4902
494.000000	69.7	105.1692
500.000000	69.6	107.4758
508.000000	69.5	110.6077
515.000000	69.3	113.3655
522.000000	69.2	116.1925
530.000000	69.1	119.5142
538.000000	69.0	122.8226
545.000000	68.9	125.7364
552.000000	68.8	128.6929
560.000000	68.7	132.1274
570.000000	68.6	136.6067
580.000000	68.4	141.1896
590.000000	68.3	145.8997
600.000000	68.2	150.7830
608.000000	68.2	154.7992
615.000000	68.1	158.3568
622.000000	68.1	161.9330
630.000000	68.1	166.0145
640.000000	68.1	171.0739
650.000000	68.1	176.0380
660.000000	68.2	-179.1080
670.000000	68.3	-174.3979
680.000000	68.4	-169.9041
690.000000	68.5	-165.5733
700.000000	68.6	-161.3136
710.000000	68.6	-157.1104
720.000000	68.7	-152.9414
730.000000	68.7	-148.7602
740.000000	68.7	-144.5791
750.000000	68.8	-140.3889
762.000000	68.8	-135.3127
775.000000	68.8	-129.7219
788.000000	68.8	-124.0974
800.000000	68.8	-118.8727
812.000000	68.9	-113.5988
825.000000	68.9	-107.8569
838.000000	68.9	-102.0915
850.000000	69.0	-96.7178
862.000000	69.0	-91.3002
875.000000	69.0	-85.3965
885.000000	69.1	-80.8182
900.000000	69.1	-73.8896
912.000000	69.2	-68.3109
925.000000	69.3	-62.2461
938.000000	69.4	-56.1558
950.000000	69.4	-50.5045
962.000000	69.5	-44.8276
975.000000	69.7	-38.6552
988.000000	69.8	-32.4687
1000.000000	69.9	-26.7547
1015.000000	70.1	-19.6201
1030.000000	70.2	-12.4792
1044.000000	70.4	-5.7769
1060.000000	70.6	1.9342
1075.000000	70.8	9.1869
1090.000000	71.1	16.4214
1106.000000	71.3	24.1217
1120.000000	71.5	30.8438
1138.000000	71.8	39.4333
1150.000000	72.0	45.1375
1172.000000	72.4	55.6220
1180.000000	72.6	59.4539
1206.000000	73.0	71.9273
1220.000000	73.3	78.6210
1241.000000	73.6	88.6216
1250.000000	73.8	92.8827
1265.000000	74.1	99.9394
1280.000000	74.3	106.9441
1315.000000	74.9	123.1813
1320.000000	75.0	125.4931
1340.000000	75.4	134.7280
1360.000000	75.7	143.9488
1380.000000	76.0	153.1293
1400.000000	76.3	162.2733
1430.000000	76.8	175.8582
1450.000000	77.1	-175.2197
1475.000000	77.4	-164.2447
1500.000000	77.8	-153.4404
1525.000000	78.0	-142.6960
1550.000000	78.3	-131.9615
1575.000000	78.5	-121.2524
1600.000000	78.7	-110.5856
1625.000000	78.9	-99.9600
1650.000000	79.0	-89.3619
1675.000000	79.2	-78.8122
1700.000000	79.3	-68.2655
1725.000000	79.4	-57.6593
1750.000000	79.4	-46.9847
1775.000000	79.5	-36.1641
1800.000000	79.6	-25.1990
1825.000000	79.6	-14.1830
1850.000000	79.6	-3.1307
1875.000000	79.7	8.0656
1900.000000	79.7	19.4568
1925.000000	79.7	30.9655
1950.000000	79.7	42.5486
1975.000000	79.8	54.2219
2000.000000	79.8	66.0083
2030.000000	79.8	80.3643
2060.000000	79.8	94.9581
2090.000000	79.9	109.7446
2120.000000	79.9	124.6936
2140.000000	79.9	134.7598
2180.000000	80.0	155.1407
2200.000000	80.0	165.4066
2240.000000	80.0	-174.0021
2270.000000	80.1	-158.4802
2300.000000	80.1	-142.8609
2330.000000	80.1	-127.1661
2360.000000	80.2	-111.4709
2400.000000	80.2	-90.5305
2430.000000	80.3	-74.7628
2470.000000	80.3	-53.6360
2500.000000	80.4	-37.7541
2540.000000	80.5	-16.5675
2580.000000	80.5	4.6854
2620.000000	80.6	25.9723
2650.000000	80.6	41.9146
2690.000000	80.7	63.1625
2720.000000	80.7	79.1063
2760.000000	80.8	100.3481
2800.000000	80.8	121.5210
2850.000000	80.9	147.9879
2900.000000	81.0	174.4990
2950.000000	81.1	-159.0995
3000.000000	81.3	-132.7832
3040.000000	81.3	-111.7178
3070.000000	81.4	-95.8806
3110.000000	81.5	-74.6907
3150.000000	81.6	-53.4056
3200.000000	81.6	-26.7719
3250.000000	81.7	-0.2029
3300.000000	81.7	26.2057
3350.000000	81.7	52.6156
3400.000000	81.7	79.3604
3450.000000	81.7	106.4847
3500.000000	81.7	133.9170
3550.000000	81.6	161.5872
3600.000000	81.6	-170.5488
3650.000000	81.4	-142.3999
3700.000000	81.3	-113.8883
3750.000000	81.1	-85.0681
3820.000000	80.8	-44.2686
3870.000000	80.6	-14.7555
3950.000000	80.3	32.9280
4000.000000	80.1	62.9545
4060.000000	79.9	99.2102
4120.000000	79.7	135.8074
4180.000000	79.7	172.7620
4250.000000	79.8	-143.9834
4310.000000	79.9	-107.1449
4370.000000	80.2	-70.8784
4440.000000	80.5	-29.4583
4500.000000	80.8	5.2826
4550.000000	80.9	33.6790
4620.000000	81.1	72.6367
4680.000000	81.2	105.3394
4750.000000	81.3	142.8335
4820.000000	81.2	179.9292
4870.000000	81.0	-153.5974
4940.000000	80.7	-116.3699
5000.000000	80.3	-84.1809
5080.000000	79.5	-40.6736
5150.000000	78.7	-1.7678
5220.000000	77.8	38.1499
5300.000000	76.6	85.2139
5380.000000	75.4	133.9712
5450.000000	74.3	177.9343
5520.000000	73.3	-136.9849
5600.000000	72.1	-83.9431
5700.000000	70.9	-15.0542
5800.000000	70.0	56.4736
5900.000000	69.8	129.0774
6000.000000	70.2	-159.5403
6080.000000	70.7	-104.2456
6150.000000	71.4	-57.2988
6220.000000	72.0	-11.6418
6300.000000	72.8	39.0947
6400.000000	73.7	100.9246
6500.000000	74.5	161.8726
6600.000000	75.0	-137.3469
6700.000000	75.4	-76.3149
6800.000000	75.7	-14.5459
6900.000000	75.8	48.5125
7000.000000	75.9	113.2122
7100.000000	75.8	179.7214
7200.000000	75.6	-111.6614
7300.000000	75.1	-40.7249
7400.000000	74.6	32.2825
7500.000000	74.0	106.2771
7620.000000	73.8	-166.3638
7750.000000	74.3	-76.4741
7880.000000	75.2	6.9336
8000.000000	76.0	78.4277
8120.000000	76.4	146.3613
8250.000000	76.4	-141.2305
8380.000000	75.8	-67.7192
8500.000000	75.0	1.9155
8620.000000	74.1	73.0874
8750.000000	73.1	151.1836
8850.000000	72.3	-148.4229
9000.000000	71.2	-57.8481
9120.000000	70.3	13.8833
9250.000000	69.2	90.5859
9380.000000	67.8	167.1338
9500.000000	66.1	-121.0352
9620.000000	64.3	-46.8247
9750.000000	62.2	37.4600
9880.000000	60.3	125.8936
10000.000000	58.9	-150.0762
10150.000000	58.1	-44.5264
10300.000000	57.9	58.8027
10440.000000	57.9	151.9414
10600.000000	57.9	-104.9512
10750.000000	57.8	-10.1699
10900.000000	57.8	83.6113
11060.000000	57.6	-176.5938
11200.000000	57.4	-88.4497
11380.000000	57.0	27.0522
11500.000000	56.7	105.4067
11720.000000	56.2	-109.3315
11800.000000	56.0	-56.3320
12060.000000	55.7	115.0073
12200.000000	55.5	-153.5420
12410.000000	55.2	-17.4590
12500.000000	55.1	40.5400
12650.000000	55.0	137.0933
12800.000000	55.1	-126.1646
13150.000000	55.6	100.2842
13200.000000	55.7	132.5811
13400.000000	55.9	-98.4165
13600.000000	55.8	30.8984
13800.000000	55.4	160.6646
14000.000000	54.5	-69.3193
14300.000000	53.0	126.1973
14500.000000	52.3	-102.6250
14750.000000	52.1	62.4648
15000.000000	52.3	-131.7695
15250.000000	52.5	33.7100
15500.000000	52.6	-161.5293
15750.000000	52.3	2.4404
16000.000000	51.4	165.7969
16250.000000	49.7	-31.3799
16500.000000	47.7	130.8633
16750.000000	45.8	-67.7246
17000.000000	44.1	92.7822
17250.000000	42.2	-107.9180
17500.000000	40.0	50.2715
17750.000000	38.0	-149.8467
18000.000000	37.5	14.4688
18250.000000	38.4	179.8535
18500.000000	41.1	-18.0342
18750.000000	43.5	142.7627
19000.000000	43.2	-53.1152
19250.000000	40.4	116.3857
19500.000000	38.2	-73.8828
19750.000000	38.8	75.3506
