* Measurement data measured by REW V5.20 Beta 56
* Source: Microphone (Realtek USB2.0 Audio), MICROPHONE (Master Volume), R, volume: 0.588. Timing signal peak level -18.5 dBFS, measurement signal peak level -6.6 dBFS
* Format: 4M Log Swept Sine, 1 sweep at -10.0 dBFS using an acoustic timing reference
* Dated: Jul 21, 2020 7:10:27 PM
* REW Settings:
*  C-weighting compensation: Off
*  Target level: 75.0 dB
* Note: Delay -1.5644 ms (-537 mm, -(1 ft 9.13 in)) using estimated IR delay relative to Acoustic reference on SPEAKER R with no timing offset
* Measurement: Freya R
* Smoothing: None
* Frequency Step: 1/48 octave
* Start Frequency: 20.000 Hz
*
* Freq(Hz)	SPL(dB)	Phase(degrees)
20.000000	69.2	155.7993
20.299999	69.4	154.3106
20.600000	69.5	152.8917
20.900000	69.7	151.5379
21.200001	69.9	150.2308
21.400000	70.0	149.3731
21.799999	70.2	147.6669
22.000000	70.3	146.8133
22.400000	70.5	145.1098
22.700001	70.6	143.8466
23.000000	70.7	142.6042
23.299999	70.9	141.3848
23.600000	71.0	140.1848
24.000000	71.1	138.6059
24.299999	71.2	137.4364
24.700001	71.4	135.9051
25.000000	71.5	134.7867
25.400000	71.6	133.3401
25.799999	71.8	131.9300
26.200001	71.9	130.5297
26.500000	72.0	129.4743
26.900000	72.1	128.0649
27.200001	72.2	127.0195
27.600000	72.3	125.6660
28.000000	72.4	124.3721
28.500000	72.6	122.8249
29.000000	72.8	121.3075
29.500000	72.9	119.7878
30.000000	73.0	118.2760
30.400000	73.1	117.0929
30.700001	73.2	116.2281
31.100000	73.3	115.1049
31.500000	73.4	114.0075
32.000000	73.5	112.6578
32.500000	73.6	111.3288
33.000000	73.7	110.0309
33.500000	73.8	108.7722
34.000000	74.0	107.5410
34.500000	74.1	106.3151
35.000000	74.2	105.0878
35.500000	74.3	103.8826
36.000000	74.4	102.7313
36.500000	74.4	101.6344
37.000000	74.5	100.5552
37.500000	74.6	99.4613
38.200001	74.8	97.9273
38.700001	74.8	96.8683
39.500000	75.0	95.2174
40.000000	75.0	94.1756
40.599998	75.1	92.9442
41.200001	75.2	91.7989
41.799999	75.3	90.7290
42.500000	75.4	89.4534
43.099998	75.5	88.2862
43.700001	75.5	87.1219
44.400002	75.6	85.8778
45.000000	75.7	84.8917
45.500000	75.7	84.0656
46.200001	75.8	82.8773
46.799999	75.9	81.8903
47.500000	76.0	80.8121
48.200001	76.0	79.7257
48.700001	76.1	78.9215
49.400002	76.1	77.8363
50.000000	76.2	76.9882
50.799999	76.2	75.8906
51.500000	76.3	74.8787
52.200001	76.3	73.8552
53.000000	76.4	72.7834
53.799999	76.4	71.7877
54.500000	76.5	70.8211
55.200001	76.5	69.8125
56.000000	76.6	68.8670
57.000000	76.6	67.7107
58.000000	76.7	66.2940
59.000000	76.7	65.2206
60.000000	76.8	64.1211
60.799999	76.8	63.1813
61.500000	76.8	62.4462
62.200001	76.9	61.6913
63.000000	76.9	60.8181
64.000000	77.0	59.8068
65.000000	77.0	58.7580
66.000000	77.0	57.7699
67.000000	77.1	56.8315
68.000000	77.1	55.9250
69.000000	77.1	55.0133
70.000000	77.1	54.1006
71.000000	77.2	53.2340
72.000000	77.2	52.3873
73.000000	77.2	51.5321
74.000000	77.2	50.6915
75.000000	77.2	49.8975
76.199997	77.3	48.9454
77.500000	77.3	48.0180
78.800003	77.3	47.0483
80.000000	77.3	46.1754
81.199997	77.3	45.3398
82.500000	77.3	44.3680
83.800003	77.3	43.4787
85.000000	77.3	42.7780
86.199997	77.3	42.0565
87.500000	77.3	41.2496
88.500000	77.3	40.6543
90.000000	77.3	39.7896
91.199997	77.3	39.0956
92.500000	77.3	38.3707
93.800003	77.3	37.6399
95.000000	77.3	37.0072
96.199997	77.3	36.3850
97.500000	77.3	35.7621
98.800003	77.3	35.0988
100.000000	77.3	34.5553
101.500000	77.3	33.8927
103.000000	77.3	33.2114
104.400002	77.2	32.6190
106.000000	77.2	31.9745
107.500000	77.2	31.3516
109.000000	77.2	30.7659
110.599998	77.2	30.1577
112.000000	77.2	29.6095
113.800003	77.1	28.9604
115.000000	77.1	28.5557
117.199997	77.1	27.8865
118.000000	77.1	27.6293
120.599998	77.1	26.8245
122.000000	77.1	26.3796
124.099998	77.0	25.7834
125.000000	77.0	25.5474
126.500000	77.0	25.1406
128.000000	77.0	24.7627
131.500000	77.0	23.9531
132.000000	77.0	23.8638
134.000000	76.9	23.3856
136.000000	76.9	22.9430
138.000000	76.9	22.5698
140.000000	76.8	22.1650
143.000000	76.8	21.6780
145.000000	76.7	21.3279
147.500000	76.7	20.9742
150.000000	76.6	20.6855
152.500000	76.6	20.2281
155.000000	76.5	19.9203
157.500000	76.5	19.5867
160.000000	76.4	19.3545
162.500000	76.4	19.1473
165.000000	76.3	18.9447
167.500000	76.3	18.7475
170.000000	76.2	18.5801
172.500000	76.2	18.4263
175.000000	76.1	18.3239
177.500000	76.1	18.2291
180.000000	76.0	18.1421
182.500000	76.0	18.0565
185.000000	75.9	18.0377
187.500000	75.9	17.9841
190.000000	75.8	17.9666
192.500000	75.8	18.0011
195.000000	75.7	18.0183
197.500000	75.6	18.0479
200.000000	75.5	18.1075
203.000000	75.5	18.1714
206.000000	75.4	18.2834
209.000000	75.3	18.4197
212.000000	75.3	18.5112
214.000000	75.2	18.7430
218.000000	75.1	18.8975
220.000000	75.1	19.0121
224.000000	75.0	19.3041
227.000000	74.9	19.5323
230.000000	74.9	19.7844
233.000000	74.8	20.0351
236.000000	74.8	20.3092
240.000000	74.7	20.6922
243.000000	74.6	21.0225
247.000000	74.5	21.4551
250.000000	74.5	21.7727
254.000000	74.4	22.2109
258.000000	74.3	22.7123
262.000000	74.2	23.2570
265.000000	74.2	23.6680
269.000000	74.1	24.3255
272.000000	74.0	24.6268
276.000000	73.9	25.2492
280.000000	73.8	25.9391
285.000000	73.7	26.6233
290.000000	73.6	27.5438
295.000000	73.5	28.3861
300.000000	73.4	29.2570
304.000000	73.3	30.1237
307.000000	73.3	30.7366
311.000000	73.2	31.4393
315.000000	73.1	32.2640
320.000000	73.0	33.2346
325.000000	72.9	34.2680
330.000000	72.8	35.2020
335.000000	72.7	36.4045
340.000000	72.6	37.5364
345.000000	72.5	38.6207
350.000000	72.3	39.7075
355.000000	72.3	40.7594
360.000000	72.1	41.9883
365.000000	72.0	43.0194
370.000000	71.9	44.5179
375.000000	71.8	45.8300
382.000000	71.6	47.4686
387.000000	71.5	48.8248
395.000000	71.3	50.8814
400.000000	71.2	52.2033
406.000000	71.1	53.9084
412.000000	70.9	55.8707
418.000000	70.7	57.6324
425.000000	70.5	60.2698
431.000000	70.3	62.3265
437.000000	70.1	64.8192
444.000000	69.9	68.2313
450.000000	69.8	71.3263
455.000000	69.8	73.6523
462.000000	69.8	77.0281
468.000000	69.8	79.5880
475.000000	69.8	82.3777
482.000000	69.8	84.9867
487.000000	69.8	86.7216
494.000000	69.8	89.0320
500.000000	69.8	91.0247
508.000000	69.8	93.5713
515.000000	69.7	95.9357
522.000000	69.7	98.2544
530.000000	69.6	101.0155
538.000000	69.5	103.7591
545.000000	69.4	106.2182
552.000000	69.3	108.7382
560.000000	69.2	111.6870
570.000000	69.1	115.4545
580.000000	69.0	119.2278
590.000000	68.9	123.1881
600.000000	68.8	127.3086
608.000000	68.7	130.6828
615.000000	68.7	133.7323
622.000000	68.6	136.8547
630.000000	68.5	140.5284
640.000000	68.5	145.0948
650.000000	68.5	149.6642
660.000000	68.5	154.4345
670.000000	68.5	159.0161
680.000000	68.5	163.6373
690.000000	68.6	168.0827
700.000000	68.7	172.3191
710.000000	68.8	176.5038
720.000000	68.9	-179.3930
730.000000	68.9	-175.4767
740.000000	69.0	-171.5880
750.000000	69.0	-167.7201
762.000000	69.1	-163.0089
775.000000	69.1	-157.9532
788.000000	69.2	-152.8726
800.000000	69.2	-148.0791
812.000000	69.2	-143.1978
825.000000	69.2	-137.8658
838.000000	69.3	-132.4701
850.000000	69.3	-127.4695
862.000000	69.3	-122.4191
875.000000	69.4	-116.9770
885.000000	69.4	-112.6985
900.000000	69.5	-106.1223
912.000000	69.5	-100.8053
925.000000	69.6	-95.0056
938.000000	69.7	-89.0925
950.000000	69.7	-83.6762
962.000000	69.8	-78.3279
975.000000	69.9	-72.4357
988.000000	70.0	-66.5580
1000.000000	70.2	-61.0300
1015.000000	70.3	-54.1731
1030.000000	70.5	-47.3568
1044.000000	70.7	-40.9208
1060.000000	70.9	-33.5435
1075.000000	71.1	-26.6721
1090.000000	71.3	-19.7560
1106.000000	71.5	-12.3545
1120.000000	71.8	-5.8462
1138.000000	72.1	2.5894
1150.000000	72.3	8.1433
1172.000000	72.6	18.2573
1180.000000	72.8	21.9153
1206.000000	73.3	33.9566
1220.000000	73.5	40.4312
1241.000000	73.9	50.1911
1250.000000	74.1	54.4716
1265.000000	74.3	61.4656
1280.000000	74.6	68.3838
1315.000000	75.3	84.4493
1320.000000	75.4	86.7466
1340.000000	75.8	95.7899
1360.000000	76.2	104.7605
1380.000000	76.5	113.4373
1400.000000	76.9	122.0141
1430.000000	77.4	134.6698
1450.000000	77.7	142.9675
1475.000000	77.9	153.3648
1500.000000	78.2	163.7943
1525.000000	78.4	174.3162
1550.000000	78.6	-175.1804
1575.000000	78.8	-164.6336
1600.000000	78.9	-154.0665
1625.000000	79.0	-143.5183
1650.000000	79.1	-132.8658
1675.000000	79.2	-121.9952
1700.000000	79.3	-111.2438
1725.000000	79.4	-100.4690
1750.000000	79.5	-89.5081
1775.000000	79.5	-78.5523
1800.000000	79.5	-67.4186
1825.000000	79.5	-56.0738
1850.000000	79.6	-44.4891
1875.000000	79.6	-32.7767
1900.000000	79.6	-20.9233
1925.000000	79.6	-8.9583
1950.000000	79.7	3.1691
1975.000000	79.7	15.2791
2000.000000	79.7	27.4304
2030.000000	79.7	42.1962
2060.000000	79.8	57.2560
2090.000000	79.8	72.5039
2120.000000	79.8	87.8966
2140.000000	79.8	98.3155
2180.000000	79.9	119.0883
2200.000000	79.9	129.4459
2240.000000	79.9	150.5513
2270.000000	80.0	166.6213
2300.000000	80.0	-177.4308
2330.000000	80.0	-161.2604
2360.000000	80.1	-144.9343
2400.000000	80.1	-123.2320
2430.000000	80.2	-107.0590
2470.000000	80.2	-85.3544
2500.000000	80.3	-69.1562
2540.000000	80.4	-47.4414
2580.000000	80.4	-25.6102
2620.000000	80.5	-3.7228
2650.000000	80.6	12.5828
2690.000000	80.6	34.1846
2720.000000	80.7	50.3464
2760.000000	80.7	71.7894
2800.000000	80.8	93.1004
2850.000000	80.9	119.9994
2900.000000	81.0	147.1094
2950.000000	81.1	174.1515
3000.000000	81.2	-159.0526
3040.000000	81.3	-137.5348
3070.000000	81.4	-121.4341
3110.000000	81.4	-99.9868
3150.000000	81.5	-78.4968
3200.000000	81.6	-54.7115
3250.000000	81.6	-31.1123
3300.000000	81.6	-7.4492
3350.000000	81.6	16.3452
3400.000000	81.5	40.2837
3450.000000	81.5	64.7356
3500.000000	81.4	89.4514
3550.000000	81.3	114.3657
3600.000000	81.1	139.4808
3650.000000	80.9	164.8380
3700.000000	80.7	-169.8719
3750.000000	80.5	-144.0951
3820.000000	80.2	-107.4751
3870.000000	80.0	-81.1331
3950.000000	79.6	-38.8146
4000.000000	79.4	-12.1995
4060.000000	79.2	19.9530
4120.000000	79.0	52.4082
4180.000000	78.9	85.1929
4250.000000	78.9	123.1605
4310.000000	79.0	155.3459
4370.000000	79.2	-173.0665
4440.000000	79.5	-136.7477
4500.000000	79.7	-106.7064
4550.000000	79.8	-82.3729
4620.000000	79.9	-49.2754
4680.000000	80.0	-21.8964
4750.000000	79.9	9.7070
4820.000000	79.6	41.2512
4870.000000	79.3	63.5422
4940.000000	78.7	94.6902
5000.000000	78.1	121.9143
5080.000000	77.0	159.1997
5150.000000	76.0	-167.1250
5220.000000	74.8	-132.3752
5300.000000	73.4	-90.8066
5380.000000	71.9	-47.3611
5450.000000	70.6	-8.0718
5520.000000	69.3	32.4062
5600.000000	67.8	80.6814
5700.000000	66.1	144.6904
5800.000000	64.7	-146.9119
5900.000000	64.1	-75.2144
6000.000000	64.4	-3.4973
6080.000000	65.2	51.0791
6150.000000	66.1	96.4861
6220.000000	67.1	139.6448
6300.000000	68.3	-172.8025
6400.000000	69.7	-115.6277
6500.000000	71.2	-60.4985
6600.000000	72.5	-7.3281
6700.000000	73.6	46.3311
6800.000000	74.5	99.5940
6900.000000	75.1	153.0085
7000.000000	75.5	-152.7976
7100.000000	75.6	-97.4373
7200.000000	75.4	-39.0508
7300.000000	74.9	22.0229
7400.000000	74.1	86.0852
7500.000000	73.3	152.3069
7620.000000	72.9	-129.4607
7750.000000	73.3	-49.0234
7880.000000	74.2	25.5234
8000.000000	75.3	87.4810
8120.000000	76.1	145.9722
8250.000000	76.3	-152.7974
8380.000000	75.8	-90.8750
8500.000000	74.9	-32.2393
8620.000000	73.9	28.0830
8750.000000	72.7	95.1523
8850.000000	71.9	147.4858
9000.000000	70.8	-133.5571
9120.000000	70.0	-70.1631
9250.000000	69.2	-1.9814
9380.000000	68.2	65.0171
9500.000000	67.3	126.8779
9620.000000	66.2	-171.1812
9750.000000	64.9	-102.4771
9880.000000	63.5	-31.6987
10000.000000	62.3	36.2578
10150.000000	61.2	122.5640
10300.000000	60.4	-151.9897
10440.000000	59.8	-75.1968
10600.000000	59.1	11.0508
10750.000000	58.4	91.3159
10900.000000	57.6	170.5928
11060.000000	56.7	-103.4678
11200.000000	55.9	-26.6636
11380.000000	54.9	76.0000
11500.000000	54.3	145.4819
11720.000000	53.6	-82.9648
11800.000000	53.5	-35.4062
12060.000000	53.5	115.7080
12200.000000	53.6	-164.7041
12410.000000	53.6	-47.8018
12500.000000	53.6	1.8130
12650.000000	53.7	84.4077
12800.000000	53.8	166.0537
13150.000000	54.8	-4.8945
13200.000000	55.0	22.0732
13400.000000	55.5	129.3491
13600.000000	55.7	-123.5952
13800.000000	55.3	-17.9429
14000.000000	54.4	87.7368
14300.000000	52.6	-112.1489
14500.000000	51.6	-5.0913
14750.000000	50.8	130.7363
15000.000000	50.2	-90.1436
15250.000000	49.7	50.9756
15500.000000	48.8	-168.0957
15750.000000	47.7	-27.3770
16000.000000	45.7	112.9727
16250.000000	42.7	-107.0088
16500.000000	39.9	30.8320
16750.000000	37.5	167.4189
17000.000000	35.1	-61.0889
17250.000000	32.1	63.5059
17500.000000	26.9	173.7021
17750.000000	16.6	-120.7314
18000.000000	24.0	-106.1641
18250.000000	28.7	-7.0889
18500.000000	29.5	105.2812
18750.000000	36.8	-138.9453
19000.000000	35.5	-20.5029
19250.000000	25.9	96.3838
19500.000000	19.2	-169.0586
19750.000000	18.2	-143.6045
