* Measurement data measured by REW V5.20.4
* Source: Microphone (Realtek USB2.0 Audio), MICROPHONE (Master Volume), R, volume: 1.000. Timing signal peak level -18.5 dBFS, measurement signal peak level -11.8 dBFS
* Format: 4M Log Swept Sine, 1 sweep at -15.0 dBFS using an acoustic timing reference
* Dated: Dec 18, 2021 3:49:35 PM
* REW Settings:
*  C-weighting compensation: Off
*  Target level: 75.0 dB
* Note: Delay -0.3580 ms (-123 mm, -4.83 in) using estimated IR delay relative to Acoustic reference on  R with no timing offset
* Measurement: CRN R
* Smoothing: 1/24 octave
* Frequency Step: 1/48 octave
* Start Frequency: 20.000 Hz
*
* Freq(Hz)	SPL(dB)	Phase(degrees)
20.000000	105.894	-109.0391
20.299999	105.943	-110.0081
20.600000	105.982	-110.9304
20.900000	106.005	-111.8202
21.200001	106.015	-112.6909
21.400000	106.020	-113.2722
21.799999	106.027	-114.4595
22.000000	106.030	-115.0735
22.400000	106.028	-116.3433
22.700001	106.015	-117.3076
23.000000	105.993	-118.2443
23.299999	105.962	-119.1239
23.600000	105.929	-119.9406
24.000000	105.886	-120.9597
24.299999	105.859	-121.7231
24.700001	105.824	-122.8080
25.000000	105.792	-123.6907
25.400000	105.732	-124.9234
25.799999	105.649	-126.1108
26.200001	105.555	-127.1329
26.500000	105.490	-127.7567
26.900000	105.425	-128.4256
27.200001	105.399	-128.8700
27.600000	105.393	-129.4965
28.000000	105.410	-130.2713
28.500000	105.436	-131.5090
29.000000	105.442	-132.9490
29.500000	105.422	-134.4003
30.000000	105.388	-135.7091
30.400000	105.366	-136.6500
30.700001	105.357	-137.3309
31.100000	105.351	-138.2629
31.500000	105.340	-139.2427
32.000000	105.303	-140.4696
32.500000	105.239	-141.5435
33.000000	105.168	-142.3550
33.500000	105.116	-142.9645
34.000000	105.091	-143.5511
34.500000	105.078	-144.2437
35.000000	105.055	-145.0188
35.500000	105.022	-145.7698
36.000000	104.992	-146.4655
36.500000	104.974	-147.2039
37.000000	104.956	-148.0948
37.500000	104.912	-149.0922
38.200001	104.806	-150.3142
38.700001	104.733	-150.9434
39.500000	104.670	-151.9219
40.000000	104.641	-152.7009
40.599998	104.588	-153.7078
41.200001	104.526	-154.6890
41.799999	104.454	-155.7028
42.500000	104.329	-156.7784
43.099998	104.209	-157.2472
43.700001	104.150	-157.3617
44.400002	104.166	-157.6659
45.000000	104.179	-158.2784
45.500000	104.160	-158.8075
46.200001	104.122	-159.3638
46.799999	104.100	-159.8158
47.500000	104.061	-160.4507
48.200001	103.993	-161.0294
48.700001	103.939	-161.3614
49.400002	103.867	-161.7819
50.000000	103.807	-162.1170
50.799999	103.742	-162.5651
51.500000	103.695	-163.0781
52.200001	103.643	-163.6742
53.000000	103.583	-164.3547
53.799999	103.524	-165.1200
54.500000	103.451	-165.7557
55.200001	103.381	-166.2084
56.000000	103.332	-166.7698
57.000000	103.242	-167.7095
58.000000	103.127	-168.3039
59.000000	103.046	-168.7857
60.000000	102.970	-169.0026
60.799999	102.972	-168.9556
61.500000	103.018	-169.0851
62.200001	103.073	-169.4556
63.000000	103.116	-170.1904
64.000000	103.057	-171.2827
65.000000	102.903	-171.5455
66.000000	102.831	-171.2605
67.000000	102.803	-171.4044
68.000000	102.745	-171.8097
69.000000	102.669	-172.4092
70.000000	102.554	-173.1024
71.000000	102.438	-173.6486
72.000000	102.342	-174.2635
73.000000	102.235	-174.7935
74.000000	102.154	-175.0121
75.000000	102.121	-175.1273
76.199997	102.110	-175.3175
77.500000	102.068	-175.5504
78.800003	101.992	-175.5211
80.000000	101.909	-175.4996
81.199997	101.782	-175.4822
82.500000	101.678	-175.0876
83.800003	101.722	-175.4155
85.000000	101.700	-176.8498
86.199997	101.542	-178.0754
87.500000	101.349	-178.2725
88.500000	101.288	-177.9611
90.000000	101.267	-177.7865
91.199997	101.238	-177.7827
92.500000	101.199	-177.8765
93.800003	101.146	-178.1238
95.000000	101.085	-178.3866
96.199997	101.027	-178.5980
97.500000	100.979	-178.7854
98.800003	100.936	-178.9502
100.000000	100.888	-179.0636
101.500000	100.810	-179.0731
103.000000	100.739	-179.0128
104.400002	100.677	-179.0736
106.000000	100.594	-179.2054
107.500000	100.524	-179.2133
109.000000	100.488	-179.2028
110.599998	100.452	-179.3176
112.000000	100.403	-179.3591
113.800003	100.342	-179.2702
115.000000	100.309	-179.2476
117.199997	100.220	-179.3165
118.000000	100.182	-179.3264
120.599998	100.070	-179.3433
122.000000	100.031	-179.4392
124.099998	99.986	-179.6863
125.000000	99.972	-179.7220
126.500000	99.967	-179.5776
128.000000	99.997	-179.1273
131.500000	100.065	-179.2849
132.000000	100.016	-179.4341
134.000000	99.768	-179.5848
136.000000	99.587	-179.5542
138.000000	99.518	-179.4744
140.000000	99.538	-179.1992
143.000000	99.487	-178.7655
145.000000	99.311	-178.2441
147.500000	99.162	-177.7703
150.000000	99.098	-178.2674
152.500000	99.076	-178.7932
155.000000	99.082	-179.1942
157.500000	99.090	-179.3408
160.000000	99.079	-178.7368
162.500000	99.137	-177.0653
165.000000	99.245	-176.0638
167.500000	99.135	-176.4566
170.000000	98.859	-177.1630
172.500000	98.703	-177.8440
175.000000	98.715	-178.5397
177.500000	98.668	-178.1855
180.000000	98.564	-176.8049
182.500000	98.490	-176.3590
185.000000	98.435	-176.5938
187.500000	98.414	-176.2363
190.000000	98.372	-175.3301
192.500000	98.331	-175.1196
195.000000	98.293	-175.6450
197.500000	98.293	-175.4636
200.000000	98.322	-174.3167
203.000000	98.308	-172.8140
206.000000	98.271	-171.6270
209.000000	98.281	-170.6948
212.000000	98.196	-170.5148
214.000000	98.027	-170.5867
218.000000	97.960	-169.9106
220.000000	98.183	-169.9769
224.000000	98.452	-170.8865
227.000000	98.402	-171.1572
230.000000	98.360	-171.2092
233.000000	98.389	-170.9352
236.000000	98.376	-170.5394
240.000000	98.273	-170.2687
243.000000	98.234	-170.1879
247.000000	98.244	-169.6180
250.000000	98.283	-169.0665
254.000000	98.199	-169.1402
258.000000	98.044	-169.8259
262.000000	98.004	-169.5151
265.000000	98.020	-169.0933
269.000000	97.960	-168.9138
272.000000	97.933	-167.9106
276.000000	97.893	-166.1229
280.000000	97.846	-165.1262
285.000000	97.926	-164.5857
290.000000	98.168	-164.4049
295.000000	98.296	-163.8234
300.000000	98.118	-163.9524
304.000000	98.096	-164.3650
307.000000	98.088	-164.2993
311.000000	98.023	-164.2125
315.000000	97.948	-164.1042
320.000000	97.825	-162.6719
325.000000	97.719	-161.5044
330.000000	97.607	-161.3267
335.000000	97.559	-161.1307
340.000000	97.547	-160.5464
345.000000	97.545	-159.8193
350.000000	97.539	-158.8671
355.000000	97.525	-158.1978
360.000000	97.533	-158.2067
365.000000	97.568	-157.8833
370.000000	97.569	-157.2979
375.000000	97.499	-156.9922
382.000000	97.383	-156.3329
387.000000	97.363	-155.5190
395.000000	97.345	-154.6314
400.000000	97.340	-154.3053
406.000000	97.330	-153.6486
412.000000	97.321	-152.9896
418.000000	97.325	-152.1766
425.000000	97.289	-151.3981
431.000000	97.271	-150.6700
437.000000	97.234	-150.1578
444.000000	97.164	-149.6971
450.000000	97.122	-149.2629
455.000000	97.095	-148.8094
462.000000	97.123	-148.0312
468.000000	97.184	-147.4144
475.000000	97.223	-146.6602
482.000000	97.217	-145.7327
487.000000	97.188	-145.0482
494.000000	97.159	-144.2155
500.000000	97.147	-143.5626
508.000000	97.121	-142.6443
515.000000	97.112	-141.8240
522.000000	97.121	-141.0207
530.000000	97.143	-140.1210
538.000000	97.158	-139.1948
545.000000	97.163	-138.4328
552.000000	97.154	-137.7204
560.000000	97.144	-136.9125
570.000000	97.149	-135.8052
580.000000	97.152	-134.6580
590.000000	97.145	-133.4608
600.000000	97.141	-132.2798
608.000000	97.151	-131.4640
615.000000	97.161	-130.6846
622.000000	97.168	-129.8359
630.000000	97.172	-128.9093
640.000000	97.176	-127.8535
650.000000	97.160	-126.8892
660.000000	97.136	-125.8701
670.000000	97.139	-124.7150
680.000000	97.148	-123.4948
690.000000	97.135	-122.3210
700.000000	97.116	-121.1824
710.000000	97.105	-120.0238
720.000000	97.100	-118.8914
730.000000	97.103	-117.7876
740.000000	97.112	-116.7275
750.000000	97.125	-115.6753
762.000000	97.148	-114.4093
775.000000	97.189	-113.1253
788.000000	97.240	-111.9841
800.000000	97.288	-111.1781
812.000000	97.311	-110.7388
825.000000	97.225	-110.5831
838.000000	96.953	-109.7732
850.000000	96.671	-107.3440
862.000000	96.594	-103.9686
875.000000	96.724	-100.9388
885.000000	96.858	-99.3199
900.000000	97.029	-97.4993
912.000000	97.137	-96.2275
925.000000	97.240	-94.8943
938.000000	97.337	-93.5599
950.000000	97.428	-92.3229
962.000000	97.522	-91.0844
975.000000	97.627	-89.7458
988.000000	97.737	-88.4166
1000.000000	97.841	-87.1860
1015.000000	97.975	-85.6473
1030.000000	98.114	-84.1061
1044.000000	98.247	-82.6628
1060.000000	98.401	-81.0219
1075.000000	98.545	-79.4868
1090.000000	98.690	-77.9589
1106.000000	98.846	-76.3420
1120.000000	98.985	-74.9218
1138.000000	99.170	-73.0843
1150.000000	99.298	-71.8544
1172.000000	99.540	-69.6027
1180.000000	99.629	-68.7891
1206.000000	99.909	-66.1306
1220.000000	100.051	-64.6923
1241.000000	100.247	-62.5125
1250.000000	100.327	-61.5717
1265.000000	100.457	-60.0088
1280.000000	100.580	-58.4486
1315.000000	100.852	-54.7992
1320.000000	100.889	-54.2761
1340.000000	101.034	-52.1819
1360.000000	101.173	-50.0834
1380.000000	101.302	-47.9768
1400.000000	101.422	-45.8741
1430.000000	101.581	-42.7124
1450.000000	101.676	-40.5801
1475.000000	101.784	-37.9016
1500.000000	101.879	-35.2351
1525.000000	101.966	-32.5951
1550.000000	102.046	-29.9680
1575.000000	102.120	-27.3452
1600.000000	102.190	-24.7263
1625.000000	102.262	-22.1089
1650.000000	102.335	-19.4982
1675.000000	102.412	-16.9087
1700.000000	102.487	-14.3376
1725.000000	102.559	-11.7928
1750.000000	102.628	-9.2773
1775.000000	102.693	-6.7875
1800.000000	102.755	-4.3245
1825.000000	102.812	-1.8915
1850.000000	102.865	0.4957
1875.000000	102.916	2.8359
1900.000000	102.962	5.1459
1925.000000	103.005	7.4348
1950.000000	103.046	9.7115
1975.000000	103.082	11.9805
2000.000000	103.114	14.2375
2030.000000	103.147	16.9255
2060.000000	103.173	19.5923
2090.000000	103.193	22.2440
2120.000000	103.211	24.8991
2140.000000	103.223	26.6735
2180.000000	103.243	30.2478
2200.000000	103.253	32.0543
2240.000000	103.275	35.7136
2270.000000	103.290	38.5145
2300.000000	103.305	41.3817
2330.000000	103.320	44.3208
2360.000000	103.335	47.3275
2400.000000	103.359	51.4388
2430.000000	103.390	54.5638
2470.000000	103.449	58.7302
2500.000000	103.507	61.8029
2540.000000	103.597	65.7413
2580.000000	103.687	69.4625
2620.000000	103.767	73.0380
2650.000000	103.819	75.6748
2690.000000	103.874	79.1547
2720.000000	103.907	81.7568
2760.000000	103.946	85.2603
2800.000000	103.980	88.8188
2850.000000	104.023	93.3249
2900.000000	104.063	97.8765
2950.000000	104.100	102.4780
3000.000000	104.134	107.1436
3040.000000	104.161	110.9209
3070.000000	104.184	113.7782
3110.000000	104.217	117.6239
3150.000000	104.254	121.4953
3200.000000	104.307	126.3491
3250.000000	104.363	131.2263
3300.000000	104.423	136.1356
3350.000000	104.486	141.0721
3400.000000	104.551	146.0242
3450.000000	104.617	150.9713
3500.000000	104.685	155.9053
3550.000000	104.754	160.8201
3600.000000	104.823	165.7232
3650.000000	104.892	170.6351
3700.000000	104.964	175.5613
3750.000000	105.037	-179.5015
3820.000000	105.140	-172.5763
3870.000000	105.214	-167.6284
3950.000000	105.327	-159.8122
4000.000000	105.388	-154.9930
4060.000000	105.447	-149.2410
4120.000000	105.482	-143.5368
4180.000000	105.486	-137.8902
4250.000000	105.441	-131.3722
4310.000000	105.355	-125.8108
4370.000000	105.222	-120.2425
4440.000000	105.003	-113.7132
4500.000000	104.762	-108.0620
4550.000000	104.523	-103.2790
4620.000000	104.138	-96.4076
4680.000000	103.766	-90.2816
4750.000000	103.299	-82.7122
4820.000000	102.819	-74.4989
4870.000000	102.496	-68.1742
4940.000000	102.119	-58.7245
5000.000000	101.903	-50.2632
5080.000000	101.788	-38.9960
5150.000000	101.812	-29.6058
5220.000000	101.893	-20.8075
5300.000000	102.007	-11.3495
5380.000000	102.119	-2.3572
5450.000000	102.209	5.0803
5520.000000	102.281	12.1158
5600.000000	102.319	19.9813
5700.000000	102.247	29.9059
5800.000000	101.932	40.3199
5900.000000	101.323	54.3382
6000.000000	101.518	72.5014
6080.000000	102.158	82.8014
6150.000000	102.440	89.3123
6220.000000	102.503	95.8696
6300.000000	102.483	104.0587
6400.000000	102.451	114.9954
6500.000000	102.460	126.3646
6600.000000	102.526	138.0388
6700.000000	102.656	150.0049
6800.000000	102.850	162.2189
6900.000000	103.108	174.6022
7000.000000	103.437	-172.9125
7100.000000	103.849	-160.3911
7200.000000	104.356	-147.9236
7300.000000	104.962	-135.6362
7400.000000	105.659	-123.6612
7500.000000	106.411	-112.1946
7620.000000	107.284	-99.5162
7750.000000	107.998	-87.7231
7880.000000	108.220	-77.9507
8000.000000	107.816	-69.6494
8120.000000	106.794	-60.4317
8250.000000	105.116	-48.0895
8380.000000	103.082	-33.1599
8500.000000	101.072	-17.5724
8620.000000	99.052	-0.7257
8750.000000	96.918	18.6969
8850.000000	95.329	34.6400
9000.000000	93.091	61.1488
9120.000000	91.652	85.2441
9250.000000	90.996	112.8811
9380.000000	91.537	137.5031
9500.000000	92.436	153.4629
9620.000000	92.939	162.9789
9750.000000	92.691	170.2198
9880.000000	91.734	178.6278
10000.000000	90.490	-171.0789
10150.000000	88.788	-155.2297
10300.000000	87.146	-137.2185
10440.000000	85.750	-119.1849
10600.000000	84.333	-97.6038
10750.000000	83.167	-76.7070
10900.000000	82.149	-55.3064
11060.000000	81.229	-32.0374
11200.000000	80.571	-11.4346
11380.000000	79.945	15.2473
11500.000000	79.674	33.1061
11720.000000	79.481	65.7698
11800.000000	79.505	77.5905
12060.000000	79.900	115.7400
12200.000000	80.296	135.9211
12410.000000	81.076	165.3865
12500.000000	81.461	177.7368
12650.000000	82.158	-161.9291
12800.000000	82.935	-141.8793
13150.000000	85.257	-96.6399
13200.000000	85.681	-90.4546
13400.000000	87.572	-67.4326
13600.000000	89.493	-48.1837
13800.000000	91.118	-33.0984
14000.000000	91.842	-22.7744
14300.000000	89.743	4.5720
14500.000000	88.567	42.2927
14750.000000	89.654	78.5061
15000.000000	89.978	103.6058
15250.000000	89.373	131.1453
15500.000000	88.778	165.1984
15750.000000	88.974	-158.2544
16000.000000	89.749	-122.9375
16250.000000	90.855	-90.1809
16500.000000	91.990	-61.4899
16750.000000	92.579	-37.1825
17000.000000	91.898	-15.4636
17250.000000	89.255	5.5066
17500.000000	84.413	26.1804
17750.000000	77.702	45.8153
18000.000000	69.798	63.6056
18250.000000	61.381	80.4498
18500.000000	52.993	99.1794
18750.000000	45.077	122.2239
19000.000000	38.082	149.8217
19250.000000	32.330	-179.2855
19500.000000	27.674	-146.7516
19750.000000	23.715	-116.2996
