* Measurement data measured by REW V5.20 Beta 60
* Source: Microphone (Realtek USB2.0 Audio), MICROPHONE (Master Volume), R, volume: 0.100
* Format: 2M Log Swept Sine, 1 sweep at -10.0 dBFS with no timing reference
* Dated: Sep 7, 2020 3:20:16 PM
* REW Settings:
*  C-weighting compensation: Off
*  Target level: 75.0 dB
* Note: 
* Measurement: ZAX R
* Smoothing: 1/24 octave
* Frequency Step: 1/48 octave
* Start Frequency: 20.000 Hz
*
* Freq(Hz)	SPL(dB)	Phase(degrees)
20.000000	94.8	-87.5849
20.299999	94.9	-88.4270
20.600000	95.0	-89.2580
20.900000	95.0	-90.0868
21.200001	95.1	-90.9163
21.400000	95.1	-91.4686
21.799999	95.2	-92.5673
22.000000	95.2	-93.1128
22.400000	95.2	-94.1987
22.700001	95.2	-95.0150
23.000000	95.2	-95.8394
23.299999	95.2	-96.6758
23.600000	95.2	-97.5238
24.000000	95.2	-98.6630
24.299999	95.2	-99.5129
24.700001	95.2	-100.6255
25.000000	95.2	-101.4401
25.400000	95.2	-102.5028
25.799999	95.2	-103.5508
26.200001	95.2	-104.5957
26.500000	95.2	-105.3789
26.900000	95.2	-106.4155
27.200001	95.2	-107.1804
27.600000	95.2	-108.1753
28.000000	95.2	-109.1413
28.500000	95.2	-110.3213
29.000000	95.2	-111.4918
29.500000	95.2	-112.6607
30.000000	95.2	-113.8171
30.400000	95.2	-114.7235
30.700001	95.1	-115.3897
31.100000	95.1	-116.2608
31.500000	95.1	-117.1152
32.000000	95.1	-118.1627
32.500000	95.1	-119.1867
33.000000	95.1	-120.1851
33.500000	95.1	-121.1597
34.000000	95.1	-122.1168
34.500000	95.1	-123.0609
35.000000	95.0	-123.9895
35.500000	95.0	-124.8959
36.000000	95.0	-125.7765
36.500000	95.0	-126.6364
37.000000	95.0	-127.4838
37.500000	95.0	-128.3210
38.200001	95.0	-129.4642
38.700001	95.0	-130.2551
39.500000	95.0	-131.4918
40.000000	95.0	-132.2502
40.599998	94.9	-133.1316
41.200001	94.9	-133.9784
41.799999	94.9	-134.8133
42.500000	94.9	-135.7978
43.099998	94.9	-136.6346
43.700001	94.9	-137.4416
44.400002	94.8	-138.3514
45.000000	94.8	-139.1172
45.500000	94.8	-139.7427
46.200001	94.8	-140.5922
46.799999	94.8	-141.3045
47.500000	94.8	-142.1250
48.200001	94.8	-142.9177
48.700001	94.8	-143.4593
49.400002	94.7	-144.1960
50.000000	94.7	-144.8217
50.799999	94.7	-145.6476
51.500000	94.7	-146.3502
52.200001	94.7	-147.0250
53.000000	94.6	-147.7607
53.799999	94.6	-148.4892
54.500000	94.6	-149.1505
55.200001	94.6	-149.8251
56.000000	94.6	-150.5868
57.000000	94.6	-151.5327
58.000000	94.5	-152.4335
59.000000	94.5	-153.2162
60.000000	94.5	-153.9388
60.799999	94.5	-154.5224
61.500000	94.5	-155.0352
62.200001	94.5	-155.5443
63.000000	94.4	-156.1212
64.000000	94.4	-156.8224
65.000000	94.4	-157.4981
66.000000	94.4	-158.1879
67.000000	94.4	-158.8814
68.000000	94.3	-159.5250
69.000000	94.3	-160.1472
70.000000	94.3	-160.7725
71.000000	94.3	-161.3528
72.000000	94.3	-161.9064
73.000000	94.3	-162.4568
74.000000	94.3	-162.9836
75.000000	94.2	-163.5089
76.199997	94.2	-164.1518
77.500000	94.2	-164.8259
78.800003	94.2	-165.4612
80.000000	94.2	-166.0539
81.199997	94.2	-166.6895
82.500000	94.1	-167.3553
83.800003	94.1	-167.8889
85.000000	94.1	-168.3710
86.199997	94.1	-168.8959
87.500000	94.1	-169.4571
88.500000	94.1	-169.8620
90.000000	94.0	-170.4639
91.199997	94.0	-170.9393
92.500000	94.0	-171.4353
93.800003	94.0	-171.9202
95.000000	94.0	-172.3555
96.199997	93.9	-172.7789
97.500000	93.9	-173.2185
98.800003	93.9	-173.6435
100.000000	93.9	-174.0411
101.500000	93.9	-174.5674
103.000000	93.9	-175.0852
104.400002	93.8	-175.5193
106.000000	93.8	-175.9985
107.500000	93.8	-176.4540
109.000000	93.8	-176.8750
110.599998	93.8	-177.2871
112.000000	93.8	-177.6500
113.800003	93.7	-178.1338
115.000000	93.7	-178.4437
117.199997	93.7	-178.9720
118.000000	93.7	-179.1562
120.599998	93.7	-179.7190
122.000000	93.7	179.9862
124.099998	93.7	179.5470
125.000000	93.7	179.3662
126.500000	93.6	179.0706
128.000000	93.6	178.7763
131.500000	93.6	178.1024
132.000000	93.6	178.0030
134.000000	93.6	177.5948
136.000000	93.6	177.1898
138.000000	93.6	176.8071
140.000000	93.6	176.4396
143.000000	93.5	175.8713
145.000000	93.5	175.5205
147.500000	93.5	175.0999
150.000000	93.4	174.6928
152.500000	93.4	174.3251
155.000000	93.4	173.9356
157.500000	93.4	173.5227
160.000000	93.4	173.0995
162.500000	93.3	172.6965
165.000000	93.3	172.3233
167.500000	93.3	171.9824
170.000000	93.3	171.6810
172.500000	93.3	171.3933
175.000000	93.2	171.1035
177.500000	93.2	170.8219
180.000000	93.2	170.5535
182.500000	93.2	170.3187
185.000000	93.2	170.1132
187.500000	93.2	169.9221
190.000000	93.1	169.7244
192.500000	93.1	169.5295
195.000000	93.1	169.3491
197.500000	93.0	169.1848
200.000000	93.0	169.0339
203.000000	93.0	168.8513
206.000000	92.9	168.6721
209.000000	92.9	168.5070
212.000000	92.9	168.3524
214.000000	92.9	168.2521
218.000000	92.8	168.0618
220.000000	92.8	167.9784
224.000000	92.8	167.8068
227.000000	92.7	167.6805
230.000000	92.7	167.5722
233.000000	92.7	167.4722
236.000000	92.7	167.3851
240.000000	92.6	167.2954
243.000000	92.6	167.2438
247.000000	92.6	167.1856
250.000000	92.6	167.1396
254.000000	92.5	167.0577
258.000000	92.5	166.9675
262.000000	92.5	166.9169
265.000000	92.4	166.9089
269.000000	92.4	166.9048
272.000000	92.4	166.9028
276.000000	92.3	166.9179
280.000000	92.3	166.9351
285.000000	92.3	166.9373
290.000000	92.2	166.9322
295.000000	92.1	166.9730
300.000000	92.1	167.0388
304.000000	92.1	167.0984
307.000000	92.0	167.1537
311.000000	92.0	167.2512
315.000000	91.9	167.3687
320.000000	91.9	167.5238
325.000000	91.8	167.6951
330.000000	91.7	167.8677
335.000000	91.7	168.0508
340.000000	91.7	168.2525
345.000000	91.6	168.4267
350.000000	91.6	168.5792
355.000000	91.5	168.7185
360.000000	91.5	168.8630
365.000000	91.4	169.0229
370.000000	91.4	169.1914
375.000000	91.3	169.3647
382.000000	91.2	169.6339
387.000000	91.2	169.8464
395.000000	91.1	170.2117
400.000000	91.0	170.4487
406.000000	91.0	170.7175
412.000000	90.9	170.9807
418.000000	90.8	171.2304
425.000000	90.8	171.5087
431.000000	90.7	171.7555
437.000000	90.7	171.9931
444.000000	90.6	172.2603
450.000000	90.6	172.4955
455.000000	90.5	172.6980
462.000000	90.5	172.9863
468.000000	90.4	173.2412
475.000000	90.4	173.5604
482.000000	90.3	173.8885
487.000000	90.3	174.0989
494.000000	90.2	174.3138
500.000000	90.2	174.4313
508.000000	90.1	174.5784
515.000000	90.0	174.7788
522.000000	90.0	175.0706
530.000000	89.9	175.4659
538.000000	89.9	175.8713
545.000000	89.8	176.2256
552.000000	89.8	176.5840
560.000000	89.8	176.9979
570.000000	89.7	177.5251
580.000000	89.7	178.0761
590.000000	89.6	178.6471
600.000000	89.6	179.2249
608.000000	89.5	179.6874
615.000000	89.5	-179.9056
622.000000	89.5	-179.4934
630.000000	89.4	-179.0218
640.000000	89.4	-178.4416
650.000000	89.4	-177.8686
660.000000	89.3	-177.3064
670.000000	89.3	-176.7560
680.000000	89.3	-176.2074
690.000000	89.3	-175.6601
700.000000	89.3	-175.1140
710.000000	89.2	-174.5647
720.000000	89.2	-174.0096
730.000000	89.2	-173.4433
740.000000	89.2	-172.8712
750.000000	89.2	-172.2986
762.000000	89.1	-171.6031
775.000000	89.1	-170.8416
788.000000	89.1	-170.0936
800.000000	89.1	-169.4376
812.000000	89.2	-168.7952
825.000000	89.2	-168.0672
838.000000	89.2	-167.2994
850.000000	89.2	-166.5807
862.000000	89.2	-165.8772
875.000000	89.3	-165.1355
885.000000	89.3	-164.5709
900.000000	89.3	-163.7240
912.000000	89.4	-163.0522
925.000000	89.4	-162.3397
938.000000	89.5	-161.6438
950.000000	89.6	-161.0040
962.000000	89.6	-160.3641
975.000000	89.7	-159.6745
988.000000	89.8	-158.9819
1000.000000	89.9	-158.3404
1015.000000	90.0	-157.5488
1030.000000	90.1	-156.7608
1044.000000	90.3	-156.0241
1060.000000	90.4	-155.1969
1075.000000	90.6	-154.4394
1090.000000	90.7	-153.7016
1106.000000	90.9	-152.9439
1120.000000	91.1	-152.2950
1138.000000	91.3	-151.4468
1150.000000	91.4	-150.8632
1172.000000	91.7	-149.7764
1180.000000	91.8	-149.3842
1206.000000	92.1	-148.1297
1220.000000	92.2	-147.4531
1241.000000	92.5	-146.4353
1250.000000	92.6	-146.0062
1265.000000	92.8	-145.3058
1280.000000	92.9	-144.6216
1315.000000	93.3	-143.0505
1320.000000	93.3	-142.8252
1340.000000	93.5	-141.9290
1360.000000	93.6	-141.0597
1380.000000	93.8	-140.2266
1400.000000	93.9	-139.4190
1430.000000	94.1	-138.1935
1450.000000	94.3	-137.3767
1475.000000	94.4	-136.3734
1500.000000	94.5	-135.3716
1525.000000	94.7	-134.3781
1550.000000	94.8	-133.4154
1575.000000	94.9	-132.5117
1600.000000	95.0	-131.6322
1625.000000	95.1	-130.7493
1650.000000	95.2	-129.8985
1675.000000	95.3	-129.1079
1700.000000	95.4	-128.3716
1725.000000	95.4	-127.7096
1750.000000	95.5	-127.1573
1775.000000	95.6	-126.8238
1800.000000	95.6	-126.9010
1825.000000	95.7	-127.3487
1850.000000	95.8	-127.9830
1875.000000	95.8	-128.7204
1900.000000	95.9	-129.5568
1925.000000	96.0	-130.5076
1950.000000	96.0	-131.5756
1975.000000	96.1	-132.7378
2000.000000	96.2	-133.9752
2030.000000	96.2	-135.6029
2060.000000	96.3	-137.4410
2090.000000	96.4	-139.5142
2120.000000	96.5	-141.7986
2140.000000	96.5	-143.4307
2180.000000	96.6	-146.9199
2200.000000	96.6	-148.7470
2240.000000	96.7	-152.4845
2270.000000	96.7	-155.3032
2300.000000	96.8	-158.0993
2330.000000	96.8	-160.8403
2360.000000	96.8	-163.4841
2400.000000	96.9	-166.8099
2430.000000	96.9	-169.1425
2470.000000	96.9	-172.0045
2500.000000	96.9	-173.9352
2540.000000	96.9	-176.1806
2580.000000	96.9	-178.0563
2620.000000	96.9	-179.6151
2650.000000	96.9	179.4103
2690.000000	96.9	178.3272
2720.000000	96.9	177.6575
2760.000000	96.8	176.9301
2800.000000	96.8	176.3383
2850.000000	96.8	175.7936
2900.000000	96.7	175.5694
2950.000000	96.7	175.7686
3000.000000	96.7	176.4618
3040.000000	96.7	177.3727
3070.000000	96.7	178.2263
3110.000000	96.7	179.5522
3150.000000	96.7	-179.0098
3200.000000	96.8	-177.3702
3250.000000	96.9	-176.2195
3300.000000	96.9	-175.6821
3350.000000	97.0	-175.5924
3400.000000	97.0	-175.6527
3450.000000	97.1	-175.6308
3500.000000	97.1	-175.4657
3550.000000	97.1	-175.2101
3600.000000	97.2	-174.9157
3650.000000	97.2	-174.5815
3700.000000	97.3	-174.2299
3750.000000	97.4	-173.9149
3820.000000	97.5	-173.6414
3870.000000	97.6	-173.5995
3950.000000	97.8	-173.8667
4000.000000	97.9	-174.2251
4060.000000	98.0	-174.8379
4120.000000	98.2	-175.8040
4180.000000	98.3	-177.2202
4250.000000	98.5	-179.4793
4310.000000	98.7	178.0358
4370.000000	98.8	175.1732
4440.000000	98.9	171.5415
4500.000000	98.9	168.4271
4550.000000	98.9	166.0818
4620.000000	98.7	163.3188
4680.000000	98.4	161.3248
4750.000000	97.9	159.2769
4820.000000	97.5	157.4361
4870.000000	97.3	156.2506
4940.000000	96.8	154.9656
5000.000000	96.4	154.5873
5080.000000	95.7	155.9122
5150.000000	95.0	159.2655
5220.000000	94.6	164.2899
5300.000000	94.7	170.1574
5380.000000	95.2	174.5009
5450.000000	95.8	177.2515
5520.000000	96.8	177.9864
5600.000000	97.7	174.4005
5700.000000	98.1	166.1497
5800.000000	97.7	158.8814
5900.000000	96.9	154.6888
6000.000000	96.0	153.1936
6080.000000	95.3	153.2635
6150.000000	94.8	153.9329
6220.000000	94.3	155.0301
6300.000000	93.9	156.6673
6400.000000	93.5	159.1918
6500.000000	93.3	162.2664
6600.000000	93.2	165.7954
6700.000000	93.2	169.7613
6800.000000	93.3	174.2794
6900.000000	93.4	179.4033
7000.000000	93.5	-174.6333
7100.000000	93.5	-167.3246
7200.000000	93.4	-158.0794
7300.000000	93.2	-146.5161
7400.000000	93.1	-133.0619
7500.000000	93.2	-119.3721
7620.000000	93.9	-106.0814
7750.000000	95.2	-99.1092
7880.000000	96.6	-100.6812
8000.000000	97.5	-108.0456
8120.000000	97.8	-117.7911
8250.000000	97.5	-127.2402
8380.000000	96.8	-133.8468
8500.000000	96.0	-137.5673
8620.000000	95.1	-139.6602
8750.000000	94.3	-140.6917
8850.000000	93.6	-140.9085
9000.000000	92.9	-140.5928
9120.000000	92.4	-139.9602
9250.000000	92.0	-139.1279
9380.000000	91.7	-138.2147
9500.000000	91.6	-137.4433
9620.000000	91.7	-136.9934
9750.000000	92.0	-137.0342
9880.000000	92.5	-137.7541
10000.000000	92.9	-139.2763
10150.000000	93.1	-142.7718
10300.000000	93.1	-148.6031
10440.000000	93.4	-156.5408
10600.000000	93.6	-168.2140
10750.000000	93.7	179.3806
10900.000000	93.7	167.1078
11060.000000	93.5	155.6410
11200.000000	93.1	147.5519
11380.000000	92.1	140.0021
11500.000000	91.4	136.5292
11720.000000	89.9	132.4329
11800.000000	89.4	131.5362
12060.000000	87.6	130.7003
12200.000000	86.6	131.9986
12410.000000	85.4	137.5086
12500.000000	84.9	140.8782
12650.000000	84.4	147.1223
12800.000000	84.2	153.8418
13150.000000	85.0	170.0349
13200.000000	85.2	172.2963
13400.000000	86.2	-179.0853
13600.000000	87.2	-171.7863
13800.000000	88.2	-166.9312
14000.000000	89.1	-165.6138
14300.000000	90.3	-172.7527
14500.000000	90.6	176.5005
14750.000000	89.9	162.7326
15000.000000	88.4	155.8756
15250.000000	86.4	156.3439
15500.000000	84.1	162.2148
15750.000000	81.5	173.1798
16000.000000	78.8	-172.3813
16250.000000	76.9	-166.1868
16500.000000	74.4	-167.6953
16750.000000	71.7	-166.7094
17000.000000	69.3	-164.7647
17250.000000	67.4	-164.0006
17500.000000	65.9	-165.6168
17750.000000	65.6	-170.5625
18000.000000	66.6	-179.1621
18250.000000	67.6	169.0469
18500.000000	69.5	156.1021
18750.000000	71.5	144.7265
19000.000000	71.1	135.9289
19250.000000	68.0	129.2050
19500.000000	64.0	124.3780
19750.000000	61.1	121.9912
