* Measurement data measured by REW V5.20
* Source: Microphone (Realtek USB2.0 Audio), MICROPHONE (Master Volume), L, volume: 0.500. Timing signal peak level -30.1 dBFS, measurement signal peak level -14.5 dBFS
* Format: 4M Log Swept Sine, 1 sweep at -10.0 dBFS using an acoustic timing reference
* Dated: Aug 21, 2021 12:12:27 PM
* REW Settings:
*  C-weighting compensation: Off
*  Target level: 75.0 dB
* Note: Delay -1.7952 ms (-616 mm, -(2 ft 0.24 in)) using estimated IR delay relative to Acoustic reference on SPEAKER L with no timing offset
* Measurement: Variations L
* Smoothing: 1/24 octave
* Frequency Step: 1/48 octave
* Start Frequency: 20.000 Hz
*
* Freq(Hz)	SPL(dB)	Phase(degrees)
20.000000	100.7	-94.5765
20.299999	100.8	-95.8672
20.600000	100.9	-97.1154
20.900000	101.0	-98.3322
21.200001	101.1	-99.5285
21.400000	101.1	-100.3183
21.799999	101.2	-101.8801
22.000000	101.2	-102.6497
22.400000	101.3	-104.1574
22.700001	101.3	-105.2531
23.000000	101.3	-106.3159
23.299999	101.3	-107.3477
23.600000	101.4	-108.3544
24.000000	101.4	-109.6710
24.299999	101.4	-110.6475
24.700001	101.5	-111.9396
25.000000	101.5	-112.8979
25.400000	101.5	-114.1520
25.799999	101.5	-115.3705
26.200001	101.6	-116.5553
26.500000	101.6	-117.4288
26.900000	101.6	-118.5829
27.200001	101.6	-119.4412
27.600000	101.6	-120.5642
28.000000	101.6	-121.6440
28.500000	101.7	-122.9159
29.000000	101.7	-124.1273
29.500000	101.7	-125.3301
30.000000	101.7	-126.5467
30.400000	101.7	-127.5089
30.700001	101.7	-128.2077
31.100000	101.7	-129.1008
31.500000	101.7	-129.9625
32.000000	101.7	-131.0336
32.500000	101.7	-132.1196
33.000000	101.7	-133.1934
33.500000	101.7	-134.2125
34.000000	101.7	-135.1689
34.500000	101.7	-136.0898
35.000000	101.7	-136.9974
35.500000	101.7	-137.8836
36.000000	101.7	-138.7311
36.500000	101.7	-139.5451
37.000000	101.7	-140.3525
37.500000	101.7	-141.1744
38.200001	101.7	-142.3442
38.700001	101.7	-143.1751
39.500000	101.6	-144.4586
40.000000	101.6	-145.2093
40.599998	101.6	-146.0541
41.200001	101.5	-146.8844
41.799999	101.5	-147.7540
42.500000	101.5	-148.7925
43.099998	101.5	-149.6087
43.700001	101.4	-150.3139
44.400002	101.4	-151.0829
45.000000	101.4	-151.7972
45.500000	101.4	-152.4462
46.200001	101.4	-153.3704
46.799999	101.3	-154.1151
47.500000	101.3	-154.9245
48.200001	101.2	-155.6901
48.700001	101.2	-156.1957
49.400002	101.2	-156.8416
50.000000	101.1	-157.3946
50.799999	101.1	-158.2012
51.500000	101.0	-158.9111
52.200001	101.0	-159.5665
53.000000	100.9	-160.2903
53.799999	100.9	-160.9825
54.500000	100.8	-161.5288
55.200001	100.8	-162.0707
56.000000	100.7	-162.7391
57.000000	100.6	-163.5671
58.000000	100.5	-164.2982
59.000000	100.5	-164.9995
60.000000	100.4	-165.7671
60.799999	100.3	-166.3569
61.500000	100.3	-166.8433
62.200001	100.2	-167.3290
63.000000	100.2	-167.8110
64.000000	100.1	-168.2497
65.000000	100.0	-168.7452
66.000000	100.0	-169.3373
67.000000	99.9	-169.9174
68.000000	99.8	-170.4776
69.000000	99.7	-170.9200
70.000000	99.6	-171.2422
71.000000	99.6	-171.6206
72.000000	99.5	-172.0733
73.000000	99.5	-172.4702
74.000000	99.4	-172.8265
75.000000	99.3	-173.1857
76.199997	99.1	-173.5257
77.500000	99.0	-173.8475
78.800003	98.9	-174.2608
80.000000	98.8	-174.5126
81.199997	98.8	-174.6341
82.500000	98.8	-174.8641
83.800003	98.7	-175.3494
85.000000	98.5	-175.3736
86.199997	98.4	-175.1698
87.500000	98.3	-175.4575
88.500000	98.2	-175.7976
90.000000	98.0	-176.0663
91.199997	97.9	-176.2834
92.500000	97.8	-176.5050
93.800003	97.7	-176.5872
95.000000	97.6	-176.5425
96.199997	97.5	-176.4962
97.500000	97.4	-176.5011
98.800003	97.3	-176.4961
100.000000	97.2	-176.4675
101.500000	97.0	-176.3754
103.000000	96.9	-176.2119
104.400002	96.8	-176.1055
106.000000	96.7	-175.9339
107.500000	96.6	-175.7192
109.000000	96.4	-175.5416
110.599998	96.3	-175.3190
112.000000	96.2	-175.0849
113.800003	96.1	-174.7923
115.000000	96.0	-174.5820
117.199997	95.8	-174.0898
118.000000	95.7	-173.8808
120.599998	95.5	-173.2249
122.000000	95.4	-172.9264
124.099998	95.2	-172.4056
125.000000	95.2	-172.1221
126.500000	95.1	-171.6202
128.000000	95.0	-171.1226
131.500000	94.7	-169.9371
132.000000	94.7	-169.7710
134.000000	94.5	-169.0763
136.000000	94.4	-168.2898
138.000000	94.3	-167.4064
140.000000	94.1	-166.4292
143.000000	93.9	-165.1975
145.000000	93.7	-164.3636
147.500000	93.5	-163.2134
150.000000	93.4	-162.1703
152.500000	93.2	-160.9807
155.000000	93.0	-159.7616
157.500000	92.8	-158.6007
160.000000	92.7	-157.2458
162.500000	92.5	-155.6564
165.000000	92.3	-154.0428
167.500000	92.2	-152.4944
170.000000	92.0	-150.9807
172.500000	91.9	-149.2688
175.000000	91.7	-147.4011
177.500000	91.5	-145.5875
180.000000	91.3	-143.6625
182.500000	91.2	-141.3686
185.000000	91.3	-139.1382
187.500000	91.3	-137.1141
190.000000	91.3	-135.4261
192.500000	91.3	-134.0953
195.000000	91.3	-132.9194
197.500000	91.3	-131.7833
200.000000	91.2	-130.5904
203.000000	91.1	-129.0741
206.000000	91.0	-127.5685
209.000000	91.0	-125.9828
212.000000	90.9	-124.3163
214.000000	90.8	-123.2330
218.000000	90.7	-121.0091
220.000000	90.7	-119.9256
224.000000	90.6	-118.0085
227.000000	90.6	-116.3753
230.000000	90.6	-114.3959
233.000000	90.5	-112.3937
236.000000	90.5	-110.3816
240.000000	90.4	-107.9864
243.000000	90.4	-106.3251
247.000000	90.3	-103.7434
250.000000	90.3	-101.6316
254.000000	90.3	-98.9384
258.000000	90.4	-96.4652
262.000000	90.3	-94.1574
265.000000	90.2	-92.3801
269.000000	90.0	-89.8623
272.000000	90.1	-88.0471
276.000000	90.2	-85.9653
280.000000	90.3	-84.0255
285.000000	90.3	-81.4810
290.000000	90.3	-78.4353
295.000000	90.3	-75.5936
300.000000	90.3	-72.7620
304.000000	90.3	-70.4958
307.000000	90.3	-68.9298
311.000000	90.4	-66.9039
315.000000	90.4	-64.8700
320.000000	90.4	-62.3559
325.000000	90.4	-59.9926
330.000000	90.4	-57.4914
335.000000	90.4	-54.8093
340.000000	90.4	-51.9571
345.000000	90.4	-49.1515
350.000000	90.4	-46.5027
355.000000	90.5	-43.9589
360.000000	90.5	-41.3593
365.000000	90.5	-38.7366
370.000000	90.5	-36.1961
375.000000	90.5	-33.5547
382.000000	90.5	-29.7834
387.000000	90.5	-27.1950
395.000000	90.5	-23.0689
400.000000	90.5	-20.4694
406.000000	90.5	-17.3766
412.000000	90.5	-14.2749
418.000000	90.5	-11.0723
425.000000	90.6	-7.3559
431.000000	90.6	-4.2296
437.000000	90.6	-1.0711
444.000000	90.6	2.6795
450.000000	90.6	5.9105
455.000000	90.6	8.5829
462.000000	90.6	12.3339
468.000000	90.6	15.5603
475.000000	90.6	19.3258
482.000000	90.6	23.0794
487.000000	90.6	25.7579
494.000000	90.6	29.5369
500.000000	90.6	32.7868
508.000000	90.7	37.1050
515.000000	90.7	40.8788
522.000000	90.7	44.6634
530.000000	90.7	49.0282
538.000000	90.7	53.4008
545.000000	90.7	57.2191
552.000000	90.7	61.0419
560.000000	90.7	65.4332
570.000000	90.7	70.9464
580.000000	90.7	76.5143
590.000000	90.7	82.1237
600.000000	90.7	87.7332
608.000000	90.7	92.2168
615.000000	90.7	96.1556
622.000000	90.7	100.1075
630.000000	90.7	104.6299
640.000000	90.7	110.2938
650.000000	90.7	115.9835
660.000000	90.7	121.7026
670.000000	90.7	127.3805
680.000000	90.7	132.8556
690.000000	90.8	138.1048
700.000000	90.8	143.2868
710.000000	90.8	148.4928
720.000000	90.8	153.7268
730.000000	90.8	158.9713
740.000000	90.8	164.2277
750.000000	90.8	169.4995
762.000000	90.8	175.8542
775.000000	90.8	-177.2044
788.000000	90.8	-170.2416
800.000000	90.8	-163.8322
812.000000	90.8	-157.4340
825.000000	90.8	-150.4969
838.000000	90.9	-143.5119
850.000000	90.9	-137.0392
862.000000	90.9	-130.5633
875.000000	91.0	-123.5263
885.000000	91.0	-118.0885
900.000000	91.0	-109.8965
912.000000	91.1	-103.3190
925.000000	91.1	-96.1804
938.000000	91.2	-89.0431
950.000000	91.2	-82.4572
962.000000	91.3	-75.8557
975.000000	91.4	-68.6836
988.000000	91.5	-61.5083
1000.000000	91.5	-54.8853
1015.000000	91.6	-46.6011
1030.000000	91.7	-38.2744
1044.000000	91.8	-30.4371
1060.000000	92.0	-21.4315
1075.000000	92.1	-12.9668
1090.000000	92.2	-4.4852
1106.000000	92.4	4.5959
1120.000000	92.5	12.5925
1138.000000	92.7	22.9268
1150.000000	92.8	29.8167
1172.000000	93.0	42.4281
1180.000000	93.0	47.0227
1206.000000	93.3	62.0405
1220.000000	93.4	70.1666
1241.000000	93.6	82.3730
1250.000000	93.7	87.6204
1265.000000	93.8	96.4067
1280.000000	93.9	105.2371
1315.000000	94.1	125.9185
1320.000000	94.1	128.8815
1340.000000	94.3	140.7606
1360.000000	94.4	152.6935
1380.000000	94.5	164.7212
1400.000000	94.6	176.8486
1430.000000	94.7	-164.8857
1450.000000	94.8	-152.6636
1475.000000	94.9	-137.3976
1500.000000	95.0	-122.1381
1525.000000	95.1	-106.7857
1550.000000	95.1	-91.3170
1575.000000	95.2	-75.7833
1600.000000	95.3	-60.2222
1625.000000	95.4	-44.6345
1650.000000	95.5	-28.9996
1675.000000	95.6	-13.3235
1700.000000	95.7	2.3634
1725.000000	95.8	18.0443
1750.000000	95.9	33.7330
1775.000000	96.1	49.4421
1800.000000	96.2	65.1644
1825.000000	96.3	80.8995
1850.000000	96.4	96.6219
1875.000000	96.6	112.3301
1900.000000	96.7	128.0640
1925.000000	96.8	143.8550
1950.000000	97.0	159.7048
1975.000000	97.1	175.5874
2000.000000	97.3	-168.4927
2030.000000	97.4	-149.2678
2060.000000	97.6	-129.8893
2090.000000	97.8	-110.4775
2120.000000	97.9	-91.1284
2140.000000	98.0	-78.2695
2180.000000	98.2	-52.5480
2200.000000	98.3	-39.6338
2240.000000	98.5	-13.7111
2270.000000	98.7	5.7919
2300.000000	98.8	25.2987
2330.000000	98.9	44.5543
2360.000000	99.1	63.1669
2400.000000	99.2	87.0413
2430.000000	99.3	104.5847
2470.000000	99.5	127.7351
2500.000000	99.6	145.0825
2540.000000	99.7	168.3287
2580.000000	99.8	-168.3236
2620.000000	99.9	-144.9897
2650.000000	100.0	-127.5446
2690.000000	100.1	-104.3489
2720.000000	100.1	-86.9591
2760.000000	100.1	-63.7308
2800.000000	100.2	-40.4308
2850.000000	100.1	-11.2058
2900.000000	100.1	18.1338
2950.000000	100.1	47.5782
3000.000000	100.1	77.0868
3040.000000	100.1	100.7891
3070.000000	100.0	118.6550
3110.000000	100.0	142.5695
3150.000000	99.9	166.4854
3200.000000	99.8	-163.6193
3250.000000	99.7	-133.6401
3300.000000	99.6	-103.6290
3350.000000	99.4	-73.4625
3400.000000	99.2	-42.9561
3450.000000	99.0	-12.0865
3500.000000	98.8	19.0032
3550.000000	98.6	50.2146
3600.000000	98.4	81.5586
3650.000000	98.2	113.1431
3700.000000	98.0	145.0256
3750.000000	97.8	177.1855
3820.000000	97.6	-137.3574
3870.000000	97.4	-104.5947
3950.000000	97.1	-51.8618
4000.000000	97.0	-18.7729
4060.000000	96.8	20.9172
4120.000000	96.6	60.5283
4180.000000	96.5	100.1631
4250.000000	96.3	146.6045
4310.000000	96.2	-173.5107
4370.000000	96.1	-133.6250
4440.000000	96.0	-87.0439
4500.000000	95.8	-46.9888
4550.000000	95.6	-13.4893
4620.000000	95.4	33.5757
4680.000000	95.2	74.0046
4750.000000	94.9	121.3010
4820.000000	94.7	168.8281
4870.000000	94.6	-157.0149
4940.000000	94.4	-108.8967
5000.000000	94.3	-67.4653
5080.000000	94.1	-11.9604
5150.000000	94.0	36.7998
5220.000000	93.9	85.5349
5300.000000	93.7	141.3438
5380.000000	93.5	-162.4854
5450.000000	93.4	-113.0342
5520.000000	93.3	-63.2048
5600.000000	93.1	-5.7214
5700.000000	92.9	66.5789
5800.000000	92.7	138.8203
5900.000000	92.5	-148.9082
6000.000000	92.2	-76.1655
6080.000000	91.9	-17.5935
6150.000000	91.7	33.9399
6220.000000	91.5	85.7415
6300.000000	91.4	145.1970
6400.000000	91.3	-140.1011
6500.000000	91.3	-64.6377
6600.000000	91.4	11.8120
6700.000000	91.5	89.0522
6800.000000	91.7	166.8081
6900.000000	91.8	-114.6548
7000.000000	91.9	-34.8511
7100.000000	92.0	46.2402
7200.000000	91.8	128.9092
7300.000000	91.4	-146.2812
7400.000000	90.8	-59.3735
7500.000000	90.2	28.8755
7620.000000	89.9	134.2861
7750.000000	90.3	-115.8091
7880.000000	91.2	-12.4424
8000.000000	92.0	77.8569
8120.000000	92.5	165.0874
8250.000000	92.5	-101.5225
8380.000000	92.0	-6.6514
8500.000000	91.1	83.4961
8620.000000	90.1	175.8301
8750.000000	89.0	-82.5742
8850.000000	88.3	-3.8506
9000.000000	87.2	114.9512
9120.000000	86.5	-149.1948
9250.000000	85.9	-44.6836
9380.000000	85.3	60.1099
9500.000000	84.9	156.9087
9620.000000	84.6	-106.0781
9750.000000	84.5	-0.8164
9880.000000	84.5	103.2012
10000.000000	84.6	-163.6045
10150.000000	84.6	-50.5566
10300.000000	84.6	60.8242
10440.000000	84.6	163.9414
10600.000000	84.6	-79.0723
10750.000000	84.7	29.9961
10900.000000	84.9	138.5903
11060.000000	85.2	-105.8364
11200.000000	85.4	-4.5562
11380.000000	85.6	126.4302
11500.000000	85.6	-145.8657
11720.000000	85.4	15.8833
11800.000000	85.2	75.1426
12060.000000	84.2	-90.9473
12200.000000	83.7	14.2734
12410.000000	82.8	173.5264
12500.000000	82.5	-117.7422
12650.000000	82.1	-2.6260
12800.000000	82.0	112.9922
13150.000000	82.6	22.5625
13200.000000	82.7	61.0391
13400.000000	83.1	-144.8438
13600.000000	83.4	9.7100
13800.000000	83.3	164.4531
14000.000000	83.0	-40.8291
14300.000000	82.7	-168.1338
14500.000000	82.9	-12.6494
14750.000000	83.9	-178.3359
15000.000000	85.2	15.6055
15250.000000	86.4	-151.6758
15500.000000	87.2	39.5186
15750.000000	87.4	-131.1602
16000.000000	86.6	56.6074
16250.000000	84.8	-115.6602
16500.000000	82.5	73.5605
16750.000000	80.2	-95.2363
17000.000000	78.1	97.3330
17250.000000	76.1	-69.8652
17500.000000	74.4	122.3066
17750.000000	73.8	-46.7744
18000.000000	74.7	142.3447
18250.000000	75.9	-30.8369
18500.000000	78.2	153.7246
18750.000000	80.4	-22.6621
19000.000000	79.9	162.1699
19250.000000	76.7	-10.2041
19500.000000	72.3	177.8223
19750.000000	68.9	-11.7324
