* Measurement data measured by REW V5.20 Beta 59
* Source: Microphone (Realtek USB2.0 Audio), MICROPHONE (Master Volume), L, volume: 0.588. Timing signal peak level -19.2 dBFS, measurement signal peak level -7.6 dBFS
* Format: 2M Log Swept Sine, 1 sweep at -10.0 dBFS using an acoustic timing reference
* Dated: Aug 8, 2020 11:56:26 AM
* REW Settings:
*  C-weighting compensation: Off
*  Target level: 75.0 dB
* Note: Delay -0.1426 ms (-49 mm, -1.93 in) using estimated IR delay relative to Acoustic reference on HEADPHONE L with no timing offset
* Measurement: E1DA 9038S Gen 3 L
* Smoothing: 1/24 octave
* Frequency Step: 1/48 octave
* Start Frequency: 20.000 Hz
*
* Freq(Hz)	SPL(dB)	Phase(degrees)
20.000000	75.235970	96.1338
20.299999	75.332718	94.6739
20.600000	75.425049	93.2487
20.900000	75.512154	91.8607
21.200001	75.592125	90.5113
21.400000	75.639969	89.6326
21.799999	75.717316	87.9205
22.000000	75.745621	87.0844
22.400000	75.786163	85.4455
22.700001	75.812309	84.2403
23.000000	75.841225	83.0531
23.299999	75.872910	81.8838
23.600000	75.904007	80.7340
24.000000	75.941879	79.2371
24.299999	75.968773	78.1451
24.700001	76.003517	76.7312
25.000000	76.028641	75.6989
25.400000	76.061569	74.3511
25.799999	76.093651	73.0258
26.200001	76.121826	71.7190
26.500000	76.139046	70.7541
26.900000	76.158920	69.4944
27.200001	76.174232	68.5734
27.600000	76.198502	67.3762
28.000000	76.228310	66.2084
28.500000	76.269257	64.7786
29.000000	76.298470	63.3776
29.500000	76.305847	62.0121
30.000000	76.302536	60.6884
30.400000	76.300728	59.6578
30.700001	76.301743	58.8989
31.100000	76.307777	57.9041
31.500000	76.319656	56.9301
32.000000	76.338005	55.7459
32.500000	76.353485	54.5972
33.000000	76.364754	53.4699
33.500000	76.374069	52.3497
34.000000	76.380882	51.2390
34.500000	76.383034	50.1569
35.000000	76.382286	49.1201
35.500000	76.383301	48.1238
36.000000	76.388168	47.1461
36.500000	76.394089	46.1703
37.000000	76.396904	45.2003
37.500000	76.395348	44.2517
38.200001	76.388931	42.9730
38.700001	76.383339	42.0866
39.500000	76.371353	40.6932
40.000000	76.360619	39.8369
40.599998	76.345390	38.8333
41.200001	76.328888	37.8663
41.799999	76.312088	36.9374
42.500000	76.294327	35.8806
43.099998	76.280182	34.9820
43.700001	76.262688	34.1029
44.400002	76.237602	33.1317
45.000000	76.216476	32.3394
45.500000	76.200226	31.6866
46.200001	76.177582	30.7721
46.799999	76.156609	29.9995
47.500000	76.129379	29.1206
48.200001	76.098648	28.2523
48.700001	76.074913	27.6346
49.400002	76.039902	26.7871
50.000000	76.009674	26.0847
50.799999	75.971336	25.1710
51.500000	75.937820	24.3831
52.200001	75.899826	23.6188
53.000000	75.848953	22.7879
53.799999	75.796310	21.9822
54.500000	75.756744	21.2803
55.200001	75.722023	20.5854
56.000000	75.681435	19.8170
57.000000	75.628067	18.9044
58.000000	75.570724	18.0199
59.000000	75.511330	17.1521
60.000000	75.454079	16.3094
60.799999	75.409454	15.6541
61.500000	75.370926	15.1019
62.200001	75.333244	14.5697
63.000000	75.291061	13.9774
64.000000	75.238602	13.2565
65.000000	75.184166	12.5568
66.000000	75.124557	11.8838
67.000000	75.063644	11.2296
68.000000	75.004128	10.5742
69.000000	74.945175	9.9324
70.000000	74.886726	9.3198
71.000000	74.829445	8.7363
72.000000	74.773872	8.1755
73.000000	74.718018	7.6388
74.000000	74.660454	7.1239
75.000000	74.600700	6.6210
76.199997	74.525833	6.0358
77.500000	74.444588	5.4181
78.800003	74.369698	4.8195
80.000000	74.307121	4.2911
81.199997	74.243927	3.7997
82.500000	74.173973	3.2992
83.800003	74.101860	2.8003
85.000000	74.034592	2.3700
86.199997	73.968338	1.9659
87.500000	73.891586	1.5229
88.500000	73.827415	1.1835
90.000000	73.732712	0.7058
91.199997	73.663460	0.3436
92.500000	73.593964	-0.0291
93.800003	73.526779	-0.3784
95.000000	73.465340	-0.6833
96.199997	73.405083	-0.9727
97.500000	73.341042	-1.2743
98.800003	73.275681	-1.5667
100.000000	73.214188	-1.8258
101.500000	73.137955	-2.1334
103.000000	73.063133	-2.4211
104.400002	72.992798	-2.6710
106.000000	72.912537	-2.9362
107.500000	72.838066	-3.1757
109.000000	72.763809	-3.4043
110.599998	72.685562	-3.6307
112.000000	72.619003	-3.8124
113.800003	72.538658	-4.0303
115.000000	72.487770	-4.1671
117.199997	72.395988	-4.3934
118.000000	72.363197	-4.4694
120.599998	72.259079	-4.7098
122.000000	72.203255	-4.8302
124.099998	72.122658	-4.9833
125.000000	72.089844	-5.0403
126.500000	72.037804	-5.1226
128.000000	71.988197	-5.1904
131.500000	71.871346	-5.3099
132.000000	71.854706	-5.3287
134.000000	71.788086	-5.4095
136.000000	71.720818	-5.4746
138.000000	71.648590	-5.5212
140.000000	71.570267	-5.5493
143.000000	71.448189	-5.5605
145.000000	71.372810	-5.5616
147.500000	71.289970	-5.5792
150.000000	71.212845	-5.5536
152.500000	71.136604	-5.5199
155.000000	71.058609	-5.5356
157.500000	70.980408	-5.5223
160.000000	70.912430	-5.4137
162.500000	70.846741	-5.2850
165.000000	70.778603	-5.1691
167.500000	70.713707	-5.0703
170.000000	70.655266	-4.9592
172.500000	70.603836	-4.8400
175.000000	70.549301	-4.7326
177.500000	70.492661	-4.6096
180.000000	70.437706	-4.4844
182.500000	70.385536	-4.3469
185.000000	70.335381	-4.1918
187.500000	70.281097	-4.0242
190.000000	70.219322	-3.8549
192.500000	70.151581	-3.6855
195.000000	70.086533	-3.5159
197.500000	70.027672	-3.3589
200.000000	69.971588	-3.1899
203.000000	69.907990	-2.9620
206.000000	69.850761	-2.7350
209.000000	69.801964	-2.4976
212.000000	69.759003	-2.2249
214.000000	69.730927	-2.0417
218.000000	69.665413	-1.7390
220.000000	69.629631	-1.5966
224.000000	69.563004	-1.2961
227.000000	69.522812	-1.0541
230.000000	69.489273	-0.7994
233.000000	69.454971	-0.5360
236.000000	69.417969	-0.2820
240.000000	69.368462	0.0386
243.000000	69.335785	0.2990
247.000000	69.293106	0.6483
250.000000	69.256828	0.8738
254.000000	69.210083	1.1591
258.000000	69.169937	1.5173
262.000000	69.136971	1.9213
265.000000	69.110512	2.2139
269.000000	69.070770	2.5895
272.000000	69.042984	2.8575
276.000000	69.008469	3.1940
280.000000	68.968750	3.5063
285.000000	68.923149	3.9030
290.000000	68.882256	4.3371
295.000000	68.837296	4.7731
300.000000	68.799362	5.2049
304.000000	68.775482	5.5550
307.000000	68.757721	5.8276
311.000000	68.731773	6.2234
315.000000	68.704956	6.5924
320.000000	68.672531	6.9850
325.000000	68.641441	7.3694
330.000000	68.608849	7.7803
335.000000	68.582932	8.2266
340.000000	68.565353	8.6381
345.000000	68.546722	9.0179
350.000000	68.524223	9.3916
355.000000	68.501472	9.7642
360.000000	68.480209	10.1670
365.000000	68.459183	10.5914
370.000000	68.433289	10.9948
375.000000	68.405586	11.3569
382.000000	68.378479	11.8881
387.000000	68.362831	12.3013
395.000000	68.335533	12.9028
400.000000	68.316933	13.2528
406.000000	68.295036	13.6937
412.000000	68.275459	14.1465
418.000000	68.256256	14.5752
425.000000	68.237251	15.0709
431.000000	68.225586	15.4965
437.000000	68.213341	15.8998
444.000000	68.195496	16.3616
450.000000	68.180664	16.7761
455.000000	68.169510	17.1274
462.000000	68.154236	17.6063
468.000000	68.140175	18.0051
475.000000	68.124298	18.4729
482.000000	68.108566	18.9385
487.000000	68.097733	19.2753
494.000000	68.084572	19.7552
500.000000	68.072891	20.1565
508.000000	68.058441	20.6698
515.000000	68.048409	21.1151
522.000000	68.039307	21.5660
530.000000	68.028313	22.0865
538.000000	68.017601	22.6069
545.000000	68.010521	23.0653
552.000000	68.004845	23.5294
560.000000	67.998245	24.0637
570.000000	67.989609	24.7316
580.000000	67.984482	25.3933
590.000000	67.983391	26.0383
600.000000	67.983086	26.6723
608.000000	67.981995	27.1662
615.000000	67.979889	27.5898
622.000000	67.976990	28.0098
630.000000	67.973312	28.4890
640.000000	67.971039	29.0941
650.000000	67.972839	29.7013
660.000000	67.976357	30.2919
670.000000	67.981430	30.8720
680.000000	67.986633	31.4533
690.000000	67.990303	32.0358
700.000000	67.993805	32.6260
710.000000	67.997719	33.2203
720.000000	67.998459	33.8146
730.000000	67.996948	34.4034
740.000000	67.995766	34.9842
750.000000	67.996475	35.5590
762.000000	68.000656	36.2509
775.000000	68.007195	37.0047
788.000000	68.017403	37.7495
800.000000	68.031921	38.4409
812.000000	68.051102	39.1436
825.000000	68.077126	39.9016
838.000000	68.106339	40.6422
850.000000	68.134743	41.3273
862.000000	68.164696	42.0320
875.000000	68.200089	42.8210
885.000000	68.228920	43.4320
900.000000	68.276421	44.3482
912.000000	68.319077	45.0872
925.000000	68.370865	45.8889
938.000000	68.429565	46.6846
950.000000	68.489334	47.4045
962.000000	68.553177	48.1138
975.000000	68.626579	48.8871
988.000000	68.705147	49.6792
1000.000000	68.782043	50.4213
1015.000000	68.884399	51.3405
1030.000000	68.996948	52.2546
1044.000000	69.111115	53.1069
1060.000000	69.249931	54.0775
1075.000000	69.386887	55.0003
1090.000000	69.527405	55.9366
1106.000000	69.678528	56.9399
1120.000000	69.811264	57.8113
1138.000000	69.984528	58.9302
1150.000000	70.102982	59.6894
1172.000000	70.324249	61.0903
1180.000000	70.405045	61.5950
1206.000000	70.665771	63.2266
1220.000000	70.803825	64.1127
1241.000000	71.006165	65.4592
1250.000000	71.090073	66.0396
1265.000000	71.225357	67.0090
1280.000000	71.355270	67.9792
1315.000000	71.638794	70.2024
1320.000000	71.677177	70.5176
1340.000000	71.825584	71.7802
1360.000000	71.965492	73.0217
1380.000000	72.099113	74.2436
1400.000000	72.228516	75.4717
1430.000000	72.415291	77.3081
1450.000000	72.535614	78.4957
1475.000000	72.681671	79.9286
1500.000000	72.824051	81.3476
1525.000000	72.962158	82.8047
1550.000000	73.097641	84.2856
1575.000000	73.232697	85.7184
1600.000000	73.368813	87.0645
1625.000000	73.508530	88.3273
1650.000000	73.653885	89.5302
1675.000000	73.805252	90.6960
1700.000000	73.960068	91.8185
1725.000000	74.115990	92.8843
1750.000000	74.273460	93.8940
1775.000000	74.433723	94.8384
1800.000000	74.597237	95.7147
1825.000000	74.763885	96.5301
1850.000000	74.933502	97.2954
1875.000000	75.104691	98.0244
1900.000000	75.276489	98.7172
1925.000000	75.448517	99.3568
1950.000000	75.620895	99.9390
1975.000000	75.793839	100.4797
2000.000000	75.965897	100.9921
2030.000000	76.167488	101.5586
2060.000000	76.362480	102.0931
2090.000000	76.550575	102.6089
2120.000000	76.731735	103.0999
2140.000000	76.848465	103.4174
2180.000000	77.072174	104.0557
2200.000000	77.179161	104.3658
2240.000000	77.385536	104.9305
2270.000000	77.535271	105.3176
2300.000000	77.679688	105.7055
2330.000000	77.817146	106.1082
2360.000000	77.947983	106.5051
2400.000000	78.113251	106.9972
2430.000000	78.230408	107.3440
2470.000000	78.379616	107.7477
2500.000000	78.487770	107.9929
2540.000000	78.625458	108.2683
2580.000000	78.751923	108.5173
2620.000000	78.865723	108.7477
2650.000000	78.942963	108.9048
2690.000000	79.033997	109.0840
2720.000000	79.093719	109.1959
2760.000000	79.164322	109.3220
2800.000000	79.226418	109.3937
2850.000000	79.295853	109.4181
2900.000000	79.366982	109.4593
2950.000000	79.443634	109.5019
3000.000000	79.514847	109.5414
3040.000000	79.557129	109.5775
3070.000000	79.577820	109.6209
3110.000000	79.590714	109.6922
3150.000000	79.587090	109.7759
3200.000000	79.561081	109.9462
3250.000000	79.513367	110.2344
3300.000000	79.448128	110.6079
3350.000000	79.372322	111.0432
3400.000000	79.294373	111.5508
3450.000000	79.222511	112.1411
3500.000000	79.162521	112.7800
3550.000000	79.116028	113.4113
3600.000000	79.078583	113.9868
3650.000000	79.042992	114.5010
3700.000000	79.000717	114.9609
3750.000000	78.945885	115.3960
3820.000000	78.844086	115.9844
3870.000000	78.750664	116.4043
3950.000000	78.563339	117.0598
4000.000000	78.424385	117.3993
4060.000000	78.244347	117.8149
4120.000000	78.053146	118.3221
4180.000000	77.852081	118.9999
4250.000000	77.615372	120.0790
4310.000000	77.410141	121.2332
4370.000000	77.180771	122.5287
4440.000000	76.852074	124.2166
4500.000000	76.514915	125.8235
4550.000000	76.208389	127.2529
4620.000000	75.766479	129.4030
4680.000000	75.393600	131.4208
4750.000000	74.978859	133.9605
4820.000000	74.592178	136.6866
4870.000000	74.337364	138.7680
4940.000000	74.014465	141.8436
5000.000000	73.764694	144.6405
5080.000000	73.453308	148.6793
5150.000000	73.192039	152.4828
5220.000000	72.947342	156.4839
5300.000000	72.708702	161.3539
5380.000000	72.534103	166.5105
5450.000000	72.441025	171.1477
5520.000000	72.410706	175.8879
5600.000000	72.464195	-178.6092
5700.000000	72.678368	-171.9035
5800.000000	73.048035	-165.9034
5900.000000	73.515900	-161.1617
6000.000000	73.978416	-158.4557
6080.000000	74.247833	-158.0425
6150.000000	74.342499	-158.7196
6220.000000	74.278801	-159.9359
6300.000000	74.012848	-161.4765
6400.000000	73.405754	-162.6602
6500.000000	72.529602	-161.8039
6600.000000	71.462288	-157.5534
6700.000000	70.528870	-149.5755
6800.000000	69.987236	-140.0461
6900.000000	69.644310	-130.2830
7000.000000	69.300644	-119.9780
7100.000000	68.855553	-108.6225
7200.000000	68.232796	-95.6887
7300.000000	67.377060	-80.7315
7400.000000	66.299759	-63.5507
7500.000000	65.157547	-44.5846
7620.000000	64.113274	-21.3843
7750.000000	63.821621	0.9226
7880.000000	64.335358	18.1288
8000.000000	65.205475	29.7062
8120.000000	66.173134	38.1011
8250.000000	67.091568	44.4461
8380.000000	67.720901	48.5512
8500.000000	67.988052	50.8209
8620.000000	67.963165	52.4304
8750.000000	67.668083	54.2469
8850.000000	67.303528	55.9215
9000.000000	66.613525	59.1577
9120.000000	65.997635	62.4929
9250.000000	65.309547	66.7829
9380.000000	64.626770	71.7008
9500.000000	64.056664	76.6811
9620.000000	63.606915	81.9938
9750.000000	63.276371	88.1205
9880.000000	63.044216	94.4652
10000.000000	62.845345	100.3025
10150.000000	62.574570	107.4149
10300.000000	62.272125	114.3333
10440.000000	61.972260	121.2071
10600.000000	61.682587	130.9138
10750.000000	61.578102	141.4722
10900.000000	61.705894	152.1216
11060.000000	62.062870	162.9856
11200.000000	62.457737	171.9210
11380.000000	62.893543	-177.1902
11500.000000	63.062298	-170.0314
11720.000000	63.059578	-156.8789
11800.000000	62.962723	-152.2378
12060.000000	62.362179	-139.4337
12200.000000	61.922657	-133.6565
12410.000000	61.271835	-124.9468
12500.000000	61.047356	-121.1298
12650.000000	60.819397	-114.6732
12800.000000	60.830261	-108.1623
13150.000000	61.630493	-93.1754
13200.000000	61.781940	-91.1609
13400.000000	62.332043	-83.6328
13600.000000	62.649673	-77.0046
13800.000000	62.588089	-71.4555
14000.000000	62.117393	-66.7321
14300.000000	60.891861	-60.0534
14500.000000	60.011917	-54.0663
14750.000000	59.356346	-42.3187
15000.000000	59.658478	-28.7515
15250.000000	60.058128	-19.1277
15500.000000	59.669182	-10.7361
15750.000000	58.464310	0.4099
16000.000000	56.500839	16.3622
16250.000000	54.202850	35.2727
16500.000000	52.564507	52.2752
16750.000000	51.684830	62.6999
17000.000000	50.600174	69.4118
17250.000000	49.014496	78.6194
17500.000000	47.216206	90.9590
17750.000000	46.054680	104.0415
18000.000000	46.102882	117.8287
18250.000000	46.571548	133.1164
18500.000000	48.717796	148.9291
18750.000000	51.104389	163.7562
19000.000000	50.906158	178.3489
19250.000000	48.029640	-165.5839
19500.000000	44.435101	-147.8043
19750.000000	42.154999	-130.5295
