* Measurement data measured by REW V5.20
* Source: Microphone (Realtek USB2.0 Audio), MICROPHONE (Master Volume), L, volume: 0.250. Timing signal peak level -35.8 dBFS, measurement signal peak level -23.4 dBFS
* Format: 4M Log Swept Sine, 1 sweep at -10.0 dBFS using an acoustic timing reference
* Dated: Sep 11, 2021 9:46:28 AM
* REW Settings:
*  C-weighting compensation: Off
*  Target level: 75.0 dB
* Note: Delay -0.3676 ms (-126 mm, -4.96 in) using estimated IR delay relative to Acoustic reference on SPEAKER L with no timing offset
* Measurement: Quarks L
* Smoothing: None
* Frequency Step: 1/48 octave
* Start Frequency: 20.000 Hz
*
* Freq(Hz)	SPL(dB)	Phase(degrees)
20.000000	87.0	-81.5208
20.299999	87.1	-82.5789
20.600000	87.3	-83.8273
20.900000	87.4	-85.2592
21.200001	87.6	-86.7804
21.400000	87.6	-87.7601
21.799999	87.7	-89.5095
22.000000	87.7	-90.2387
22.400000	87.6	-91.4204
22.700001	87.7	-92.1858
23.000000	87.7	-92.9916
23.299999	87.8	-93.9073
23.600000	87.8	-94.9183
24.000000	87.9	-96.3059
24.299999	87.9	-97.2673
24.700001	88.0	-98.3767
25.000000	88.0	-99.1239
25.400000	88.1	-100.1397
25.799999	88.2	-101.2934
26.200001	88.2	-102.5495
26.500000	88.2	-103.4607
26.900000	88.2	-104.5177
27.200001	88.2	-105.1710
27.600000	88.3	-105.9303
28.000000	88.3	-106.7192
28.500000	88.4	-107.8976
29.000000	88.5	-109.2122
29.500000	88.5	-110.4611
30.000000	88.5	-111.5374
30.400000	88.5	-112.3071
30.700001	88.5	-112.8635
31.100000	88.5	-113.6099
31.500000	88.6	-114.3820
32.000000	88.7	-115.4061
32.500000	88.7	-116.4860
33.000000	88.7	-117.5426
33.500000	88.7	-118.4899
34.000000	88.7	-119.3412
34.500000	88.8	-120.2094
35.000000	88.8	-121.1476
35.500000	88.8	-122.0618
36.000000	88.8	-122.8325
36.500000	88.9	-123.4918
37.000000	88.9	-124.2083
37.500000	89.0	-125.0713
38.200001	89.0	-126.3139
38.700001	89.0	-127.0195
39.500000	89.0	-127.9003
40.000000	89.0	-128.5162
40.599998	89.1	-129.4042
41.200001	89.1	-130.3093
41.799999	89.1	-131.0772
42.500000	89.1	-131.8404
43.099998	89.1	-132.5609
43.700001	89.1	-133.3439
44.400002	89.1	-134.0953
45.000000	89.1	-134.5517
45.500000	89.1	-134.9781
46.200001	89.1	-135.8168
46.799999	89.1	-136.6065
47.500000	89.1	-137.3561
48.200001	89.1	-138.0331
48.700001	89.2	-138.5769
49.400002	89.2	-139.3503
50.000000	89.1	-139.8956
50.799999	89.1	-140.4743
51.500000	89.2	-140.9759
52.200001	89.2	-141.5466
53.000000	89.2	-142.3532
53.799999	89.2	-143.2247
54.500000	89.1	-143.7585
55.200001	89.1	-144.1095
56.000000	89.1	-144.7462
57.000000	89.1	-145.7311
58.000000	89.1	-146.2718
59.000000	89.1	-147.1104
60.000000	89.1	-147.9280
60.799999	89.1	-148.3047
61.500000	89.1	-148.7928
62.200001	89.1	-149.3394
63.000000	89.1	-149.7617
64.000000	89.1	-150.3399
65.000000	89.1	-150.9541
66.000000	89.1	-151.2971
67.000000	89.1	-151.8698
68.000000	89.1	-152.5804
69.000000	89.0	-153.1859
70.000000	89.0	-153.5637
71.000000	89.0	-154.0446
72.000000	89.0	-154.6602
73.000000	89.0	-155.1133
74.000000	89.0	-155.5673
75.000000	89.0	-155.9814
76.199997	89.0	-156.5377
77.500000	89.0	-157.1591
78.800003	88.9	-157.6938
80.000000	88.9	-158.1937
81.199997	88.9	-158.6662
82.500000	88.9	-159.1964
83.800003	88.9	-159.5545
85.000000	88.9	-160.1134
86.199997	88.9	-160.6930
87.500000	88.8	-161.0253
88.500000	88.8	-161.2802
90.000000	88.8	-161.8539
91.199997	88.7	-162.1442
92.500000	88.7	-162.5544
93.800003	88.7	-162.9743
95.000000	88.7	-163.3493
96.199997	88.7	-163.7195
97.500000	88.7	-164.1008
98.800003	88.6	-164.4135
100.000000	88.6	-164.7147
101.500000	88.6	-165.1906
103.000000	88.6	-165.5863
104.400002	88.6	-165.8574
106.000000	88.5	-166.3892
107.500000	88.5	-166.6682
109.000000	88.5	-166.9045
110.599998	88.5	-167.4543
112.000000	88.4	-167.6599
113.800003	88.4	-167.9055
115.000000	88.4	-168.2273
117.199997	88.3	-168.7535
118.000000	88.3	-168.8506
120.599998	88.3	-169.2474
122.000000	88.3	-169.5820
124.099998	88.2	-169.9298
125.000000	88.2	-170.1174
126.500000	88.2	-170.1855
128.000000	88.2	-170.3997
131.500000	88.1	-171.0538
132.000000	88.1	-171.1052
134.000000	88.1	-171.5202
136.000000	88.1	-171.7617
138.000000	88.0	-171.9678
140.000000	88.0	-172.4639
143.000000	87.9	-172.5778
145.000000	87.9	-172.7617
147.500000	87.9	-173.0258
150.000000	87.8	-173.2862
152.500000	87.8	-173.5276
155.000000	87.7	-173.8303
157.500000	87.7	-173.9339
160.000000	87.6	-174.1442
162.500000	87.6	-174.3378
165.000000	87.6	-174.5705
167.500000	87.5	-174.6908
170.000000	87.5	-174.8979
172.500000	87.4	-174.9429
175.000000	87.4	-175.1277
177.500000	87.4	-175.2201
180.000000	87.3	-175.4064
182.500000	87.3	-175.4896
185.000000	87.2	-175.5707
187.500000	87.2	-175.6095
190.000000	87.2	-175.7135
192.500000	87.1	-175.7505
195.000000	87.0	-175.8611
197.500000	87.0	-175.8745
200.000000	86.9	-175.9501
203.000000	86.9	-175.9429
206.000000	86.8	-176.0136
209.000000	86.8	-176.0030
212.000000	86.7	-176.0034
214.000000	86.7	-176.0255
218.000000	86.6	-176.0298
220.000000	86.6	-176.0080
224.000000	86.5	-176.0424
227.000000	86.5	-176.0969
230.000000	86.4	-175.8688
233.000000	86.4	-175.7928
236.000000	86.3	-175.8056
240.000000	86.3	-175.6602
243.000000	86.2	-175.5724
247.000000	86.2	-175.4718
250.000000	86.1	-175.3707
254.000000	86.1	-175.2429
258.000000	86.0	-175.1644
262.000000	86.0	-174.9456
265.000000	85.9	-174.8561
269.000000	85.9	-174.6411
272.000000	85.8	-174.5358
276.000000	85.8	-174.2862
280.000000	85.7	-174.0660
285.000000	85.6	-173.7955
290.000000	85.5	-173.4643
295.000000	85.5	-173.2308
300.000000	85.4	-172.9100
304.000000	85.3	-172.5874
307.000000	85.3	-172.3982
311.000000	85.2	-172.0965
315.000000	85.2	-171.8962
320.000000	85.1	-171.4855
325.000000	85.0	-171.1770
330.000000	85.0	-170.7020
335.000000	84.9	-170.2856
340.000000	84.9	-169.8924
345.000000	84.8	-169.5389
350.000000	84.8	-168.9956
355.000000	84.7	-168.6082
360.000000	84.6	-168.1776
365.000000	84.6	-167.6696
370.000000	84.5	-167.1926
375.000000	84.4	-166.8191
382.000000	84.4	-165.9996
387.000000	84.3	-165.6097
395.000000	84.2	-164.6880
400.000000	84.1	-164.2383
406.000000	84.1	-163.5141
412.000000	84.0	-163.0066
418.000000	84.0	-162.3138
425.000000	83.9	-161.5472
431.000000	83.8	-160.9628
437.000000	83.8	-160.2935
444.000000	83.7	-159.4892
450.000000	83.7	-158.8037
455.000000	83.6	-158.2159
462.000000	83.5	-157.4141
468.000000	83.5	-156.6671
475.000000	83.4	-155.8337
482.000000	83.4	-155.0283
487.000000	83.3	-154.3552
494.000000	83.3	-153.5108
500.000000	83.2	-152.8050
508.000000	83.2	-151.8376
515.000000	83.1	-150.9519
522.000000	83.0	-150.0709
530.000000	83.0	-149.0730
538.000000	82.9	-148.0345
545.000000	82.9	-147.1123
552.000000	82.8	-146.2576
560.000000	82.8	-145.1829
570.000000	82.7	-143.8964
580.000000	82.7	-142.5901
590.000000	82.6	-141.2555
600.000000	82.6	-139.8981
608.000000	82.5	-138.8198
615.000000	82.5	-137.8592
622.000000	82.4	-136.9475
630.000000	82.4	-135.8736
640.000000	82.3	-134.4497
650.000000	82.3	-133.0926
660.000000	82.3	-131.7164
670.000000	82.2	-130.3915
680.000000	82.2	-128.9353
690.000000	82.2	-127.5924
700.000000	82.2	-126.2175
710.000000	82.1	-124.8717
720.000000	82.1	-123.4113
730.000000	82.1	-122.0029
740.000000	82.0	-120.5422
750.000000	82.0	-119.1648
762.000000	82.0	-117.4969
775.000000	81.9	-115.6824
788.000000	81.9	-113.7670
800.000000	81.9	-112.0544
812.000000	81.9	-110.3222
825.000000	81.9	-108.4460
838.000000	81.9	-106.5848
850.000000	81.9	-104.8023
862.000000	81.9	-103.0206
875.000000	81.9	-101.1742
885.000000	82.0	-99.7061
900.000000	82.0	-97.4575
912.000000	82.0	-95.7383
925.000000	82.0	-93.8138
938.000000	82.1	-91.9283
950.000000	82.1	-90.1745
962.000000	82.2	-88.4006
975.000000	82.2	-86.4873
988.000000	82.3	-84.6207
1000.000000	82.4	-82.9794
1015.000000	82.5	-80.9673
1030.000000	82.5	-78.9572
1044.000000	82.6	-77.0968
1060.000000	82.8	-74.9598
1075.000000	82.9	-72.9739
1090.000000	83.0	-70.9546
1106.000000	83.2	-68.8426
1120.000000	83.3	-66.9553
1138.000000	83.5	-64.5175
1150.000000	83.6	-62.8854
1172.000000	83.8	-59.8982
1180.000000	83.9	-58.7982
1206.000000	84.1	-55.3072
1220.000000	84.3	-53.4600
1241.000000	84.5	-50.5914
1250.000000	84.6	-49.4370
1265.000000	84.7	-47.3673
1280.000000	84.8	-45.3219
1315.000000	85.1	-40.6318
1320.000000	85.1	-39.9670
1340.000000	85.3	-37.2679
1360.000000	85.4	-34.5904
1380.000000	85.5	-31.8782
1400.000000	85.7	-29.2265
1430.000000	85.9	-25.1325
1450.000000	86.0	-22.4255
1475.000000	86.1	-19.0340
1500.000000	86.2	-15.6012
1525.000000	86.4	-12.1834
1550.000000	86.5	-8.7950
1575.000000	86.6	-5.4192
1600.000000	86.8	-2.1191
1625.000000	86.9	1.2035
1650.000000	87.1	4.4477
1675.000000	87.2	7.4405
1700.000000	87.4	10.3507
1725.000000	87.5	13.7224
1750.000000	87.6	17.0129
1775.000000	87.8	20.1581
1800.000000	88.0	23.3291
1825.000000	88.2	26.4728
1850.000000	88.3	29.5030
1875.000000	88.5	32.4683
1900.000000	88.7	35.3968
1925.000000	89.0	38.2831
1950.000000	89.2	41.1126
1975.000000	89.4	43.9191
2000.000000	89.6	46.7458
2030.000000	89.9	50.0360
2060.000000	90.1	53.2761
2090.000000	90.4	56.4231
2120.000000	90.7	59.5917
2140.000000	90.8	61.6675
2180.000000	91.2	65.8122
2200.000000	91.4	67.8696
2240.000000	91.7	71.8453
2270.000000	92.0	74.7714
2300.000000	92.3	77.6032
2330.000000	92.6	80.3962
2360.000000	92.8	83.0915
2400.000000	93.2	86.6347
2430.000000	93.5	89.2126
2470.000000	93.8	92.4727
2500.000000	94.1	94.8183
2540.000000	94.4	97.7688
2580.000000	94.8	100.5742
2620.000000	95.2	103.0648
2650.000000	95.4	104.8036
2690.000000	95.8	106.7116
2720.000000	96.1	107.8067
2760.000000	96.4	108.8437
2800.000000	96.6	109.4106
2850.000000	96.7	109.6255
2900.000000	96.7	109.7618
2950.000000	96.6	110.2787
3000.000000	96.4	111.5196
3040.000000	96.1	113.0929
3070.000000	95.9	114.6203
3110.000000	95.7	116.9760
3150.000000	95.4	119.6394
3200.000000	95.0	123.3011
3250.000000	94.7	127.2480
3300.000000	94.3	131.5932
3350.000000	93.9	136.1777
3400.000000	93.6	140.9592
3450.000000	93.3	145.9350
3500.000000	93.0	151.0869
3550.000000	92.7	156.3614
3600.000000	92.4	161.7030
3650.000000	92.1	167.1956
3700.000000	91.9	172.8639
3750.000000	91.7	178.5752
3820.000000	91.4	-173.1833
3870.000000	91.2	-167.2576
3950.000000	90.9	-157.7129
4000.000000	90.7	-151.6750
4060.000000	90.5	-144.2990
4120.000000	90.3	-136.8979
4180.000000	90.2	-129.4343
4250.000000	90.0	-120.6003
4310.000000	90.0	-112.9545
4370.000000	89.9	-105.2065
4440.000000	89.8	-96.1278
4500.000000	89.6	-88.3997
4550.000000	89.5	-81.9003
4620.000000	89.3	-72.7561
4680.000000	89.2	-64.9839
4750.000000	89.1	-55.8751
4820.000000	89.0	-46.8996
4870.000000	89.0	-40.4563
4940.000000	89.0	-31.3633
5000.000000	89.0	-23.5685
5080.000000	89.0	-13.2283
5150.000000	89.1	-4.1936
5220.000000	89.1	4.7668
5300.000000	89.1	14.9163
5380.000000	89.1	25.1776
5450.000000	89.2	34.0626
5520.000000	89.2	42.8355
5600.000000	89.3	52.7859
5700.000000	89.3	65.3151
5800.000000	89.3	77.8396
5900.000000	89.3	90.2385
6000.000000	89.1	102.8246
6080.000000	89.0	112.9199
6150.000000	88.9	121.8730
6220.000000	88.8	130.7900
6300.000000	88.7	141.2689
6400.000000	88.7	154.4955
6500.000000	88.8	168.0024
6600.000000	88.9	-178.2485
6700.000000	89.0	-164.0293
6800.000000	89.1	-149.5181
6900.000000	89.1	-134.3083
7000.000000	89.1	-118.4011
7100.000000	89.0	-101.1344
7200.000000	88.6	-82.5150
7300.000000	87.9	-61.9749
7400.000000	86.9	-38.9363
7500.000000	85.7	-14.2448
7620.000000	84.6	15.2781
7750.000000	84.1	44.0638
7880.000000	84.1	67.6511
8000.000000	84.4	85.7756
8120.000000	84.6	101.5601
8250.000000	84.7	117.4644
8380.000000	84.4	133.0103
8500.000000	83.9	147.7294
8620.000000	83.1	162.4946
8750.000000	82.2	179.1974
8850.000000	81.5	-167.3895
9000.000000	80.4	-146.7573
9120.000000	79.6	-129.7350
9250.000000	78.7	-110.9006
9380.000000	77.7	-91.6354
9500.000000	76.9	-73.6189
9620.000000	76.2	-55.6127
9750.000000	75.7	-35.4041
9880.000000	75.1	-14.8636
10000.000000	74.7	4.2932
10150.000000	74.0	28.9360
10300.000000	73.5	53.1641
10440.000000	72.9	75.1775
10600.000000	72.2	99.6481
10750.000000	71.7	122.9318
10900.000000	71.3	146.5618
11060.000000	71.3	171.8706
11200.000000	71.4	-165.8606
11380.000000	71.6	-137.1925
11500.000000	71.7	-118.0149
11720.000000	71.6	-82.9253
11800.000000	71.5	-70.0814
12060.000000	71.1	-28.4690
12200.000000	70.8	-6.1196
12410.000000	70.2	27.4921
12500.000000	70.1	41.8564
12650.000000	69.9	65.6462
12800.000000	69.9	89.7025
13150.000000	70.9	144.8976
13200.000000	71.0	152.7856
13400.000000	71.5	-175.8530
13600.000000	71.8	-144.2579
13800.000000	71.6	-112.8610
14000.000000	71.1	-81.3213
14300.000000	70.1	-33.9597
14500.000000	69.9	-2.0205
14750.000000	70.2	37.5122
15000.000000	70.8	77.6621
15250.000000	71.2	118.0156
15500.000000	71.2	158.6382
15750.000000	70.8	-160.3276
16000.000000	69.4	-119.5410
16250.000000	66.8	-78.5239
16500.000000	64.4	-36.7109
16750.000000	62.3	4.6084
17000.000000	60.5	46.2295
17250.000000	58.4	86.9146
17500.000000	56.2	128.2520
17750.000000	54.6	168.5718
18000.000000	56.6	-151.8723
18250.000000	56.8	-111.4634
18500.000000	56.3	-73.0330
18750.000000	63.9	-34.3696
19000.000000	63.8	5.3491
19250.000000	56.8	45.5500
19500.000000	55.7	86.4333
19750.000000	54.6	131.1846
