* Measurement data measured by REW V5.20.13
* Source: EXCL: Microphone (High Definition Audio Device), MICROPHONE (Master Volume), R, volume: 1.000. Timing signal peak level -32.9 dBFS, measurement signal peak level -32.8 dBFS
* Format: 4M Log Swept Sine, 1 sweep at -10.0 dBFS using an acoustic timing reference
* Dated: Jul 23, 2023 5:11:54 PM
* REW Settings:
*  C-weighting compensation: Off
*  Target level: 75.0 dB
* Note: Delay -0.0598 ms (-21 mm, -0.81 in) using estimated IR delay relative to Acoustic reference played from SPEAKER R with no timing offset Clock adjustment: -30.3 ppm
* Measurement: Chu 2 R
* Smoothing: None
* Frequency Step: 1/48 octave
* Start Frequency: 20.000 Hz
*
* Freq(Hz)	SPL(dB)	Phase(degrees)
20.000000	81.685	-175.0050
20.299999	81.731	-175.5639
20.600000	81.761	-176.1022
20.900000	81.768	-176.7724
21.200001	81.740	-177.2922
21.400000	81.713	-177.5271
21.799999	81.661	-177.7996
22.000000	81.647	-177.8549
22.400000	81.649	-177.8501
22.700001	81.667	-178.1000
23.000000	81.691	-178.3138
23.299999	81.691	-178.7129
23.600000	81.679	-179.0797
24.000000	81.664	-179.4578
24.299999	81.652	-179.7430
24.700001	81.633	179.9023
25.000000	81.617	179.6359
25.400000	81.587	179.2725
25.799999	81.560	179.0248
26.200001	81.540	178.8224
26.500000	81.532	178.6561
26.900000	81.525	178.4043
27.200001	81.519	178.2554
27.600000	81.533	178.0588
28.000000	81.553	177.7062
28.500000	81.559	177.1768
29.000000	81.562	176.5568
29.500000	81.527	175.9724
30.000000	81.471	175.6210
30.400000	81.472	175.4671
30.700001	81.463	175.2807
31.100000	81.468	175.0199
31.500000	81.455	174.6565
32.000000	81.433	174.3082
32.500000	81.410	173.9442
33.000000	81.389	173.7762
33.500000	81.391	173.3011
34.000000	81.370	172.7812
34.500000	81.316	172.3875
35.000000	81.267	172.2215
35.500000	81.245	172.1424
36.000000	81.289	172.0698
36.500000	81.343	171.4379
37.000000	81.328	170.5869
37.500000	81.260	169.9582
38.200001	81.139	169.8328
38.700001	81.148	170.3680
39.500000	81.333	170.0341
40.000000	81.371	169.0972
40.599998	81.305	168.1968
41.200001	81.203	167.9068
41.799999	81.166	167.9639
42.500000	81.143	167.5462
43.099998	81.045	167.2751
43.700001	80.970	167.5052
44.400002	80.964	167.7590
45.000000	81.014	167.5088
45.500000	81.022	166.8927
46.200001	80.945	165.9370
46.799999	80.824	165.6900
47.500000	80.774	165.9902
48.200001	80.840	165.8697
48.700001	80.874	165.2903
49.400002	80.783	164.4976
50.000000	80.690	164.7430
50.799999	80.785	165.1528
51.500000	80.856	164.0716
52.200001	80.694	163.1124
53.000000	80.542	163.8052
53.799999	80.612	163.8953
54.500000	80.552	163.1459
55.200001	80.449	163.4621
56.000000	80.555	163.6746
57.000000	80.602	162.2565
58.000000	80.548	161.7448
59.000000	80.547	160.4488
60.000000	80.285	159.9687
60.799999	80.254	160.7946
61.500000	80.276	160.5402
62.200001	80.197	160.3808
63.000000	80.168	160.5098
64.000000	80.115	160.1245
65.000000	80.045	159.9597
66.000000	80.010	159.5645
67.000000	79.978	159.3435
68.000000	79.985	158.5855
69.000000	79.837	158.2503
70.000000	79.863	158.8984
71.000000	79.922	158.0226
72.000000	79.768	157.6483
73.000000	79.726	157.9325
74.000000	79.692	157.5334
75.000000	79.595	157.4308
76.199997	79.575	157.2607
77.500000	79.483	156.6732
78.800003	79.421	156.6288
80.000000	79.377	156.2345
81.199997	79.310	156.0608
82.500000	79.244	155.7654
83.800003	79.154	155.6330
85.000000	79.123	155.5784
86.199997	79.077	155.1937
87.500000	79.007	155.0387
88.500000	78.967	154.8704
90.000000	78.912	154.7245
91.199997	78.847	154.3602
92.500000	78.774	154.2403
93.800003	78.689	154.1146
95.000000	78.659	154.0791
96.199997	78.592	153.9407
97.500000	78.573	153.8932
98.800003	78.468	153.6631
100.000000	78.443	153.6913
101.500000	78.310	153.3758
103.000000	78.327	153.1588
104.400002	78.241	152.9648
106.000000	78.247	152.5923
107.500000	78.176	152.5200
109.000000	78.061	153.4445
110.599998	77.820	153.2661
112.000000	78.052	155.6620
113.800003	77.786	152.4046
115.000000	77.771	153.1342
117.199997	77.662	152.5261
118.000000	77.622	152.3743
120.599998	77.531	153.0974
122.000000	77.467	152.6101
124.099998	77.327	152.2869
125.000000	77.242	152.5498
126.500000	77.240	152.5532
128.000000	77.151	153.1295
131.500000	76.949	153.0300
132.000000	76.897	153.3503
134.000000	76.932	153.2981
136.000000	76.976	154.1752
138.000000	76.835	155.4271
140.000000	76.858	155.2786
143.000000	76.976	155.9286
145.000000	76.776	156.0952
147.500000	76.822	155.5764
150.000000	76.717	155.8248
152.500000	76.921	154.8714
155.000000	76.740	153.1481
157.500000	76.768	154.8226
160.000000	76.294	155.1531
162.500000	76.643	153.2911
165.000000	76.437	153.9224
167.500000	76.537	155.7545
170.000000	76.288	154.0168
172.500000	76.134	153.9041
175.000000	76.270	154.2014
177.500000	76.224	153.9395
180.000000	76.021	153.9247
182.500000	76.021	154.2954
185.000000	75.876	153.6500
187.500000	75.696	154.6147
190.000000	75.667	154.1446
192.500000	75.672	154.3665
195.000000	75.808	153.3436
197.500000	75.592	154.8170
200.000000	75.440	154.6632
203.000000	75.437	154.8253
206.000000	75.392	154.8128
209.000000	75.255	154.9796
212.000000	75.216	155.4765
214.000000	75.359	155.0715
218.000000	75.116	155.8318
220.000000	75.139	155.7462
224.000000	75.030	155.1483
227.000000	74.991	156.0301
230.000000	74.933	156.4615
233.000000	74.851	156.6238
236.000000	74.807	156.7657
240.000000	74.586	157.7227
243.000000	74.633	157.4663
247.000000	74.602	157.2709
250.000000	74.593	157.6496
254.000000	74.462	158.2001
258.000000	74.427	158.4134
262.000000	74.376	158.5356
265.000000	74.355	158.4547
269.000000	74.245	159.4675
272.000000	74.368	158.3454
276.000000	74.155	159.7025
280.000000	74.160	161.9246
285.000000	74.015	160.2780
290.000000	73.965	160.8645
295.000000	73.860	160.9321
300.000000	73.817	161.4580
304.000000	73.788	161.5858
307.000000	73.768	162.0056
311.000000	73.727	162.2581
315.000000	73.677	162.4508
320.000000	73.611	163.0389
325.000000	73.585	163.4812
330.000000	73.515	163.7729
335.000000	73.486	164.4224
340.000000	73.409	164.5986
345.000000	73.399	165.0342
350.000000	73.338	165.3782
355.000000	73.298	165.7574
360.000000	73.254	166.1647
365.000000	73.192	166.6311
370.000000	73.180	166.9847
375.000000	73.132	167.1011
382.000000	73.052	167.9947
387.000000	73.022	168.1290
395.000000	72.986	169.0114
400.000000	72.929	169.4380
406.000000	72.912	169.8089
412.000000	72.847	170.3483
418.000000	72.803	170.7008
425.000000	72.775	171.4706
431.000000	72.741	171.7734
437.000000	72.710	172.1952
444.000000	72.672	172.7188
450.000000	72.645	173.2944
455.000000	72.600	173.6736
462.000000	72.564	174.2484
468.000000	72.546	174.6071
475.000000	72.481	175.2188
482.000000	72.492	175.7903
487.000000	72.474	176.0725
494.000000	72.425	176.7694
500.000000	72.418	177.1743
508.000000	72.374	177.7262
515.000000	72.347	178.3319
522.000000	72.328	178.7760
530.000000	72.301	179.4133
538.000000	72.276	179.8668
545.000000	72.260	-179.5520
552.000000	72.251	-178.9458
560.000000	72.233	-178.4017
570.000000	72.189	-177.5034
580.000000	72.161	-176.6140
590.000000	72.148	-175.8722
600.000000	72.120	-175.1612
608.000000	72.108	-174.5430
615.000000	72.141	-174.1169
622.000000	72.102	-173.5295
630.000000	72.075	-172.8870
640.000000	72.078	-172.0186
650.000000	72.076	-171.2981
660.000000	72.072	-170.5770
670.000000	72.052	-170.0806
680.000000	72.048	-168.9908
690.000000	72.044	-168.2977
700.000000	72.061	-167.3247
710.000000	72.053	-166.5508
720.000000	72.062	-165.8790
730.000000	72.078	-165.1709
740.000000	72.084	-164.3902
750.000000	72.107	-163.7010
762.000000	72.107	-162.7274
775.000000	72.139	-161.7518
788.000000	72.180	-160.7795
800.000000	72.195	-159.8580
812.000000	72.227	-158.9637
825.000000	72.288	-157.7743
838.000000	72.309	-156.9473
850.000000	72.362	-155.9860
862.000000	72.438	-155.2908
875.000000	72.484	-154.2452
885.000000	72.547	-153.6490
900.000000	72.631	-152.5388
912.000000	72.718	-151.6544
925.000000	72.782	-150.8159
938.000000	72.855	-149.9939
950.000000	72.942	-149.2801
962.000000	73.034	-148.5098
975.000000	73.141	-147.7874
988.000000	73.247	-147.2073
1000.000000	73.333	-146.5581
1015.000000	73.453	-145.8620
1030.000000	73.559	-145.1997
1044.000000	73.683	-144.5266
1060.000000	73.817	-144.0426
1075.000000	73.919	-143.4465
1090.000000	74.050	-142.9608
1106.000000	74.187	-142.7103
1120.000000	74.308	-142.1641
1138.000000	74.427	-141.6452
1150.000000	74.530	-141.4467
1172.000000	74.681	-140.9554
1180.000000	74.737	-140.7991
1206.000000	74.906	-140.3432
1220.000000	74.984	-140.2072
1241.000000	75.087	-139.8325
1250.000000	75.130	-139.6601
1265.000000	75.201	-139.5602
1280.000000	75.275	-139.3068
1315.000000	75.419	-138.8208
1320.000000	75.445	-138.7539
1340.000000	75.527	-138.3956
1360.000000	75.645	-138.1383
1380.000000	75.741	-137.9012
1400.000000	75.844	-137.7029
1430.000000	75.987	-137.3020
1450.000000	76.110	-136.9732
1475.000000	76.237	-136.6716
1500.000000	76.367	-136.2536
1525.000000	76.488	-136.0110
1550.000000	76.633	-135.6861
1575.000000	76.776	-135.4695
1600.000000	76.927	-135.2076
1625.000000	77.074	-135.0071
1650.000000	77.227	-134.7562
1675.000000	77.373	-134.4657
1700.000000	77.514	-134.2900
1725.000000	77.657	-134.1353
1750.000000	77.798	-133.8851
1775.000000	77.949	-133.7522
1800.000000	78.099	-133.5905
1825.000000	78.250	-133.5319
1850.000000	78.392	-133.4318
1875.000000	78.540	-133.2971
1900.000000	78.695	-133.2209
1925.000000	78.828	-133.2520
1950.000000	78.980	-133.1537
1975.000000	79.137	-133.1316
2000.000000	79.284	-133.1410
2030.000000	79.470	-133.2041
2060.000000	79.657	-133.3450
2090.000000	79.839	-133.4389
2120.000000	80.011	-133.6361
2140.000000	80.131	-133.7752
2180.000000	80.376	-134.1842
2200.000000	80.494	-134.2932
2240.000000	80.726	-134.8526
2270.000000	80.912	-135.1855
2300.000000	81.076	-135.6101
2330.000000	81.249	-136.1711
2360.000000	81.418	-136.6821
2400.000000	81.633	-137.5080
2430.000000	81.787	-138.0762
2470.000000	81.999	-138.9598
2500.000000	82.151	-139.7168
2540.000000	82.341	-140.6593
2580.000000	82.515	-141.7290
2620.000000	82.684	-142.8795
2650.000000	82.796	-143.7431
2690.000000	82.940	-144.9286
2720.000000	83.041	-145.8468
2760.000000	83.160	-147.1119
2800.000000	83.261	-148.3383
2850.000000	83.372	-149.9426
2900.000000	83.467	-151.5096
2950.000000	83.530	-153.1234
3000.000000	83.567	-154.6653
3040.000000	83.588	-155.9089
3070.000000	83.590	-156.8484
3110.000000	83.584	-157.9962
3150.000000	83.563	-159.1655
3200.000000	83.512	-160.4764
3250.000000	83.441	-161.7252
3300.000000	83.346	-162.8757
3350.000000	83.250	-163.7812
3400.000000	83.137	-164.5746
3450.000000	83.015	-165.2076
3500.000000	82.883	-165.5669
3550.000000	82.750	-165.8543
3600.000000	82.649	-166.0121
3650.000000	82.549	-166.0949
3700.000000	82.465	-166.0274
3750.000000	82.395	-165.9705
3820.000000	82.325	-165.7687
3870.000000	82.291	-165.6588
3950.000000	82.280	-165.3896
4000.000000	82.287	-165.2570
4060.000000	82.328	-165.0901
4120.000000	82.409	-165.1920
4180.000000	82.485	-165.4069
4250.000000	82.569	-165.9201
4310.000000	82.625	-166.5241
4370.000000	82.680	-167.2497
4440.000000	82.737	-168.1148
4500.000000	82.765	-168.9877
4550.000000	82.785	-169.6670
4620.000000	82.781	-170.8129
4680.000000	82.753	-171.7654
4750.000000	82.715	-172.9001
4820.000000	82.654	-174.0382
4870.000000	82.581	-174.8130
4940.000000	82.451	-175.8793
5000.000000	82.315	-176.7838
5080.000000	82.107	-177.8062
5150.000000	81.894	-178.5759
5220.000000	81.663	-179.0236
5300.000000	81.394	-179.1904
5380.000000	81.151	-179.2525
5450.000000	80.955	-179.1323
5520.000000	80.747	-178.9507
5600.000000	80.510	-178.6059
5700.000000	80.223	-177.9841
5800.000000	79.947	-177.3238
5900.000000	79.699	-176.4143
6000.000000	79.460	-175.0848
6080.000000	79.300	-173.9424
6150.000000	79.169	-172.9597
6220.000000	79.045	-171.7736
6300.000000	78.964	-170.3728
6400.000000	78.892	-168.6455
6500.000000	78.860	-166.7645
6600.000000	78.888	-164.9516
6700.000000	78.952	-163.2335
6800.000000	79.083	-161.4804
6900.000000	79.288	-159.9591
7000.000000	79.563	-158.6100
7100.000000	79.929	-157.4619
7200.000000	80.353	-156.6154
7300.000000	80.828	-156.3824
7400.000000	81.362	-156.7808
7500.000000	81.939	-157.9321
7620.000000	82.663	-160.7069
7750.000000	83.429	-165.8386
7880.000000	83.888	-173.1322
8000.000000	83.948	178.6603
8120.000000	83.563	170.4237
8250.000000	82.750	162.7934
8380.000000	81.634	157.3047
8500.000000	80.512	154.4495
8620.000000	79.430	153.3679
8750.000000	78.321	153.6414
8850.000000	77.577	154.5747
9000.000000	76.535	156.6392
9120.000000	75.817	158.7924
9250.000000	75.095	161.4692
9380.000000	74.459	164.5348
9500.000000	73.917	167.7676
9620.000000	73.453	171.1612
9750.000000	73.001	175.1098
9880.000000	72.675	179.2218
10000.000000	72.423	-176.8936
10150.000000	72.230	-172.0047
10300.000000	72.063	-166.9756
10440.000000	72.044	-162.4825
10600.000000	72.140	-157.1163
10750.000000	72.330	-152.3195
10900.000000	72.667	-148.1053
11060.000000	73.158	-143.2849
11200.000000	73.667	-139.7288
11380.000000	74.548	-135.7325
11500.000000	75.291	-133.8505
11720.000000	76.930	-132.1533
11800.000000	77.657	-132.8470
12060.000000	80.247	-142.1291
12200.000000	81.226	-153.7781
12410.000000	80.981	-174.8711
12500.000000	80.274	177.7140
12650.000000	78.751	169.5306
12800.000000	77.184	165.4590
13150.000000	74.132	165.7281
13200.000000	73.791	166.2836
13400.000000	72.485	169.9990
13600.000000	71.487	176.1049
13800.000000	71.513	-176.6751
14000.000000	71.530	-176.1162
14300.000000	71.177	-173.3994
14500.000000	71.134	-170.9559
14750.000000	71.226	-168.9671
15000.000000	71.551	-167.8381
15250.000000	72.083	-169.0700
15500.000000	72.581	-173.5818
15750.000000	72.724	179.2101
16000.000000	72.305	171.1376
16250.000000	71.511	165.2148
16500.000000	70.533	161.2669
16750.000000	69.689	159.2011
17000.000000	68.968	156.9176
17250.000000	68.427	154.7229
17500.000000	67.989	150.7912
17750.000000	67.322	143.6194
18000.000000	66.023	135.0494
18250.000000	64.031	129.6327
18500.000000	61.808	127.2895
18750.000000	59.482	130.4341
19000.000000	57.525	136.3639
19250.000000	55.749	142.4341
19500.000000	54.551	149.8431
19750.000000	53.622	156.0644
