* Measurement data measured by REW V5.20
* Source: Microphone (Realtek USB2.0 Audio), MICROPHONE (Master Volume), R, volume: 0.250. Timing signal peak level -21.6 dBFS, measurement signal peak level -19.6 dBFS
* Format: 2M Log Swept Sine, 1 sweep at -10.0 dBFS using an acoustic timing reference
* Dated: Apr 10, 2021 8:27:42 AM
* REW Settings:
*  C-weighting compensation: Off
*  Target level: 75.0 dB
* Note: Delay -0.3268 ms (-112 mm, -4.41 in) using estimated IR delay relative to Acoustic reference on SPEAKER R with no timing offset
* Measurement: Starfield R
* Smoothing: 1/24 octave
* Frequency Step: 1/48 octave
* Start Frequency: 20.000 Hz
*
* Freq(Hz)	SPL(dB)	Phase(degrees)
20.000000	97.0	-93.4407
20.299999	97.1	-94.4905
20.600000	97.2	-95.4563
20.900000	97.3	-96.3942
21.200001	97.4	-97.3540
21.400000	97.4	-98.0208
21.799999	97.5	-99.4123
22.000000	97.6	-100.1253
22.400000	97.6	-101.5520
22.700001	97.6	-102.5954
23.000000	97.6	-103.6048
23.299999	97.7	-104.5788
23.600000	97.7	-105.5205
24.000000	97.7	-106.7324
24.299999	97.7	-107.6118
24.700001	97.8	-108.7493
25.000000	97.8	-109.5813
25.400000	97.8	-110.6712
25.799999	97.9	-111.7439
26.200001	97.9	-112.7932
26.500000	97.9	-113.5543
26.900000	97.9	-114.5201
27.200001	97.9	-115.2042
27.600000	98.0	-116.0746
28.000000	98.0	-116.9263
28.500000	98.1	-118.0174
29.000000	98.1	-119.1602
29.500000	98.1	-120.3136
30.000000	98.1	-121.4106
30.400000	98.1	-122.2336
30.700001	98.1	-122.8314
31.100000	98.1	-123.6263
31.500000	98.2	-124.4338
32.000000	98.2	-125.4455
32.500000	98.2	-126.4174
33.000000	98.2	-127.3304
33.500000	98.2	-128.2108
34.000000	98.2	-129.0850
34.500000	98.2	-129.9357
35.000000	98.2	-130.7206
35.500000	98.3	-131.4287
36.000000	98.3	-132.1033
36.500000	98.3	-132.8013
37.000000	98.3	-133.5393
37.500000	98.3	-134.2856
38.200001	98.4	-135.2739
38.700001	98.4	-135.9485
39.500000	98.4	-137.0826
40.000000	98.4	-137.8267
40.599998	98.4	-138.6613
41.200001	98.4	-139.3759
41.799999	98.4	-140.0413
42.500000	98.4	-140.8962
43.099998	98.4	-141.6760
43.700001	98.3	-142.3955
44.400002	98.3	-143.1403
45.000000	98.3	-143.7716
45.500000	98.3	-144.3089
46.200001	98.3	-145.0324
46.799999	98.3	-145.6076
47.500000	98.3	-146.2748
48.200001	98.3	-146.9948
48.700001	98.3	-147.5493
49.400002	98.3	-148.3379
50.000000	98.3	-148.9442
50.799999	98.2	-149.5808
51.500000	98.2	-150.0816
52.200001	98.2	-150.6529
53.000000	98.2	-151.3352
53.799999	98.2	-151.9328
54.500000	98.1	-152.4193
55.200001	98.1	-152.9252
56.000000	98.1	-153.5217
57.000000	98.1	-154.2689
58.000000	98.0	-155.0137
59.000000	98.0	-155.7236
60.000000	98.0	-156.4144
60.799999	98.0	-156.9944
61.500000	98.0	-157.4976
62.200001	97.9	-157.9481
63.000000	97.9	-158.3962
64.000000	97.9	-158.9569
65.000000	97.9	-159.5394
66.000000	97.8	-160.0686
67.000000	97.8	-160.5869
68.000000	97.8	-161.1124
69.000000	97.8	-161.6419
70.000000	97.7	-162.1806
71.000000	97.7	-162.6808
72.000000	97.7	-163.1451
73.000000	97.6	-163.5804
74.000000	97.6	-163.9729
75.000000	97.6	-164.3510
76.199997	97.5	-164.8046
77.500000	97.5	-165.2832
78.800003	97.4	-165.7425
80.000000	97.4	-166.1431
81.199997	97.4	-166.5591
82.500000	97.3	-167.0237
83.800003	97.3	-167.4309
85.000000	97.2	-167.7597
86.199997	97.2	-168.0506
87.500000	97.1	-168.3197
88.500000	97.1	-168.6084
90.000000	97.1	-169.1766
91.199997	97.0	-169.6225
92.500000	97.0	-169.9808
93.800003	96.9	-170.1942
95.000000	96.9	-170.3979
96.199997	96.9	-170.6582
97.500000	96.9	-170.9916
98.800003	96.8	-171.3508
100.000000	96.7	-171.6668
101.500000	96.7	-172.0474
103.000000	96.6	-172.4045
104.400002	96.6	-172.7338
106.000000	96.6	-173.0206
107.500000	96.5	-173.2159
109.000000	96.5	-173.4252
110.599998	96.4	-173.6246
112.000000	96.4	-173.7958
113.800003	96.3	-174.0377
115.000000	96.2	-174.1895
117.199997	96.2	-174.4562
118.000000	96.2	-174.5617
120.599998	96.1	-174.8698
122.000000	96.0	-174.9912
124.099998	96.0	-175.2152
125.000000	96.0	-175.3253
126.500000	95.9	-175.4830
128.000000	95.9	-175.5796
131.500000	95.8	-175.7743
132.000000	95.8	-175.8359
134.000000	95.7	-176.1393
136.000000	95.6	-176.4600
138.000000	95.6	-176.5199
140.000000	95.5	-176.3771
143.000000	95.4	-176.3189
145.000000	95.3	-176.3058
147.500000	95.2	-176.3586
150.000000	95.1	-176.4749
152.500000	95.0	-176.3485
155.000000	94.9	-176.0297
157.500000	94.8	-175.6896
160.000000	94.7	-175.2993
162.500000	94.6	-174.8140
165.000000	94.6	-173.8577
167.500000	94.7	-173.2003
170.000000	94.8	-173.1948
172.500000	94.8	-173.3471
175.000000	94.8	-173.5159
177.500000	94.8	-173.7899
180.000000	94.8	-174.0922
182.500000	94.7	-174.1615
185.000000	94.7	-173.9023
187.500000	94.6	-173.6909
190.000000	94.6	-173.5636
192.500000	94.5	-173.4466
195.000000	94.4	-173.3109
197.500000	94.4	-173.1395
200.000000	94.3	-172.9722
203.000000	94.2	-172.7609
206.000000	94.2	-172.4431
209.000000	94.1	-172.1076
212.000000	94.1	-171.8215
214.000000	94.1	-171.6378
218.000000	94.0	-171.2750
220.000000	94.0	-171.1182
224.000000	93.9	-170.8232
227.000000	93.8	-170.6107
230.000000	93.8	-170.3430
233.000000	93.8	-170.0222
236.000000	93.8	-169.7380
240.000000	93.7	-169.4244
243.000000	93.7	-169.1873
247.000000	93.6	-168.8340
250.000000	93.6	-168.5526
254.000000	93.5	-168.1498
258.000000	93.5	-167.7606
262.000000	93.4	-167.3473
265.000000	93.4	-166.9994
269.000000	93.3	-166.5201
272.000000	93.3	-166.1974
276.000000	93.2	-165.8237
280.000000	93.1	-165.4330
285.000000	93.1	-164.9236
290.000000	93.0	-164.3923
295.000000	92.9	-163.8842
300.000000	92.9	-163.3599
304.000000	92.8	-162.9269
307.000000	92.8	-162.6051
311.000000	92.8	-162.1663
315.000000	92.7	-161.7175
320.000000	92.7	-161.1385
325.000000	92.6	-160.5631
330.000000	92.5	-160.0230
335.000000	92.5	-159.4659
340.000000	92.4	-158.9163
345.000000	92.4	-158.3428
350.000000	92.4	-157.7587
355.000000	92.3	-157.1770
360.000000	92.3	-156.5927
365.000000	92.2	-155.9998
370.000000	92.2	-155.3940
375.000000	92.1	-154.8156
382.000000	92.1	-153.9963
387.000000	92.0	-153.3930
395.000000	92.0	-152.4344
400.000000	91.9	-151.8207
406.000000	91.9	-151.0895
412.000000	91.8	-150.3365
418.000000	91.8	-149.5860
425.000000	91.7	-148.7089
431.000000	91.7	-147.9599
437.000000	91.7	-147.2046
444.000000	91.6	-146.3101
450.000000	91.6	-145.5607
455.000000	91.6	-144.9229
462.000000	91.5	-144.0199
468.000000	91.5	-143.2508
475.000000	91.4	-142.3565
482.000000	91.4	-141.4649
487.000000	91.4	-140.8150
494.000000	91.3	-139.9170
500.000000	91.3	-139.1664
508.000000	91.3	-138.1366
515.000000	91.2	-137.2310
522.000000	91.2	-136.3178
530.000000	91.2	-135.2777
538.000000	91.1	-134.2539
545.000000	91.1	-133.3395
552.000000	91.1	-132.4170
560.000000	91.1	-131.3482
570.000000	91.0	-130.0188
580.000000	91.0	-128.6945
590.000000	91.0	-127.3824
600.000000	90.9	-126.0697
608.000000	90.9	-125.0111
615.000000	90.9	-124.0810
622.000000	90.9	-123.1429
630.000000	90.9	-122.0775
640.000000	90.8	-120.7616
650.000000	90.8	-119.4487
660.000000	90.8	-118.1806
670.000000	90.8	-116.9130
680.000000	90.8	-115.6637
690.000000	90.7	-114.3686
700.000000	90.6	-112.8431
710.000000	90.6	-110.9735
720.000000	90.6	-109.0984
730.000000	90.7	-107.5766
740.000000	90.7	-106.2861
750.000000	90.7	-105.0438
762.000000	90.7	-103.5035
775.000000	90.7	-101.7388
788.000000	90.7	-99.9056
800.000000	90.7	-98.1669
812.000000	90.7	-96.4022
825.000000	90.7	-94.4464
838.000000	90.7	-92.4637
850.000000	90.8	-90.6065
862.000000	90.8	-88.7193
875.000000	90.9	-86.6721
885.000000	90.9	-85.0892
900.000000	91.0	-82.7555
912.000000	91.1	-80.9268
925.000000	91.2	-78.9809
938.000000	91.3	-77.0869
950.000000	91.4	-75.3874
962.000000	91.5	-73.7466
975.000000	91.6	-72.0361
988.000000	91.7	-70.3914
1000.000000	91.8	-68.9026
1015.000000	91.9	-67.0326
1030.000000	92.1	-65.1534
1044.000000	92.2	-63.3888
1060.000000	92.3	-61.3575
1075.000000	92.5	-59.4366
1090.000000	92.6	-57.4731
1106.000000	92.7	-55.3424
1120.000000	92.9	-53.4533
1138.000000	93.0	-51.0033
1150.000000	93.2	-49.3714
1172.000000	93.4	-46.3485
1180.000000	93.5	-45.2390
1206.000000	93.7	-41.6049
1220.000000	93.8	-39.6298
1241.000000	94.0	-36.6776
1250.000000	94.1	-35.4275
1265.000000	94.3	-33.4147
1280.000000	94.4	-31.5600
1315.000000	94.7	-27.6637
1320.000000	94.7	-27.1242
1340.000000	94.8	-24.9876
1360.000000	95.0	-22.8881
1380.000000	95.1	-20.7989
1400.000000	95.2	-18.7097
1430.000000	95.4	-15.5291
1450.000000	95.5	-13.1614
1475.000000	95.6	-9.8441
1500.000000	95.7	-6.3782
1525.000000	95.8	-2.9179
1550.000000	95.9	0.5310
1575.000000	96.0	3.9570
1600.000000	96.2	7.3653
1625.000000	96.3	10.7162
1650.000000	96.4	14.0174
1675.000000	96.5	17.2956
1700.000000	96.6	20.5558
1725.000000	96.8	23.7751
1750.000000	96.9	26.9431
1775.000000	97.0	30.1073
1800.000000	97.1	33.2637
1825.000000	97.3	36.3998
1850.000000	97.4	39.4425
1875.000000	97.6	42.2122
1900.000000	97.7	44.6358
1925.000000	97.8	46.8562
1950.000000	98.0	48.9976
1975.000000	98.1	51.1225
2000.000000	98.3	53.2221
2030.000000	98.5	55.6727
2060.000000	98.6	58.0509
2090.000000	98.8	60.3324
2120.000000	98.9	62.5283
2140.000000	99.0	63.9611
2180.000000	99.2	66.7577
2200.000000	99.3	68.1172
2240.000000	99.4	70.7954
2270.000000	99.5	72.8032
2300.000000	99.6	74.8015
2330.000000	99.7	76.8088
2360.000000	99.8	78.8233
2400.000000	99.9	81.5070
2430.000000	100.0	83.5353
2470.000000	100.0	86.2333
2500.000000	100.1	88.2417
2540.000000	100.1	90.8869
2580.000000	100.1	93.5386
2620.000000	100.1	96.2657
2650.000000	100.1	98.3193
2690.000000	100.1	101.0266
2720.000000	100.1	103.0621
2760.000000	100.1	105.8354
2800.000000	100.0	108.6668
2850.000000	99.9	112.2239
2900.000000	99.9	115.8008
2950.000000	99.8	119.3948
3000.000000	99.8	123.0426
3040.000000	99.7	126.0471
3070.000000	99.7	128.3467
3110.000000	99.6	131.4693
3150.000000	99.6	134.6465
3200.000000	99.4	138.6723
3250.000000	99.3	142.7629
3300.000000	99.2	146.9452
3350.000000	99.0	151.2341
3400.000000	98.9	155.5937
3450.000000	98.7	160.0088
3500.000000	98.6	164.4955
3550.000000	98.5	169.0538
3600.000000	98.4	173.6980
3650.000000	98.3	178.4214
3700.000000	98.2	-176.7764
3750.000000	98.1	-171.9028
3820.000000	98.0	-165.0064
3870.000000	98.0	-160.0268
3950.000000	97.9	-152.0706
4000.000000	97.9	-147.1803
4060.000000	97.8	-141.4779
4120.000000	97.8	-135.9511
4180.000000	97.8	-130.4929
4250.000000	97.8	-124.1898
4310.000000	97.7	-118.8199
4370.000000	97.7	-113.3724
4440.000000	97.6	-106.7596
4500.000000	97.5	-100.5887
4550.000000	97.3	-95.1424
4620.000000	97.1	-87.9486
4680.000000	97.0	-82.3385
4750.000000	96.8	-76.0226
4820.000000	96.6	-69.7691
4870.000000	96.5	-65.2816
4940.000000	96.4	-58.8813
5000.000000	96.3	-53.2530
5080.000000	96.1	-45.5645
5150.000000	96.0	-38.6797
5220.000000	95.8	-31.6379
5300.000000	95.7	-23.4274
5380.000000	95.5	-15.0679
5450.000000	95.3	-7.6624
5520.000000	95.1	-0.1743
5600.000000	95.0	8.5031
5700.000000	94.8	19.5222
5800.000000	94.5	30.8093
5900.000000	94.2	42.3823
6000.000000	93.9	54.1841
6080.000000	93.7	63.7654
6150.000000	93.5	72.2520
6220.000000	93.3	80.8546
6300.000000	93.2	90.8621
6400.000000	93.1	103.6802
6500.000000	93.2	116.7863
6600.000000	93.3	130.0499
6700.000000	93.5	143.4100
6800.000000	93.7	156.8463
6900.000000	94.0	170.5267
7000.000000	94.2	-175.1813
7100.000000	94.3	-159.9937
7200.000000	94.1	-143.8204
7300.000000	93.7	-126.5395
7400.000000	92.9	-107.9835
7500.000000	91.8	-88.1392
7620.000000	90.5	-63.3217
7750.000000	89.7	-37.2629
7880.000000	89.7	-14.8885
8000.000000	90.2	1.1642
8120.000000	90.6	13.1757
8250.000000	90.7	23.4897
8380.000000	90.3	33.3557
8500.000000	89.6	43.5500
8620.000000	88.6	55.1895
8750.000000	87.5	69.1804
8850.000000	86.6	80.6528
9000.000000	85.3	98.7198
9120.000000	84.4	113.7921
9250.000000	83.4	130.6407
9380.000000	82.5	147.9958
9500.000000	81.7	164.3429
9620.000000	81.0	-179.1045
9750.000000	80.5	-161.0101
9880.000000	80.0	-142.8418
10000.000000	79.6	-126.0295
10150.000000	79.1	-104.8254
10300.000000	78.5	-83.4375
10440.000000	77.9	-63.4253
10600.000000	77.4	-40.2737
10750.000000	77.0	-18.1674
10900.000000	76.8	4.4678
11060.000000	77.0	29.2819
11200.000000	77.4	51.5034
11380.000000	78.1	80.9926
11500.000000	78.7	101.2878
11720.000000	80.3	138.4187
11800.000000	81.0	151.2705
12060.000000	83.5	-171.9552
12200.000000	84.7	-155.5497
12410.000000	86.2	-133.6030
12500.000000	86.8	-124.5371
12650.000000	88.0	-109.3839
12800.000000	89.6	-94.2369
13150.000000	94.4	-63.2069
13200.000000	95.1	-60.0093
13400.000000	97.5	-52.5294
13600.000000	98.6	-52.7107
13800.000000	97.8	-52.7761
14000.000000	95.7	-45.0793
14300.000000	92.0	-19.3821
14500.000000	90.2	2.8677
14750.000000	89.1	33.0359
15000.000000	88.8	64.1152
15250.000000	88.9	95.1841
15500.000000	88.8	125.9897
15750.000000	88.5	155.9790
16000.000000	87.7	-175.8726
16250.000000	86.2	-150.6130
16500.000000	84.4	-128.7968
16750.000000	82.5	-109.8826
17000.000000	80.2	-92.0049
17250.000000	77.4	-72.9003
17500.000000	74.2	-51.2972
17750.000000	71.3	-27.1858
18000.000000	70.0	-1.1091
18250.000000	69.6	26.1709
18500.000000	70.9	53.9600
18750.000000	73.0	82.0049
19000.000000	72.8	110.3711
19250.000000	70.0	139.3477
19500.000000	66.8	168.7144
19750.000000	65.1	-164.8291
