* Measurement data measured by REW V5.20 Beta 59
* Source: Microphone (Realtek USB2.0 Audio), MICROPHONE (Master Volume), R, volume: 0.588. Timing signal peak level -18.7 dBFS, measurement signal peak level -7.7 dBFS
* Format: 2M Log Swept Sine, 1 sweep at -10.0 dBFS using an acoustic timing reference
* Dated: Aug 8, 2020 11:46:15 AM
* REW Settings:
*  C-weighting compensation: Off
*  Target level: 75.0 dB
* Note: Delay -0.0994 ms (-34 mm, -1.34 in) using estimated IR delay relative to Acoustic reference on HEADPHONE R with no timing offset
* Measurement: E1DA 9038S Gen 3 R
* Smoothing: 1/24 octave
* Frequency Step: 1/48 octave
* Start Frequency: 20.000 Hz
*
* Freq(Hz)	SPL(dB)	Phase(degrees)
20.000000	74.817085	98.5261
20.299999	74.919861	97.0144
20.600000	75.016602	95.5337
20.900000	75.106155	94.0929
21.200001	75.186996	92.7007
21.400000	75.235062	91.8016
21.799999	75.313744	90.0657
22.000000	75.343697	89.2222
22.400000	75.389771	87.5676
22.700001	75.421295	86.3410
23.000000	75.455574	85.1216
23.299999	75.491760	83.9111
23.600000	75.526054	82.7155
24.000000	75.566353	81.1568
24.299999	75.594017	80.0204
24.700001	75.628738	78.5508
25.000000	75.653130	77.4807
25.400000	75.684334	76.0910
25.799999	75.714851	74.7376
26.200001	75.743172	73.4140
26.500000	75.762207	72.4374
26.900000	75.786308	71.1529
27.200001	75.805168	70.2018
27.600000	75.832748	68.9521
28.000000	75.863152	67.7281
28.500000	75.901657	66.2444
29.000000	75.928337	64.8170
29.500000	75.935913	63.4408
30.000000	75.935562	62.1017
30.400000	75.936920	61.0486
30.700001	75.940102	60.2669
31.100000	75.948349	59.2364
31.500000	75.961548	58.2224
32.000000	75.979996	56.9845
32.500000	75.993301	55.7833
33.000000	76.000443	54.6170
33.500000	76.005875	53.4809
34.000000	76.012276	52.3690
34.500000	76.018463	51.2760
35.000000	76.023193	50.1984
35.500000	76.026817	49.1373
36.000000	76.029976	48.0981
36.500000	76.032440	47.0853
37.000000	76.033524	46.0981
37.500000	76.032814	45.1324
38.200001	76.028000	43.8124
38.700001	76.021576	42.8936
39.500000	76.006119	41.4684
40.000000	75.993835	40.6039
40.599998	75.978416	39.5893
41.200001	75.962318	38.5967
41.799999	75.943855	37.6284
42.500000	75.920753	36.5353
43.099998	75.903259	35.6255
43.700001	75.886475	34.7293
44.400002	75.863113	33.7034
45.000000	75.840477	32.8558
45.500000	75.822609	32.1696
46.200001	75.800949	31.2134
46.799999	75.781853	30.3875
47.500000	75.753113	29.4450
48.200001	75.719925	28.5459
48.700001	75.696922	27.9155
49.400002	75.663864	27.0322
50.000000	75.631638	26.2933
50.799999	75.586952	25.3702
51.500000	75.551712	24.6045
52.200001	75.516670	23.8442
53.000000	75.468048	22.9723
53.799999	75.411018	22.1096
54.500000	75.363770	21.3831
55.200001	75.323402	20.6957
56.000000	75.282890	19.9385
57.000000	75.232399	19.0037
58.000000	75.176949	18.1006
59.000000	75.121910	17.2042
60.000000	75.064056	16.3274
60.799999	75.018562	15.6721
61.500000	74.981438	15.1132
62.200001	74.943527	14.5555
63.000000	74.896988	13.9344
64.000000	74.837212	13.1997
65.000000	74.779457	12.4894
66.000000	74.718040	11.7421
67.000000	74.640228	11.0011
68.000000	74.563080	10.4118
69.000000	74.516197	9.8671
70.000000	74.481613	9.1858
71.000000	74.432800	8.4557
72.000000	74.374153	7.7986
73.000000	74.312805	7.2272
74.000000	74.250870	6.7140
75.000000	74.184464	6.2208
76.199997	74.098846	5.7285
77.500000	74.029442	5.2045
78.800003	73.965363	4.5305
80.000000	73.906105	3.9188
81.199997	73.844589	3.3511
82.500000	73.784035	2.7858
83.800003	73.711693	2.1637
85.000000	73.632553	1.7381
86.199997	73.563049	1.3831
87.500000	73.483131	0.9683
88.500000	73.416428	0.6371
90.000000	73.317139	0.1450
91.199997	73.245201	-0.2372
92.500000	73.174454	-0.6388
93.800003	73.106934	-1.0117
95.000000	73.046844	-1.3376
96.199997	72.986618	-1.6562
97.500000	72.920197	-1.9780
98.800003	72.852722	-2.2794
100.000000	72.789879	-2.5443
101.500000	72.712807	-2.8591
103.000000	72.637329	-3.1553
104.400002	72.567108	-3.4101
106.000000	72.489449	-3.6935
107.500000	72.416809	-3.9686
109.000000	72.343544	-4.2325
110.599998	72.265472	-4.4930
112.000000	72.198647	-4.6905
113.800003	72.119331	-4.9158
115.000000	72.069641	-5.0563
117.199997	71.979729	-5.2971
118.000000	71.947296	-5.3862
120.599998	71.839737	-5.6830
122.000000	71.783875	-5.8252
124.099998	71.707764	-6.0112
125.000000	71.677170	-6.0751
126.500000	71.628304	-6.1495
128.000000	71.581512	-6.1812
131.500000	71.482071	-6.3240
132.000000	71.464424	-6.3705
134.000000	71.386978	-6.5049
136.000000	71.316338	-6.5752
138.000000	71.248260	-6.6724
140.000000	71.178787	-6.7988
143.000000	71.064529	-6.9973
145.000000	70.981049	-6.9551
147.500000	70.896965	-6.7878
150.000000	70.817398	-6.7167
152.500000	70.727890	-6.7661
155.000000	70.634933	-6.8351
157.500000	70.571556	-6.7751
160.000000	70.527260	-6.7354
162.500000	70.473099	-6.6758
165.000000	70.412384	-6.6393
167.500000	70.351067	-6.6471
170.000000	70.284966	-6.5974
172.500000	70.226173	-6.4045
175.000000	70.180901	-6.2302
177.500000	70.136047	-6.1434
180.000000	70.088150	-6.0710
182.500000	70.039467	-5.9631
185.000000	69.991203	-5.8250
187.500000	69.940247	-5.6851
190.000000	69.886345	-5.5436
192.500000	69.831062	-5.4005
195.000000	69.773499	-5.2704
197.500000	69.711411	-5.1382
200.000000	69.650970	-4.9899
203.000000	69.587524	-4.8126
206.000000	69.532837	-4.6326
209.000000	69.485359	-4.4510
212.000000	69.444199	-4.2964
214.000000	69.417191	-4.1952
218.000000	69.358757	-3.8986
220.000000	69.328461	-3.7261
224.000000	69.267090	-3.4174
227.000000	69.230865	-3.2104
230.000000	69.201340	-3.0064
233.000000	69.169785	-2.8131
236.000000	69.134056	-2.6501
240.000000	69.085205	-2.4587
243.000000	69.050934	-2.2963
247.000000	69.007477	-2.0260
250.000000	68.979599	-1.7987
254.000000	68.945168	-1.4908
258.000000	68.910881	-1.1934
262.000000	68.878380	-0.9105
265.000000	68.855240	-0.6910
269.000000	68.826706	-0.4001
272.000000	68.803772	-0.1790
276.000000	68.764442	0.1287
280.000000	68.724747	0.4512
285.000000	68.686546	0.8597
290.000000	68.643120	1.1475
295.000000	68.601410	1.4672
300.000000	68.572029	1.8137
304.000000	68.550842	2.0739
307.000000	68.533676	2.2652
311.000000	68.513458	2.5356
315.000000	68.491730	2.8356
320.000000	68.460724	3.2322
325.000000	68.432594	3.6305
330.000000	68.403915	4.0036
335.000000	68.377991	4.3391
340.000000	68.358521	4.6666
345.000000	68.342690	5.0229
350.000000	68.326248	5.3909
355.000000	68.303780	5.7543
360.000000	68.276863	6.1224
365.000000	68.254402	6.4847
370.000000	68.238976	6.8288
375.000000	68.221298	7.1813
382.000000	68.193665	7.6868
387.000000	68.176208	8.0322
395.000000	68.148285	8.5762
400.000000	68.130836	8.9227
406.000000	68.107315	9.3359
412.000000	68.083435	9.7390
418.000000	68.063934	10.1462
425.000000	68.046333	10.6456
431.000000	68.031128	11.0477
437.000000	68.018578	11.4401
444.000000	68.007149	11.8972
450.000000	67.995239	12.2203
455.000000	67.983109	12.4304
462.000000	67.966873	12.6702
468.000000	67.954910	12.8540
475.000000	67.941338	13.0579
482.000000	67.926460	13.2664
487.000000	67.914551	13.4224
494.000000	67.899292	13.6238
500.000000	67.888374	13.7843
508.000000	67.874428	14.0836
515.000000	67.866280	14.4847
522.000000	67.860405	14.9363
530.000000	67.850868	15.4353
538.000000	67.840256	15.9326
545.000000	67.832199	16.3663
552.000000	67.824318	16.7845
560.000000	67.817871	17.2607
570.000000	67.812332	17.8589
580.000000	67.807999	18.4438
590.000000	67.804993	19.0313
600.000000	67.802773	19.6229
608.000000	67.797302	20.0825
615.000000	67.792267	20.4774
622.000000	67.789154	20.8728
630.000000	67.783920	21.3324
640.000000	67.773376	21.9133
650.000000	67.768326	22.5187
660.000000	67.773567	23.1350
670.000000	67.780388	23.7306
680.000000	67.786392	24.3511
690.000000	67.792679	24.9800
700.000000	67.797150	25.6150
710.000000	67.798943	26.2505
720.000000	67.798271	26.8962
730.000000	67.797882	27.5309
740.000000	67.799591	28.1495
750.000000	67.802467	28.7699
762.000000	67.807266	29.5153
775.000000	67.815117	30.3120
788.000000	67.827133	31.1126
800.000000	67.843216	31.8763
812.000000	67.863686	32.6526
825.000000	67.888885	33.5042
838.000000	67.916901	34.3705
850.000000	67.944351	35.1780
862.000000	67.974243	35.9984
875.000000	68.010422	36.9084
885.000000	68.039574	37.6140
900.000000	68.086433	38.6675
912.000000	68.128975	39.5117
925.000000	68.181244	40.4294
938.000000	68.241112	41.3424
950.000000	68.302650	42.1733
962.000000	68.367973	42.9880
975.000000	68.442932	43.8654
988.000000	68.522690	44.7502
1000.000000	68.600037	45.5689
1015.000000	68.703247	46.5871
1030.000000	68.816521	47.6023
1044.000000	68.931396	48.5620
1060.000000	69.072021	49.6943
1075.000000	69.210724	50.7812
1090.000000	69.353287	51.8398
1106.000000	69.506462	52.8548
1120.000000	69.640610	53.5968
1138.000000	69.814613	54.3709
1150.000000	69.932938	54.8257
1172.000000	70.154343	55.6356
1180.000000	70.235733	55.9329
1206.000000	70.498848	56.8894
1220.000000	70.637970	57.3939
1241.000000	70.840958	58.1355
1250.000000	70.924965	58.4515
1265.000000	71.060654	58.9888
1280.000000	71.191269	59.5404
1315.000000	71.476715	60.8196
1320.000000	71.515396	61.0002
1340.000000	71.664818	61.7150
1360.000000	71.806175	62.4185
1380.000000	71.942047	63.1160
1400.000000	72.073051	63.7923
1430.000000	72.261757	64.7958
1450.000000	72.383728	65.4709
1475.000000	72.531677	66.2864
1500.000000	72.675598	67.0651
1525.000000	72.814957	67.8000
1550.000000	72.950409	68.4811
1575.000000	73.085747	69.1215
1600.000000	73.223267	69.7230
1625.000000	73.363655	70.2538
1650.000000	73.509018	70.7104
1675.000000	73.659317	71.0984
1700.000000	73.812737	71.4271
1725.000000	73.967339	71.7168
1750.000000	74.123093	71.9799
1775.000000	74.281670	72.1983
1800.000000	74.443214	72.3433
1825.000000	74.607635	72.4258
1850.000000	74.774887	72.4676
1875.000000	74.943970	72.4732
1900.000000	75.113228	72.4181
1925.000000	75.282669	72.2920
1950.000000	75.452866	72.1072
1975.000000	75.623871	71.8700
2000.000000	75.793808	71.5729
2030.000000	75.993103	71.1391
2060.000000	76.186806	70.6610
2090.000000	76.373749	70.1591
2120.000000	76.553749	69.6443
2140.000000	76.669930	69.3011
2180.000000	76.892075	68.6013
2200.000000	76.998520	68.2383
2240.000000	77.204323	67.4690
2270.000000	77.353554	66.8482
2300.000000	77.497261	66.2372
2330.000000	77.634392	65.7816
2360.000000	77.767540	65.6015
2400.000000	77.935539	65.3392
2430.000000	78.052292	64.8275
2470.000000	78.202240	63.9083
2500.000000	78.311813	63.1411
2540.000000	78.451736	62.0375
2580.000000	78.580635	60.8691
2620.000000	78.697319	59.6752
2650.000000	78.777565	58.7560
2690.000000	78.874046	57.4872
2720.000000	78.937981	56.5038
2760.000000	79.013680	55.1535
2800.000000	79.080414	53.7556
2850.000000	79.157906	51.9817
2900.000000	79.239914	50.1996
2950.000000	79.330276	48.3424
3000.000000	79.418045	46.4194
3040.000000	79.475433	44.9061
3070.000000	79.507675	43.8624
3110.000000	79.537064	42.8311
3150.000000	79.552155	42.3513
3200.000000	79.547073	42.1628
3250.000000	79.515167	42.0731
3300.000000	79.460625	42.0104
3350.000000	79.388603	41.9930
3400.000000	79.306679	42.0934
3450.000000	79.221382	42.3153
3500.000000	79.137894	42.5980
3550.000000	79.060265	42.8944
3600.000000	78.988342	43.2013
3650.000000	78.918793	43.5326
3700.000000	78.845428	43.8698
3750.000000	78.762711	44.1663
3820.000000	78.625900	44.5416
3870.000000	78.508797	44.8397
3950.000000	78.281975	45.3368
4000.000000	78.117661	45.6844
4060.000000	77.905121	46.1910
4120.000000	77.679596	46.8182
4180.000000	77.443092	47.5619
4250.000000	77.164017	48.6288
4310.000000	76.922958	49.7878
4370.000000	76.659775	51.1599
4440.000000	76.294678	52.9904
4500.000000	75.929283	54.7282
4550.000000	75.602135	56.3103
4620.000000	75.136818	58.7886
4680.000000	74.749084	61.1534
4750.000000	74.323456	64.1486
4820.000000	73.933655	67.3946
4870.000000	73.681290	69.8766
4940.000000	73.368927	73.5907
5000.000000	73.134598	76.9936
5080.000000	72.852722	81.8528
5150.000000	72.626511	86.4008
5220.000000	72.425575	91.0938
5300.000000	72.247787	96.5499
5380.000000	72.146301	102.1646
5450.000000	72.128113	107.2289
5520.000000	72.183212	112.4286
5600.000000	72.346603	118.3842
5700.000000	72.714424	125.5925
5800.000000	73.247841	132.0525
5900.000000	73.861595	136.8321
6000.000000	74.409218	139.1871
6080.000000	74.680664	139.2272
6150.000000	74.727997	138.3251
6220.000000	74.572418	137.2166
6300.000000	74.163284	136.5034
6400.000000	73.404602	137.4835
6500.000000	72.552406	141.0737
6600.000000	71.715309	146.6541
6700.000000	70.858353	154.6157
6800.000000	70.187347	165.5447
6900.000000	69.868355	177.5541
7000.000000	69.688843	-170.4914
7100.000000	69.430069	-157.8876
7200.000000	68.981857	-143.8455
7300.000000	68.285149	-127.9480
7400.000000	67.353149	-110.3567
7500.000000	66.347305	-92.3483
7620.000000	65.455910	-72.1482
7750.000000	65.292900	-53.8282
7880.000000	65.896278	-40.7744
8000.000000	66.793808	-33.4524
8120.000000	67.707611	-29.7219
8250.000000	68.471230	-28.5294
8380.000000	68.869308	-29.0688
8500.000000	68.894409	-30.0262
8620.000000	68.641060	-30.6574
8750.000000	68.150070	-30.6923
8850.000000	67.692169	-30.1520
9000.000000	66.980453	-28.5436
9120.000000	66.423180	-26.7577
9250.000000	65.841034	-24.4441
9380.000000	65.297920	-21.8164
9500.000000	64.876785	-19.1942
9620.000000	64.591507	-16.5003
9750.000000	64.441719	-13.7274
9880.000000	64.378418	-11.3146
10000.000000	64.323425	-9.4364
10150.000000	64.207489	-7.5502
10300.000000	64.009377	-6.0855
10440.000000	63.744446	-4.8363
10600.000000	63.406101	-3.5207
10750.000000	63.162743	-2.5084
10900.000000	63.079865	-1.7456
11060.000000	63.161633	-0.8280
11200.000000	63.298397	1.2259
11380.000000	63.426373	6.6164
11500.000000	63.427624	11.3101
11720.000000	63.232433	20.6044
11800.000000	63.105587	24.1117
12060.000000	62.540768	36.0090
12200.000000	62.183006	42.6348
12410.000000	61.692692	52.6036
12500.000000	61.542389	56.8668
12650.000000	61.435440	63.9007
12800.000000	61.551128	70.7048
13150.000000	62.435848	85.4158
13200.000000	62.573677	87.3854
13400.000000	62.993397	94.9487
13600.000000	63.057213	102.0812
13800.000000	62.632992	109.0770
14000.000000	61.728661	116.5835
14300.000000	59.912628	130.0042
14500.000000	58.870094	140.1321
14750.000000	58.265026	151.7486
15000.000000	58.414433	161.3224
15250.000000	58.664619	168.7811
15500.000000	58.425636	174.7488
15750.000000	57.499840	-178.2178
16000.000000	55.855923	-167.7784
16250.000000	53.783890	-152.7318
16500.000000	52.096710	-137.0121
16750.000000	50.952557	-128.0577
17000.000000	49.741234	-125.7493
17250.000000	48.148911	-125.2264
17500.000000	46.330402	-124.8433
17750.000000	45.211655	-124.7814
18000.000000	45.417576	-125.2164
18250.000000	45.826462	-126.0461
18500.000000	47.379616	-126.3171
18750.000000	49.306496	-124.3224
19000.000000	48.904945	-119.0870
19250.000000	46.053108	-111.1986
19500.000000	43.025822	-102.5788
19750.000000	41.784142	-95.5446
