* Measurement data measured by REW V5.20.13
* Source: EXCL: Microphone (High Definition Audio Device), MICROPHONE (Master Volume), L, volume: 1.000. Timing signal peak level -18.9 dBFS, measurement signal peak level -10.4 dBFS
* Format: 4M Log Swept Sine, 1 sweep at -10.0 dBFS using an acoustic timing reference
* Dated: Aug 19, 2023 11:25:36 AM
* REW Settings:
*  C-weighting compensation: Off
*  Target level: 75.0 dB
* Note: Delay -0.0589 ms (-20 mm, -0.8 in) using estimated IR delay relative to Acoustic reference played from SPEAKER L with no timing offset Clock adjustment: -26.2 ppm
* Measurement: Starfield II (Bass Plug) L
* Smoothing: None
* Frequency Step: 1/48 octave
* Start Frequency: 20.000 Hz
*
* Freq(Hz)	SPL(dB)	Phase(degrees)
20.000000	105.174	-12.2828
20.299999	105.131	-12.9185
20.600000	105.088	-13.5394
20.900000	105.045	-14.1469
21.200001	105.002	-14.7419
21.400000	104.969	-15.1326
21.799999	104.900	-15.8994
22.000000	104.866	-16.2755
22.400000	104.797	-17.0116
22.700001	104.744	-17.5482
23.000000	104.692	-18.0715
23.299999	104.640	-18.5833
23.600000	104.587	-19.0856
24.000000	104.520	-19.7434
24.299999	104.471	-20.2278
24.700001	104.405	-20.8591
25.000000	104.355	-21.3193
25.400000	104.289	-21.9141
25.799999	104.223	-22.4910
26.200001	104.157	-23.0555
26.500000	104.109	-23.4728
26.900000	104.043	-24.0200
27.200001	103.991	-24.4218
27.600000	103.921	-24.9440
28.000000	103.852	-25.4514
28.500000	103.767	-26.0692
29.000000	103.682	-26.6732
29.500000	103.598	-27.2632
30.000000	103.513	-27.8366
30.400000	103.448	-28.2811
30.700001	103.400	-28.6058
31.100000	103.335	-29.0276
31.500000	103.271	-29.4387
32.000000	103.192	-29.9414
32.500000	103.113	-30.4335
33.000000	103.033	-30.9121
33.500000	102.956	-31.3736
34.000000	102.883	-31.8193
34.500000	102.807	-32.2545
35.000000	102.732	-32.6821
35.500000	102.656	-33.1013
36.000000	102.581	-33.5095
36.500000	102.506	-33.9054
37.000000	102.432	-34.2888
37.500000	102.358	-34.6607
38.200001	102.255	-35.1655
38.700001	102.183	-35.5165
39.500000	102.068	-36.0604
40.000000	101.997	-36.3885
40.599998	101.911	-36.7704
41.200001	101.827	-37.1393
41.799999	101.743	-37.4966
42.500000	101.646	-37.9008
43.099998	101.563	-38.2364
43.700001	101.481	-38.5631
44.400002	101.386	-38.9369
45.000000	101.305	-39.2489
45.500000	101.237	-39.4987
46.200001	101.143	-39.8331
46.799999	101.064	-40.1114
47.500000	100.973	-40.4288
48.200001	100.883	-40.7357
48.700001	100.819	-40.9473
49.400002	100.731	-41.2330
50.000000	100.656	-41.4704
50.799999	100.557	-41.7803
51.500000	100.471	-42.0409
52.200001	100.387	-42.2933
53.000000	100.292	-42.5831
53.799999	100.194	-42.8521
54.500000	100.110	-43.0602
55.200001	100.031	-43.2831
56.000000	99.937	-43.5626
57.000000	99.813	-43.8428
58.000000	99.698	-44.0842
59.000000	99.585	-44.3499
60.000000	99.469	-44.5967
60.799999	99.380	-44.7910
61.500000	99.302	-44.9467
62.200001	99.227	-45.0951
63.000000	99.141	-45.2688
64.000000	99.034	-45.4696
65.000000	98.929	-45.6680
66.000000	98.823	-45.8513
67.000000	98.721	-46.0154
68.000000	98.619	-46.1851
69.000000	98.519	-46.3381
70.000000	98.420	-46.4868
71.000000	98.322	-46.6302
72.000000	98.223	-46.7667
73.000000	98.125	-46.8871
74.000000	98.029	-46.9924
75.000000	97.935	-47.1027
76.199997	97.821	-47.2188
77.500000	97.699	-47.3391
78.800003	97.576	-47.4341
80.000000	97.466	-47.5181
81.199997	97.354	-47.5801
82.500000	97.240	-47.6369
83.800003	97.119	-47.6978
85.000000	97.012	-47.7087
86.199997	96.905	-47.7136
87.500000	96.796	-47.6973
88.500000	96.710	-47.7115
90.000000	96.579	-47.6915
91.199997	96.476	-47.6676
92.500000	96.360	-47.6222
93.800003	96.242	-47.5304
95.000000	96.132	-47.4108
96.199997	96.021	-47.2228
97.500000	95.904	-46.9298
98.800003	95.791	-46.4999
100.000000	95.706	-45.9762
101.500000	95.634	-45.2025
103.000000	95.626	-44.4574
104.400002	95.667	-44.0316
106.000000	95.728	-44.1171
107.500000	95.746	-44.5483
109.000000	95.716	-45.0840
110.599998	95.651	-45.5787
112.000000	95.573	-45.9767
113.800003	95.459	-46.2968
115.000000	95.380	-46.4930
117.199997	95.242	-46.6932
118.000000	95.186	-46.7348
120.599998	95.025	-46.9166
122.000000	94.936	-46.8273
124.099998	94.805	-46.8152
125.000000	94.752	-46.8007
126.500000	94.664	-46.7620
128.000000	94.578	-46.7193
131.500000	94.387	-46.5726
132.000000	94.361	-46.5504
134.000000	94.256	-46.4482
136.000000	94.152	-46.3549
138.000000	94.051	-46.2421
140.000000	93.951	-46.1216
143.000000	93.805	-45.9337
145.000000	93.710	-45.7916
147.500000	93.592	-45.6267
150.000000	93.478	-45.4333
152.500000	93.355	-45.2386
155.000000	93.232	-45.0267
157.500000	93.111	-44.7872
160.000000	92.994	-44.5836
162.500000	92.883	-44.3444
165.000000	92.770	-44.0995
167.500000	92.662	-43.8540
170.000000	92.560	-43.5839
172.500000	92.473	-43.3854
175.000000	92.388	-43.1742
177.500000	92.308	-42.9908
180.000000	92.210	-42.7084
182.500000	92.120	-42.4392
185.000000	92.036	-42.2196
187.500000	91.952	-41.8851
190.000000	91.870	-41.5777
192.500000	91.805	-41.2454
195.000000	91.746	-40.9046
197.500000	91.688	-40.6362
200.000000	91.635	-40.3612
203.000000	91.576	-40.1157
206.000000	91.512	-39.8724
209.000000	91.441	-39.6777
212.000000	91.372	-39.4647
214.000000	91.324	-39.3165
218.000000	91.215	-38.9808
220.000000	91.157	-38.7776
224.000000	91.049	-38.4277
227.000000	90.962	-38.1431
230.000000	90.887	-37.8967
233.000000	90.810	-37.5840
236.000000	90.733	-37.2558
240.000000	90.622	-36.9172
243.000000	90.560	-36.5692
247.000000	90.468	-36.1249
250.000000	90.397	-35.8198
254.000000	90.311	-35.4062
258.000000	90.223	-34.9753
262.000000	90.135	-34.5525
265.000000	90.073	-34.2629
269.000000	89.990	-33.7866
272.000000	89.932	-33.4685
276.000000	89.858	-33.0495
280.000000	89.786	-32.6367
285.000000	89.700	-32.1058
290.000000	89.612	-31.5693
295.000000	89.531	-31.0368
300.000000	89.450	-30.4910
304.000000	89.390	-30.0721
307.000000	89.344	-29.7646
311.000000	89.283	-29.3505
315.000000	89.224	-28.9120
320.000000	89.149	-28.3882
325.000000	89.078	-27.8595
330.000000	89.011	-27.3378
335.000000	88.947	-26.8209
340.000000	88.882	-26.2830
345.000000	88.818	-25.7784
350.000000	88.757	-25.2596
355.000000	88.698	-24.7454
360.000000	88.640	-24.2097
365.000000	88.587	-23.7227
370.000000	88.534	-23.2147
375.000000	88.482	-22.6721
382.000000	88.408	-21.9654
387.000000	88.358	-21.4709
395.000000	88.280	-20.6637
400.000000	88.230	-20.1598
406.000000	88.172	-19.5620
412.000000	88.118	-18.9764
418.000000	88.063	-18.3519
425.000000	88.005	-17.6824
431.000000	87.957	-17.1044
437.000000	87.909	-16.4962
444.000000	87.857	-15.8124
450.000000	87.811	-15.2393
455.000000	87.777	-14.7380
462.000000	87.730	-14.0663
468.000000	87.693	-13.5025
475.000000	87.646	-12.8405
482.000000	87.604	-12.1580
487.000000	87.576	-11.6700
494.000000	87.538	-11.0270
500.000000	87.505	-10.4536
508.000000	87.460	-9.6818
515.000000	87.427	-9.0344
522.000000	87.396	-8.4158
530.000000	87.362	-7.6375
538.000000	87.329	-6.9066
545.000000	87.297	-6.2515
552.000000	87.267	-5.5874
560.000000	87.239	-4.8516
570.000000	87.199	-3.9490
580.000000	87.165	-3.0190
590.000000	87.134	-2.1025
600.000000	87.107	-1.2008
608.000000	87.083	-0.4568
615.000000	87.063	0.1916
622.000000	87.050	0.8288
630.000000	87.033	1.5546
640.000000	87.016	2.4784
650.000000	86.998	3.4000
660.000000	86.980	4.3226
670.000000	86.971	5.2438
680.000000	86.969	6.1616
690.000000	86.957	7.0645
700.000000	86.958	8.0170
710.000000	86.960	8.9185
720.000000	86.961	9.8450
730.000000	86.963	10.7428
740.000000	86.974	11.6578
750.000000	86.986	12.5715
762.000000	87.008	13.6493
775.000000	87.035	14.8218
788.000000	87.066	15.9744
800.000000	87.100	17.0549
812.000000	87.142	18.1137
825.000000	87.193	19.2419
838.000000	87.251	20.3330
850.000000	87.304	21.3505
862.000000	87.366	22.3539
875.000000	87.435	23.3931
885.000000	87.494	24.2033
900.000000	87.588	25.3336
912.000000	87.667	26.2252
925.000000	87.759	27.1597
938.000000	87.853	28.0474
950.000000	87.937	28.8396
962.000000	88.033	29.5843
975.000000	88.138	30.3535
988.000000	88.244	31.1043
1000.000000	88.340	31.7277
1015.000000	88.465	32.5045
1030.000000	88.591	33.2060
1044.000000	88.709	33.8148
1060.000000	88.838	34.4478
1075.000000	88.961	35.0163
1090.000000	89.081	35.5155
1106.000000	89.209	36.0323
1120.000000	89.314	36.4398
1138.000000	89.448	36.9271
1150.000000	89.538	37.2407
1172.000000	89.697	37.7617
1180.000000	89.748	37.9480
1206.000000	89.922	38.5147
1220.000000	90.000	38.7760
1241.000000	90.100	39.2076
1250.000000	90.139	39.3683
1265.000000	90.208	39.6573
1280.000000	90.276	39.9427
1315.000000	90.422	40.5732
1320.000000	90.445	40.6622
1340.000000	90.528	41.0269
1360.000000	90.624	41.3939
1380.000000	90.731	41.7500
1400.000000	90.836	42.1328
1430.000000	90.995	42.6652
1450.000000	91.098	43.0266
1475.000000	91.230	43.4722
1500.000000	91.363	43.9321
1525.000000	91.497	44.3614
1550.000000	91.645	44.8071
1575.000000	91.794	45.2308
1600.000000	91.946	45.6461
1625.000000	92.096	46.0583
1650.000000	92.253	46.4449
1675.000000	92.410	46.8202
1700.000000	92.571	47.1733
1725.000000	92.729	47.5228
1750.000000	92.890	47.8442
1775.000000	93.053	48.1383
1800.000000	93.217	48.4053
1825.000000	93.383	48.6566
1850.000000	93.552	48.8769
1875.000000	93.721	49.0688
1900.000000	93.894	49.2234
1925.000000	94.065	49.3432
1950.000000	94.240	49.4471
1975.000000	94.416	49.5140
2000.000000	94.594	49.5472
2030.000000	94.806	49.5343
2060.000000	95.016	49.4715
2090.000000	95.229	49.3502
2120.000000	95.439	49.1833
2140.000000	95.581	49.0407
2180.000000	95.862	48.6720
2200.000000	96.000	48.4467
2240.000000	96.277	47.9299
2270.000000	96.480	47.4779
2300.000000	96.677	46.9649
2330.000000	96.872	46.4039
2360.000000	97.060	45.7827
2400.000000	97.301	44.8833
2430.000000	97.477	44.1537
2470.000000	97.706	43.1125
2500.000000	97.867	42.2839
2540.000000	98.070	41.1295
2580.000000	98.256	39.9194
2620.000000	98.428	38.6703
2650.000000	98.543	37.7279
2690.000000	98.685	36.4413
2720.000000	98.781	35.4830
2760.000000	98.892	34.1942
2800.000000	98.989	32.9295
2850.000000	99.090	31.3860
2900.000000	99.171	29.9086
2950.000000	99.233	28.4851
3000.000000	99.280	27.1492
3040.000000	99.307	26.1477
3070.000000	99.322	25.4443
3110.000000	99.334	24.5469
3150.000000	99.341	23.7068
3200.000000	99.347	22.7372
3250.000000	99.352	21.8547
3300.000000	99.355	21.0453
3350.000000	99.359	20.3035
3400.000000	99.366	19.6332
3450.000000	99.367	19.0232
3500.000000	99.361	18.4402
3550.000000	99.361	17.8885
3600.000000	99.365	17.3780
3650.000000	99.375	16.8806
3700.000000	99.391	16.4113
3750.000000	99.415	15.9479
3820.000000	99.459	15.3481
3870.000000	99.506	14.9445
3950.000000	99.627	14.3304
4000.000000	99.734	13.9086
4060.000000	99.897	13.2397
4120.000000	100.099	12.2451
4180.000000	100.307	10.7657
4250.000000	100.523	8.4722
4310.000000	100.660	6.1295
4370.000000	100.756	3.5408
4440.000000	100.798	0.3380
4500.000000	100.773	-2.4946
4550.000000	100.705	-4.8595
4620.000000	100.550	-8.1030
4680.000000	100.359	-10.7488
4750.000000	100.079	-13.6760
4820.000000	99.738	-16.3087
4870.000000	99.456	-18.0029
4940.000000	99.006	-19.9659
5000.000000	98.602	-21.2859
5080.000000	98.084	-22.6039
5150.000000	97.604	-23.5873
5220.000000	97.113	-24.1611
5300.000000	96.550	-24.3292
5380.000000	96.011	-23.9644
5450.000000	95.573	-23.3702
5520.000000	95.150	-22.4953
5600.000000	94.697	-21.3589
5700.000000	94.181	-19.6803
5800.000000	93.723	-17.7382
5900.000000	93.306	-15.6410
6000.000000	92.939	-13.3182
6080.000000	92.682	-11.3460
6150.000000	92.483	-9.5872
6220.000000	92.311	-7.6989
6300.000000	92.154	-5.5498
6400.000000	92.005	-2.8036
6500.000000	91.911	-0.0021
6600.000000	91.876	2.8057
6700.000000	91.898	5.5844
6800.000000	91.987	8.3087
6900.000000	92.173	10.9008
7000.000000	92.461	13.3029
7100.000000	92.831	15.4749
7200.000000	93.288	17.2638
7300.000000	93.815	18.5614
7400.000000	94.433	19.2787
7500.000000	95.131	19.0841
7620.000000	96.058	17.3064
7750.000000	97.153	12.7281
7880.000000	97.946	4.7308
8000.000000	98.244	-5.1526
8120.000000	97.925	-15.5775
8250.000000	97.014	-25.1855
8380.000000	95.760	-31.9973
8500.000000	94.493	-35.7790
8620.000000	93.217	-37.6083
8750.000000	91.890	-37.9180
8850.000000	90.927	-37.0778
9000.000000	89.636	-34.5717
9120.000000	88.721	-31.8779
9250.000000	87.836	-28.3655
9380.000000	87.055	-24.4319
9500.000000	86.426	-20.5278
9620.000000	85.888	-16.3732
9750.000000	85.382	-11.8051
9880.000000	84.961	-7.1105
10000.000000	84.650	-2.6306
10150.000000	84.352	3.0341
10300.000000	84.139	8.7218
10440.000000	84.046	13.9777
10600.000000	84.035	19.9980
10750.000000	84.147	25.5834
10900.000000	84.333	31.0515
11060.000000	84.681	36.6023
11200.000000	85.078	41.3647
11380.000000	85.788	46.9460
11500.000000	86.379	50.2743
11720.000000	87.741	54.9594
11800.000000	88.332	56.0538
12060.000000	90.657	55.6292
12200.000000	92.064	51.1384
12410.000000	93.578	35.6721
12500.000000	93.596	26.6815
12650.000000	92.514	13.9281
12800.000000	90.667	9.6189
13150.000000	90.665	12.5140
13200.000000	90.513	9.3943
13400.000000	89.092	2.8502
13600.000000	87.718	2.9520
13800.000000	86.721	5.6877
14000.000000	86.083	9.5170
14300.000000	85.691	15.9630
14500.000000	85.774	19.7220
14750.000000	86.202	23.1026
15000.000000	86.949	24.3291
15250.000000	87.911	22.0964
15500.000000	88.850	15.2570
15750.000000	89.359	3.8871
16000.000000	88.941	-9.2885
16250.000000	87.699	-20.0028
16500.000000	86.130	-26.3414
16750.000000	84.631	-29.0720
17000.000000	83.414	-29.7903
17250.000000	82.505	-30.3925
17500.000000	81.810	-32.5042
17750.000000	81.052	-36.7061
18000.000000	79.893	-42.7070
18250.000000	78.175	-47.8705
18500.000000	76.084	-50.0481
18750.000000	73.885	-48.6960
19000.000000	71.985	-43.7524
19250.000000	70.331	-37.5914
19500.000000	68.800	-30.3497
19750.000000	67.835	-23.3215
