* Measurement data measured by REW V5.20 Beta 55
* Source: Microphone (Realtek USB2.0 Audio), MICROPHONE (Master Volume), L, volume: 0.588. Timing signal peak level -13.8 dBFS, measurement signal peak level -6.8 dBFS
* Format: 2M Log Swept Sine, 1 sweep at -10.0 dBFS using an acoustic timing reference
* Dated: Jun 17, 2020 12:46:12 PM
* REW Settings:
*  C-weighting compensation: Off
*  Target level: 75.0 dB
* Note: Delay -0.0759 ms (-26 mm, -1.03 in) using estimated IR delay relative to Acoustic reference on SPEAKER L with no timing offset
* Measurement: SSR L
* Smoothing: 1/24 octave
* Frequency Step: 1/48 octave
* Start Frequency: 20.000 Hz
*
* Freq(Hz)	SPL(dB)	Phase(degrees)
20.000000	67.3	-52.3338
20.299999	67.3	-53.5252
20.600000	67.4	-55.5910
20.900000	67.6	-57.5583
21.200001	67.7	-59.1885
21.400000	67.9	-60.0703
21.799999	68.0	-61.4826
22.000000	68.1	-62.1241
22.400000	68.2	-63.4673
22.700001	68.2	-64.5328
23.000000	68.3	-65.5726
23.299999	68.4	-66.5862
23.600000	68.5	-67.6123
24.000000	68.6	-68.9147
24.299999	68.7	-69.7981
24.700001	68.8	-70.9788
25.000000	68.8	-71.9445
25.400000	68.9	-73.3181
25.799999	69.0	-74.6790
26.200001	69.2	-75.9340
26.500000	69.2	-76.8422
26.900000	69.3	-78.0325
27.200001	69.4	-78.8394
27.600000	69.5	-79.7740
28.000000	69.6	-80.6727
28.500000	69.7	-81.8814
29.000000	69.8	-83.1873
29.500000	69.8	-84.4931
30.000000	69.9	-85.7501
30.400000	69.9	-86.6912
30.700001	70.0	-87.3326
31.100000	70.0	-88.1560
31.500000	70.1	-89.0297
32.000000	70.2	-90.1440
32.500000	70.3	-91.2098
33.000000	70.3	-92.2726
33.500000	70.4	-93.2867
34.000000	70.5	-94.2601
34.500000	70.6	-95.2975
35.000000	70.6	-96.3525
35.500000	70.7	-97.3280
36.000000	70.8	-98.2214
36.500000	70.8	-99.0681
37.000000	70.9	-99.8937
37.500000	70.9	-100.7433
38.200001	71.0	-102.0047
38.700001	71.1	-102.8724
39.500000	71.2	-104.1828
40.000000	71.2	-105.0808
40.599998	71.2	-106.0228
41.200001	71.3	-106.7631
41.799999	71.3	-107.5611
42.500000	71.4	-108.6758
43.099998	71.4	-109.6626
43.700001	71.5	-110.4542
44.400002	71.5	-111.3172
45.000000	71.6	-112.1951
45.500000	71.6	-112.9253
46.200001	71.7	-113.8046
46.799999	71.7	-114.4340
47.500000	71.7	-115.0880
48.200001	71.8	-115.6888
48.700001	71.8	-116.1691
49.400002	71.8	-117.0446
50.000000	71.9	-117.8914
50.799999	71.9	-118.9772
51.500000	71.9	-119.9650
52.200001	72.0	-120.9123
53.000000	72.0	-121.6888
53.799999	72.0	-122.2874
54.500000	72.0	-122.8184
55.200001	72.1	-123.4019
56.000000	72.1	-124.2100
57.000000	72.1	-125.3137
58.000000	72.2	-125.9537
59.000000	72.2	-126.4956
60.000000	72.2	-127.7133
60.799999	72.2	-128.5619
61.500000	72.2	-129.0786
62.200001	72.2	-129.6016
63.000000	72.2	-130.2262
64.000000	72.3	-130.9951
65.000000	72.3	-131.8271
66.000000	72.3	-132.5280
67.000000	72.3	-133.0663
68.000000	72.4	-133.7065
69.000000	72.4	-134.4724
70.000000	72.4	-135.1793
71.000000	72.4	-135.8358
72.000000	72.4	-136.4363
73.000000	72.4	-136.9827
74.000000	72.5	-137.5581
75.000000	72.5	-138.1524
76.199997	72.5	-138.8424
77.500000	72.5	-139.5811
78.800003	72.5	-140.3445
80.000000	72.5	-141.0614
81.199997	72.5	-141.8288
82.500000	72.5	-142.9935
83.800003	72.5	-143.7581
85.000000	72.5	-143.8021
86.199997	72.5	-143.9605
87.500000	72.5	-144.5808
88.500000	72.5	-145.1388
90.000000	72.5	-145.7287
91.199997	72.5	-146.1652
92.500000	72.5	-146.6593
93.800003	72.5	-147.1451
95.000000	72.5	-147.6054
96.199997	72.5	-148.1053
97.500000	72.6	-148.6562
98.800003	72.6	-149.2305
100.000000	72.5	-149.7509
101.500000	72.5	-150.2780
103.000000	72.5	-150.7701
104.400002	72.5	-151.3091
106.000000	72.5	-151.7469
107.500000	72.5	-152.1033
109.000000	72.5	-152.4738
110.599998	72.5	-152.8235
112.000000	72.4	-153.1666
113.800003	72.4	-153.6568
115.000000	72.4	-153.9289
117.199997	72.5	-154.3286
118.000000	72.5	-154.4886
120.599998	72.5	-155.2952
122.000000	72.5	-155.7374
124.099998	72.6	-156.3437
125.000000	72.6	-156.6023
126.500000	72.6	-156.9992
128.000000	72.6	-157.3778
131.500000	72.6	-158.2761
132.000000	72.6	-158.3904
134.000000	72.6	-158.8559
136.000000	72.6	-159.3592
138.000000	72.6	-159.8549
140.000000	72.5	-160.2391
143.000000	72.5	-160.7495
145.000000	72.5	-161.1516
147.500000	72.5	-161.6570
150.000000	72.5	-162.1786
152.500000	72.5	-162.5612
155.000000	72.5	-162.9774
157.500000	72.4	-163.4164
160.000000	72.4	-163.9196
162.500000	72.4	-164.3414
165.000000	72.4	-164.6427
167.500000	72.4	-164.9437
170.000000	72.4	-165.2830
172.500000	72.4	-165.6182
175.000000	72.4	-165.9742
177.500000	72.4	-166.3633
180.000000	72.4	-166.7031
182.500000	72.4	-167.0129
185.000000	72.3	-167.3362
187.500000	72.3	-167.6166
190.000000	72.3	-167.8891
192.500000	72.3	-168.1566
195.000000	72.2	-168.4133
197.500000	72.2	-168.6740
200.000000	72.2	-168.9317
203.000000	72.1	-169.2318
206.000000	72.1	-169.5415
209.000000	72.1	-169.8706
212.000000	72.1	-170.2521
214.000000	72.0	-170.5781
218.000000	72.0	-170.9721
220.000000	72.0	-170.9632
224.000000	71.9	-171.0541
227.000000	71.9	-171.2069
230.000000	71.9	-171.3830
233.000000	71.9	-171.5560
236.000000	71.9	-171.6875
240.000000	71.9	-171.8792
243.000000	71.8	-172.0838
247.000000	71.8	-172.4291
250.000000	71.8	-172.7107
254.000000	71.8	-173.0431
258.000000	71.7	-173.3981
262.000000	71.7	-173.7573
265.000000	71.7	-173.9873
269.000000	71.7	-174.2830
272.000000	71.6	-174.4971
276.000000	71.6	-174.7665
280.000000	71.6	-174.9508
285.000000	71.5	-175.1353
290.000000	71.5	-175.3171
295.000000	71.4	-175.4328
300.000000	71.4	-175.5938
304.000000	71.3	-175.7730
307.000000	71.3	-175.8697
311.000000	71.3	-175.9418
315.000000	71.2	-175.9794
320.000000	71.2	-176.0318
325.000000	71.1	-176.0855
330.000000	71.1	-176.1493
335.000000	71.1	-176.1981
340.000000	71.0	-176.1920
345.000000	71.0	-176.1903
350.000000	70.9	-176.2134
355.000000	70.9	-176.1998
360.000000	70.9	-176.1306
365.000000	70.8	-176.0444
370.000000	70.7	-175.9498
375.000000	70.7	-175.8330
382.000000	70.7	-175.6569
387.000000	70.6	-175.5466
395.000000	70.6	-175.4160
400.000000	70.6	-175.3508
406.000000	70.5	-175.2695
412.000000	70.5	-175.1877
418.000000	70.4	-175.0915
425.000000	70.4	-174.9728
431.000000	70.4	-174.8654
437.000000	70.3	-174.7446
444.000000	70.3	-174.5792
450.000000	70.2	-174.4305
455.000000	70.2	-174.3070
462.000000	70.1	-174.1330
468.000000	70.1	-173.9723
475.000000	70.1	-173.7693
482.000000	70.0	-173.5257
487.000000	70.0	-173.3334
494.000000	69.9	-173.0681
500.000000	69.9	-172.8444
508.000000	69.8	-172.5388
515.000000	69.8	-172.2616
522.000000	69.8	-171.9829
530.000000	69.7	-171.6667
538.000000	69.7	-171.3791
545.000000	69.6	-171.2088
552.000000	69.6	-171.1181
560.000000	69.5	-171.0516
570.000000	69.5	-170.9718
580.000000	69.4	-170.8815
590.000000	69.4	-170.7816
600.000000	69.4	-170.6770
608.000000	69.3	-170.5918
615.000000	69.3	-170.5087
622.000000	69.3	-170.4122
630.000000	69.2	-170.2893
640.000000	69.2	-170.1378
650.000000	69.1	-170.0022
660.000000	69.1	-169.8601
670.000000	69.1	-169.7062
680.000000	69.0	-169.4938
690.000000	69.0	-169.1331
700.000000	69.0	-168.6398
710.000000	69.0	-168.0867
720.000000	68.9	-167.4983
730.000000	68.9	-166.8956
740.000000	68.9	-166.2880
750.000000	68.8	-165.6635
762.000000	68.8	-164.8814
775.000000	68.8	-164.0023
788.000000	68.8	-163.1294
800.000000	68.7	-162.3311
812.000000	68.7	-161.5409
825.000000	68.7	-160.6964
838.000000	68.7	-159.8485
850.000000	68.7	-159.0400
862.000000	68.7	-158.1985
875.000000	68.7	-157.2616
885.000000	68.7	-156.5434
900.000000	68.8	-155.4661
912.000000	68.8	-154.5865
925.000000	68.8	-153.6294
938.000000	68.8	-152.6779
950.000000	68.9	-151.7998
962.000000	68.9	-150.9192
975.000000	69.0	-149.9603
988.000000	69.0	-148.9931
1000.000000	69.1	-148.0961
1015.000000	69.2	-146.9723
1030.000000	69.3	-145.8342
1044.000000	69.4	-144.7540
1060.000000	69.5	-143.5429
1075.000000	69.6	-142.5297
1090.000000	69.7	-141.7158
1106.000000	69.9	-140.9913
1120.000000	70.0	-140.3970
1138.000000	70.1	-139.6382
1150.000000	70.2	-139.1305
1172.000000	70.4	-138.1913
1180.000000	70.5	-137.8473
1206.000000	70.7	-136.7367
1220.000000	70.9	-136.1268
1241.000000	71.0	-135.2025
1250.000000	71.1	-134.8106
1265.000000	71.2	-134.1681
1280.000000	71.4	-133.5469
1315.000000	71.6	-132.1724
1320.000000	71.7	-131.9808
1340.000000	71.8	-131.2247
1360.000000	71.9	-130.4762
1380.000000	72.0	-129.7290
1400.000000	72.1	-128.9796
1430.000000	72.3	-127.8366
1450.000000	72.4	-127.0758
1475.000000	72.5	-126.1617
1500.000000	72.6	-125.2890
1525.000000	72.8	-124.4057
1550.000000	72.9	-123.5039
1575.000000	73.0	-122.6055
1600.000000	73.1	-121.7229
1625.000000	73.2	-120.8641
1650.000000	73.3	-120.0482
1675.000000	73.5	-119.3018
1700.000000	73.6	-118.6204
1725.000000	73.7	-117.9762
1750.000000	73.9	-117.3351
1775.000000	74.0	-116.7169
1800.000000	74.2	-116.1827
1825.000000	74.3	-115.7328
1850.000000	74.5	-115.3036
1875.000000	74.6	-114.8601
1900.000000	74.8	-114.4271
1925.000000	75.0	-114.0417
1950.000000	75.1	-113.7354
1975.000000	75.3	-113.5047
2000.000000	75.5	-113.3232
2030.000000	75.7	-113.1430
2060.000000	75.9	-112.9870
2090.000000	76.1	-112.8467
2120.000000	76.3	-112.7123
2140.000000	76.4	-112.6486
2180.000000	76.7	-112.6088
2200.000000	76.8	-112.6106
2240.000000	77.0	-112.6578
2270.000000	77.2	-112.7371
2300.000000	77.4	-112.8468
2330.000000	77.6	-113.0096
2360.000000	77.8	-113.2499
2400.000000	78.0	-113.6582
2430.000000	78.2	-113.9854
2470.000000	78.4	-114.4243
2500.000000	78.5	-114.7714
2540.000000	78.7	-115.2940
2580.000000	78.9	-115.9474
2620.000000	79.1	-116.7785
2650.000000	79.2	-117.4861
2690.000000	79.3	-118.4505
2720.000000	79.4	-119.1885
2760.000000	79.5	-120.2326
2800.000000	79.6	-121.3628
2850.000000	79.7	-122.9084
2900.000000	79.8	-124.5264
2950.000000	79.9	-126.2020
3000.000000	80.0	-127.8693
3040.000000	80.1	-129.1572
3070.000000	80.1	-130.0570
3110.000000	80.1	-131.1248
3150.000000	80.1	-132.0271
3200.000000	80.0	-132.9529
3250.000000	79.9	-133.7186
3300.000000	79.8	-134.3711
3350.000000	79.6	-134.8994
3400.000000	79.5	-135.2988
3450.000000	79.3	-135.5829
3500.000000	79.2	-135.7704
3550.000000	79.0	-135.8241
3600.000000	78.9	-135.7421
3650.000000	78.7	-135.5252
3700.000000	78.6	-135.1451
3750.000000	78.6	-134.6972
3820.000000	78.5	-134.1455
3870.000000	78.4	-133.7931
3950.000000	78.3	-133.2084
4000.000000	78.2	-132.8686
4060.000000	78.1	-132.5200
4120.000000	78.0	-132.3426
4180.000000	77.9	-132.2812
4250.000000	77.8	-131.8330
4310.000000	77.7	-131.2162
4370.000000	77.7	-130.5001
4440.000000	77.6	-129.5654
4500.000000	77.5	-128.6645
4550.000000	77.4	-127.8498
4620.000000	77.2	-126.6318
4680.000000	77.2	-125.5375
4750.000000	77.1	-124.2509
4820.000000	77.1	-122.9954
4870.000000	77.1	-122.1175
4940.000000	77.1	-120.9027
5000.000000	77.2	-119.8599
5080.000000	77.3	-118.4717
5150.000000	77.3	-117.2545
5220.000000	77.4	-116.0238
5300.000000	77.4	-114.5759
5380.000000	77.5	-113.1813
5450.000000	77.6	-112.1079
5520.000000	77.7	-111.1312
5600.000000	77.8	-110.0467
5700.000000	78.0	-108.7559
5800.000000	78.1	-107.6487
5900.000000	78.1	-106.6807
6000.000000	78.1	-105.6420
6080.000000	78.0	-104.7298
6150.000000	78.0	-103.8830
6220.000000	77.9	-103.0235
6300.000000	77.9	-102.0044
6400.000000	77.9	-100.6406
6500.000000	78.0	-99.1767
6600.000000	78.0	-97.4912
6700.000000	78.1	-95.2123
6800.000000	78.0	-92.0171
6900.000000	77.9	-87.6703
7000.000000	77.7	-81.7688
7100.000000	77.4	-73.5993
7200.000000	77.0	-62.7926
7300.000000	76.6	-49.7338
7400.000000	76.3	-35.5352
7500.000000	76.1	-21.9123
7620.000000	76.1	-8.8823
7750.000000	76.4	-0.7335
7880.000000	76.8	1.7098
8000.000000	77.0	0.5047
8120.000000	77.0	-2.3421
8250.000000	76.6	-5.6414
8380.000000	75.8	-8.0564
8500.000000	74.8	-8.9320
8620.000000	73.7	-8.4889
8750.000000	72.4	-6.8465
8850.000000	71.4	-4.8005
9000.000000	70.0	-0.5549
9120.000000	68.9	3.4849
9250.000000	67.8	8.1444
9380.000000	66.8	12.9173
9500.000000	65.9	17.4522
9620.000000	65.1	22.2726
9750.000000	64.4	27.9058
9880.000000	63.9	33.8852
10000.000000	63.3	39.4681
10150.000000	62.6	46.3938
10300.000000	61.9	53.2557
10440.000000	61.2	58.9811
10600.000000	60.5	63.3436
10750.000000	60.0	65.6187
10900.000000	59.7	67.4136
11060.000000	59.7	69.2733
11200.000000	59.8	70.8350
11380.000000	60.1	72.6694
11500.000000	60.2	73.9015
11720.000000	60.4	77.6801
11800.000000	60.4	80.1282
12060.000000	60.3	91.2729
12200.000000	60.2	97.8732
12410.000000	60.1	107.6098
12500.000000	60.1	111.7739
12650.000000	60.3	118.7193
12800.000000	60.8	125.5053
13150.000000	62.6	140.3727
13200.000000	62.9	142.4470
13400.000000	64.0	150.4653
13600.000000	64.9	157.9007
13800.000000	65.6	164.9760
14000.000000	66.1	171.8187
14300.000000	67.0	-179.0912
14500.000000	68.1	-174.5842
14750.000000	69.8	-171.2314
15000.000000	71.5	-170.3282
15250.000000	72.6	-171.6519
15500.000000	73.0	-174.1005
15750.000000	72.5	-175.7280
16000.000000	71.0	-175.5368
16250.000000	68.5	-173.3398
16500.000000	65.6	-169.2149
16750.000000	62.9	-163.6581
17000.000000	60.4	-157.5280
17250.000000	58.0	-151.2322
17500.000000	55.9	-144.7419
17750.000000	54.8	-138.7189
18000.000000	55.5	-134.3082
18250.000000	56.7	-132.0167
18500.000000	59.3	-131.8957
18750.000000	61.7	-133.2078
19000.000000	61.4	-134.3001
19250.000000	58.1	-132.6183
19500.000000	53.6	-126.0197
19750.000000	50.1	-115.6586
