* Measurement data measured by REW V5.20
* Source: Microphone (Realtek USB2.0 Audio), MICROPHONE (Master Volume), R, volume: 0.250
* Format: 2M Log Swept Sine, 1 sweep at -10.0 dBFS with no timing reference
* Dated: Mar 12, 2021 11:36:58 AM
* REW Settings:
*  C-weighting compensation: Off
*  Target level: 75.0 dB
* Note: 
* Measurement: Yume R
* Smoothing: 1/24 octave
* Frequency Step: 1/48 octave
* Start Frequency: 20.000 Hz
*
* Freq(Hz)	SPL(dB)	Phase(degrees)
20.000000	98.5	-154.4020
20.299999	98.5	-155.6966
20.600000	98.6	-156.9726
20.900000	98.6	-158.2341
21.200001	98.6	-159.4873
21.400000	98.7	-160.3225
21.799999	98.7	-162.0008
22.000000	98.7	-162.8447
22.400000	98.7	-164.5314
22.700001	98.7	-165.7751
23.000000	98.6	-166.9800
23.299999	98.6	-168.1342
23.600000	98.6	-169.2388
24.000000	98.6	-170.6655
24.299999	98.6	-171.7348
24.700001	98.6	-173.1982
25.000000	98.6	-174.3274
25.400000	98.6	-175.8471
25.799999	98.6	-177.3279
26.200001	98.6	-178.7227
26.500000	98.5	-179.7046
26.900000	98.5	179.0530
27.200001	98.5	178.1510
27.600000	98.5	176.9575
28.000000	98.4	175.7546
28.500000	98.4	174.2321
29.000000	98.4	172.7064
29.500000	98.4	171.1934
30.000000	98.3	169.6811
30.400000	98.3	168.4509
30.700001	98.3	167.5101
31.100000	98.3	166.2399
31.500000	98.2	164.9817
32.000000	98.2	163.4845
32.500000	98.2	162.1039
33.000000	98.2	160.8088
33.500000	98.1	159.5372
34.000000	98.1	158.2526
34.500000	98.1	156.9648
35.000000	98.1	155.7037
35.500000	98.0	154.4854
36.000000	98.0	153.3034
36.500000	98.0	152.1375
37.000000	97.9	150.9629
37.500000	97.9	149.7639
38.200001	97.9	148.0658
38.700001	97.8	146.8823
39.500000	97.7	145.0769
40.000000	97.7	143.9651
40.599998	97.6	142.6186
41.200001	97.6	141.3063
41.799999	97.5	140.0674
42.500000	97.5	138.6239
43.099998	97.5	137.3018
43.700001	97.4	135.9853
44.400002	97.3	134.6353
45.000000	97.3	133.5830
45.500000	97.3	132.6641
46.200001	97.3	131.2985
46.799999	97.2	130.1555
47.500000	97.2	128.8777
48.200001	97.1	127.6795
48.700001	97.0	126.9830
49.400002	97.0	126.2029
50.000000	97.0	125.3508
50.799999	97.0	123.5919
51.500000	96.9	121.9576
52.200001	96.8	120.7548
53.000000	96.7	119.6759
53.799999	96.6	118.4819
54.500000	96.6	117.3536
55.200001	96.5	116.2098
56.000000	96.4	114.9262
57.000000	96.4	113.4335
58.000000	96.3	111.9525
59.000000	96.2	110.4919
60.000000	96.1	109.0945
60.799999	96.1	107.9602
61.500000	96.0	106.9727
62.200001	96.0	106.0175
63.000000	95.9	104.9533
64.000000	95.9	103.6250
65.000000	95.8	102.3188
66.000000	95.7	101.0850
67.000000	95.7	99.9250
68.000000	95.6	98.7324
69.000000	95.6	97.4431
70.000000	95.5	96.2004
71.000000	95.4	95.0746
72.000000	95.4	93.9737
73.000000	95.3	92.8676
74.000000	95.2	91.7945
75.000000	95.2	90.7326
76.199997	95.1	89.4365
77.500000	95.0	88.0770
78.800003	94.9	86.7607
80.000000	94.9	85.5534
81.199997	94.8	84.3617
82.500000	94.7	83.0920
83.800003	94.7	81.8985
85.000000	94.6	80.8429
86.199997	94.5	79.8515
87.500000	94.4	78.7589
88.500000	94.4	77.7802
90.000000	94.3	76.3134
91.199997	94.3	75.2254
92.500000	94.2	74.1280
93.800003	94.2	73.0923
95.000000	94.1	72.1624
96.199997	94.0	71.2320
97.500000	94.0	70.2121
98.800003	93.9	69.1877
100.000000	93.9	68.2390
101.500000	93.8	67.0735
103.000000	93.7	66.0509
104.400002	93.7	65.1772
106.000000	93.6	64.1345
107.500000	93.5	63.1252
109.000000	93.5	62.1270
110.599998	93.4	61.1048
112.000000	93.3	60.2423
113.800003	93.3	59.1429
115.000000	93.2	58.4282
117.199997	93.1	57.1866
118.000000	93.1	56.7656
120.599998	92.9	55.4389
122.000000	92.9	54.7726
124.099998	92.8	53.8900
125.000000	92.7	53.5383
126.500000	92.6	53.0168
128.000000	92.5	52.6839
131.500000	92.4	52.6262
132.000000	92.4	52.7023
134.000000	92.4	53.3313
136.000000	92.4	54.1970
138.000000	92.6	54.7157
140.000000	92.9	53.8096
143.000000	93.2	50.6441
145.000000	93.4	48.3785
147.500000	93.4	46.0371
150.000000	93.4	44.0958
152.500000	93.4	42.0088
155.000000	93.2	40.1565
157.500000	93.2	38.5891
160.000000	93.1	37.2375
162.500000	93.0	36.0421
165.000000	92.9	34.9523
167.500000	92.9	33.8110
170.000000	92.8	32.6717
172.500000	92.8	31.6574
175.000000	92.7	30.7046
177.500000	92.7	29.7706
180.000000	92.6	28.8536
182.500000	92.6	27.9539
185.000000	92.6	27.0664
187.500000	92.5	26.1911
190.000000	92.5	25.3385
192.500000	92.4	24.5316
195.000000	92.4	23.7596
197.500000	92.3	22.9295
200.000000	92.2	22.0386
203.000000	92.2	21.1365
206.000000	92.2	20.3933
209.000000	92.1	19.6086
212.000000	92.1	18.7719
214.000000	92.1	18.2214
218.000000	92.0	17.1926
220.000000	92.0	16.6899
224.000000	91.9	15.6742
227.000000	91.9	14.9825
230.000000	91.9	14.4017
233.000000	91.9	13.7648
236.000000	91.8	13.0240
240.000000	91.8	12.1249
243.000000	91.7	11.5414
247.000000	91.7	10.7716
250.000000	91.7	10.1627
254.000000	91.7	9.4907
258.000000	91.7	9.0380
262.000000	91.7	8.5645
265.000000	91.7	8.2017
269.000000	91.7	7.5779
272.000000	91.7	6.9484
276.000000	91.7	6.0283
280.000000	91.7	5.0632
285.000000	91.7	3.7167
290.000000	91.7	2.6709
295.000000	91.6	1.6316
300.000000	91.6	0.7592
304.000000	91.6	0.1725
307.000000	91.5	-0.3240
311.000000	91.5	-0.9808
315.000000	91.5	-1.6201
320.000000	91.5	-2.4615
325.000000	91.4	-3.3707
330.000000	91.4	-4.1175
335.000000	91.4	-4.7274
340.000000	91.3	-5.4290
345.000000	91.3	-6.1577
350.000000	91.3	-6.8328
355.000000	91.3	-7.4557
360.000000	91.3	-8.0573
365.000000	91.2	-8.6445
370.000000	91.2	-9.2333
375.000000	91.2	-9.8309
382.000000	91.1	-10.6737
387.000000	91.1	-11.2361
395.000000	91.1	-12.0901
400.000000	91.0	-12.6267
406.000000	91.0	-13.2372
412.000000	91.0	-13.8367
418.000000	91.0	-14.4398
425.000000	90.9	-15.1282
431.000000	90.9	-15.7505
437.000000	90.9	-16.3693
444.000000	90.9	-17.0336
450.000000	90.8	-17.5767
455.000000	90.8	-18.0190
462.000000	90.8	-18.6141
468.000000	90.8	-19.1115
475.000000	90.7	-19.6765
482.000000	90.7	-20.2291
487.000000	90.7	-20.6204
494.000000	90.7	-21.1640
500.000000	90.6	-21.6277
508.000000	90.6	-22.2397
515.000000	90.6	-22.7620
522.000000	90.6	-23.2723
530.000000	90.5	-23.8421
538.000000	90.5	-24.3888
545.000000	90.5	-24.8545
552.000000	90.4	-25.3111
560.000000	90.4	-25.8193
570.000000	90.4	-26.4304
580.000000	90.3	-26.9935
590.000000	90.3	-27.5036
600.000000	90.3	-27.9904
608.000000	90.2	-28.3687
615.000000	90.2	-28.6830
622.000000	90.2	-28.9810
630.000000	90.2	-29.3024
640.000000	90.1	-29.6780
650.000000	90.1	-30.0276
660.000000	90.1	-30.3578
670.000000	90.1	-30.6772
680.000000	90.1	-30.9730
690.000000	90.1	-31.2443
700.000000	90.1	-31.5056
710.000000	90.1	-31.7640
720.000000	90.0	-32.0226
730.000000	90.0	-32.2847
740.000000	90.0	-32.5339
750.000000	90.0	-32.7664
762.000000	90.0	-33.0329
775.000000	90.0	-33.3107
788.000000	90.0	-33.5845
800.000000	90.0	-33.8414
812.000000	90.0	-34.0914
825.000000	90.0	-34.3467
838.000000	90.1	-34.5956
850.000000	90.1	-34.8224
862.000000	90.1	-35.0389
875.000000	90.1	-35.2517
885.000000	90.2	-35.3948
900.000000	90.2	-35.5726
912.000000	90.2	-35.7029
925.000000	90.3	-35.8635
938.000000	90.3	-36.0435
950.000000	90.4	-36.2114
962.000000	90.4	-36.3715
975.000000	90.5	-36.5374
988.000000	90.5	-36.6973
1000.000000	90.6	-36.8245
1015.000000	90.7	-36.9402
1030.000000	90.8	-37.0305
1044.000000	90.9	-37.1136
1060.000000	91.0	-37.2060
1075.000000	91.2	-37.2797
1090.000000	91.3	-37.3308
1106.000000	91.4	-37.3558
1120.000000	91.6	-37.3586
1138.000000	91.7	-37.3461
1150.000000	91.8	-37.3335
1172.000000	92.0	-37.3096
1180.000000	92.1	-37.2946
1206.000000	92.3	-37.2124
1220.000000	92.5	-37.1614
1241.000000	92.6	-37.0771
1250.000000	92.7	-37.0349
1265.000000	92.8	-36.9651
1280.000000	93.0	-36.8998
1315.000000	93.2	-36.6736
1320.000000	93.2	-36.6313
1340.000000	93.4	-36.4567
1360.000000	93.5	-36.2814
1380.000000	93.6	-36.0906
1400.000000	93.7	-35.8878
1430.000000	93.9	-35.5692
1450.000000	94.0	-35.3231
1475.000000	94.1	-34.9960
1500.000000	94.2	-34.6663
1525.000000	94.3	-34.3211
1550.000000	94.4	-33.9617
1575.000000	94.5	-33.5824
1600.000000	94.6	-33.1813
1625.000000	94.7	-32.7892
1650.000000	94.8	-32.4343
1675.000000	94.9	-32.1093
1700.000000	95.1	-31.7926
1725.000000	95.2	-31.5153
1750.000000	95.3	-31.3085
1775.000000	95.5	-31.1776
1800.000000	95.6	-31.1004
1825.000000	95.8	-31.0714
1850.000000	95.9	-31.0929
1875.000000	96.1	-31.1500
1900.000000	96.2	-31.2238
1925.000000	96.4	-31.3076
1950.000000	96.6	-31.4141
1975.000000	96.7	-31.5486
2000.000000	96.9	-31.6965
2030.000000	97.0	-31.8726
2060.000000	97.2	-32.0501
2090.000000	97.4	-32.2465
2120.000000	97.6	-32.4852
2140.000000	97.7	-32.6707
2180.000000	97.9	-33.0805
2200.000000	98.0	-33.2989
2240.000000	98.2	-33.7313
2270.000000	98.3	-34.0469
2300.000000	98.5	-34.3427
2330.000000	98.6	-34.6274
2360.000000	98.7	-34.9169
2400.000000	98.9	-35.3065
2430.000000	99.0	-35.6199
2470.000000	99.1	-36.1127
2500.000000	99.2	-36.5425
2540.000000	99.3	-37.1717
2580.000000	99.4	-37.8287
2620.000000	99.4	-38.4703
2650.000000	99.4	-38.9260
2690.000000	99.5	-39.4988
2720.000000	99.5	-39.9084
2760.000000	99.5	-40.4393
2800.000000	99.4	-40.9617
2850.000000	99.4	-41.5349
2900.000000	99.3	-41.9926
2950.000000	99.3	-42.3066
3000.000000	99.2	-42.4506
3040.000000	99.2	-42.4285
3070.000000	99.1	-42.3391
3110.000000	99.0	-42.1425
3150.000000	98.9	-41.8414
3200.000000	98.8	-41.3231
3250.000000	98.6	-40.7195
3300.000000	98.5	-40.0676
3350.000000	98.3	-39.3560
3400.000000	98.1	-38.5721
3450.000000	98.0	-37.6586
3500.000000	97.8	-36.6448
3550.000000	97.6	-35.5716
3600.000000	97.5	-34.4156
3650.000000	97.4	-33.1601
3700.000000	97.2	-31.8544
3750.000000	97.1	-30.5419
3820.000000	96.9	-28.5583
3870.000000	96.7	-26.9810
3950.000000	96.4	-24.1063
4000.000000	96.2	-21.9785
4060.000000	96.0	-19.0475
4120.000000	95.9	-15.7545
4180.000000	95.8	-12.2729
4250.000000	95.7	-8.1732
4310.000000	95.8	-4.7307
4370.000000	95.8	-1.4736
4440.000000	95.8	2.0503
4500.000000	95.8	4.8585
4550.000000	95.8	7.0563
4620.000000	95.7	9.9496
4680.000000	95.7	12.3187
4750.000000	95.6	14.9969
4820.000000	95.5	17.6685
4870.000000	95.4	19.6607
4940.000000	95.3	22.7323
5000.000000	95.2	25.6810
5080.000000	95.1	29.9523
5150.000000	95.0	33.9228
5220.000000	94.8	37.9668
5300.000000	94.7	42.5914
5380.000000	94.6	47.3159
5450.000000	94.6	51.5808
5520.000000	94.5	55.9509
5600.000000	94.5	61.0663
5700.000000	94.4	67.6926
5800.000000	94.3	74.6070
5900.000000	94.2	81.7714
6000.000000	94.1	89.2029
6080.000000	94.1	95.3429
6150.000000	94.0	100.7529
6220.000000	94.1	106.1206
6300.000000	94.2	112.1810
6400.000000	94.4	119.6676
6500.000000	94.7	126.9249
6600.000000	95.1	133.8813
6700.000000	95.3	140.8565
6800.000000	95.5	148.3571
6900.000000	95.5	157.0196
7000.000000	95.4	167.3763
7100.000000	95.3	179.6062
7200.000000	95.1	-166.3969
7300.000000	94.7	-150.7613
7400.000000	94.1	-133.6254
7500.000000	93.5	-115.5063
7620.000000	92.9	-94.2078
7750.000000	93.1	-75.0333
7880.000000	93.7	-62.5060
8000.000000	94.2	-55.9067
8120.000000	94.3	-51.1078
8250.000000	94.1	-45.0534
8380.000000	93.5	-37.0639
8500.000000	92.9	-28.2526
8620.000000	92.4	-18.6352
8750.000000	91.8	-7.9048
8850.000000	91.4	0.2550
9000.000000	91.0	12.1851
9120.000000	90.8	21.3068
9250.000000	90.5	30.6352
9380.000000	90.3	39.2004
9500.000000	90.1	46.2675
9620.000000	90.0	52.5120
9750.000000	89.7	58.7132
9880.000000	89.3	64.9190
10000.000000	88.8	70.8458
10150.000000	87.9	78.8352
10300.000000	86.7	87.9495
10440.000000	85.5	97.7249
10600.000000	84.1	110.4694
10750.000000	82.8	123.5679
10900.000000	81.8	137.4248
11060.000000	81.1	152.7523
11200.000000	80.6	166.5109
11380.000000	80.2	-175.2816
11500.000000	79.9	-162.8909
11720.000000	79.2	-139.8296
11800.000000	79.0	-131.3475
12060.000000	78.0	-103.4717
12200.000000	77.4	-88.3634
12410.000000	76.6	-65.6335
12500.000000	76.2	-55.8209
12650.000000	75.9	-39.3803
12800.000000	75.7	-22.7684
13150.000000	76.3	17.2326
13200.000000	76.4	23.0065
13400.000000	76.9	45.8431
13600.000000	77.3	67.9756
13800.000000	77.4	89.1451
14000.000000	77.0	109.3283
14300.000000	76.3	138.8309
14500.000000	75.9	158.9208
14750.000000	75.9	-174.6631
15000.000000	76.3	-146.4034
15250.000000	76.9	-116.9093
15500.000000	77.5	-87.4875
15750.000000	78.1	-60.9114
16000.000000	78.2	-41.0981
16250.000000	77.1	-30.1198
16500.000000	74.6	-22.4225
16750.000000	70.5	-8.6233
17000.000000	65.6	15.8404
17250.000000	60.2	51.6232
17500.000000	55.5	94.4997
17750.000000	53.5	134.2488
18000.000000	54.1	166.3036
18250.000000	54.8	-165.0798
18500.000000	56.8	-135.6254
18750.000000	59.1	-104.1191
19000.000000	59.0	-71.0828
19250.000000	56.4	-37.0715
19500.000000	53.9	-2.8267
19750.000000	53.2	27.7114
