* Measurement data measured by REW V5.20.4
* Source: Microphone (Realtek USB2.0 Audio), MICROPHONE (Master Volume), R, volume: 1.000. Timing signal peak level -24.3 dBFS, measurement signal peak level -15.7 dBFS
* Format: 4M Log Swept Sine, 1 sweep at -15.0 dBFS using an acoustic timing reference
* Dated: Dec 29, 2021 1:59:42 PM
* REW Settings:
*  C-weighting compensation: Off
*  Target level: 75.0 dB
* Note: Delay -0.3478 ms (-119 mm, -4.7 in) using estimated IR delay relative to Acoustic reference on  R with no timing offset
* Measurement: Tanya R
* Smoothing: 1/24 octave
* Frequency Step: 1/48 octave
* Start Frequency: 20.000 Hz
*
* Freq(Hz)	SPL(dB)	Phase(degrees)
20.000000	95.019	-49.4108
20.299999	95.102	-50.0307
20.600000	95.185	-50.1917
20.900000	95.306	-50.0082
21.200001	95.494	-49.7945
21.400000	95.653	-49.8416
21.799999	96.003	-50.5795
22.000000	96.168	-51.2945
22.400000	96.427	-53.2397
22.700001	96.546	-54.8691
23.000000	96.610	-56.3973
23.299999	96.642	-57.7216
23.600000	96.659	-58.8396
24.000000	96.682	-60.0886
24.299999	96.705	-60.9272
24.700001	96.742	-61.9726
25.000000	96.775	-62.7042
25.400000	96.834	-63.6088
25.799999	96.921	-64.4846
26.200001	97.039	-65.4331
26.500000	97.142	-66.2411
26.900000	97.282	-67.4568
27.200001	97.380	-68.4456
27.600000	97.497	-69.8166
28.000000	97.598	-71.2086
28.500000	97.707	-72.9696
29.000000	97.793	-74.7554
29.500000	97.847	-76.4989
30.000000	97.871	-78.0412
30.400000	97.883	-79.0365
30.700001	97.901	-79.6416
31.100000	97.951	-80.3471
31.500000	98.034	-81.0819
32.000000	98.158	-82.2434
32.500000	98.263	-83.6859
33.000000	98.324	-85.1683
33.500000	98.360	-86.4662
34.000000	98.405	-87.5927
34.500000	98.466	-88.7297
35.000000	98.520	-89.9433
35.500000	98.551	-91.0844
36.000000	98.577	-91.9833
36.500000	98.631	-92.6740
37.000000	98.726	-93.3819
37.500000	98.840	-94.3012
38.200001	98.965	-95.9309
38.700001	99.007	-97.1128
39.500000	99.040	-98.6437
40.000000	99.076	-99.5057
40.599998	99.120	-100.7841
41.200001	99.095	-102.2923
41.799999	98.981	-103.3988
42.500000	98.877	-103.6034
43.099998	98.954	-103.4984
43.700001	99.136	-104.1198
44.400002	99.305	-105.7912
45.000000	99.365	-107.2875
45.500000	99.400	-108.2889
46.200001	99.470	-109.5048
46.799999	99.533	-110.5413
47.500000	99.591	-111.6242
48.200001	99.652	-112.5152
48.700001	99.698	-113.1180
49.400002	99.748	-113.9597
50.000000	99.772	-114.5955
50.799999	99.801	-115.2830
51.500000	99.837	-115.9263
52.200001	99.862	-116.7331
53.000000	99.863	-117.5989
53.799999	99.903	-118.2417
54.500000	100.009	-119.0610
55.200001	100.122	-120.4372
56.000000	100.193	-122.3736
57.000000	100.206	-124.8122
58.000000	100.123	-126.7803
59.000000	100.061	-127.6495
60.000000	100.105	-128.4353
60.799999	100.114	-129.1736
61.500000	100.114	-129.5634
62.200001	100.142	-129.8881
63.000000	100.183	-130.4010
64.000000	100.234	-131.1426
65.000000	100.281	-132.2242
66.000000	100.257	-133.3768
67.000000	100.229	-134.1453
68.000000	100.238	-134.9589
69.000000	100.242	-135.8798
70.000000	100.243	-136.8179
71.000000	100.228	-137.8229
72.000000	100.185	-138.6506
73.000000	100.157	-139.1458
74.000000	100.186	-139.5652
75.000000	100.240	-140.2763
76.199997	100.255	-141.3851
77.500000	100.216	-142.4000
78.800003	100.179	-143.2585
80.000000	100.168	-144.1645
81.199997	100.162	-145.3357
82.500000	100.123	-146.7386
83.800003	100.050	-147.6525
85.000000	100.035	-147.9866
86.199997	100.067	-148.2822
87.500000	100.111	-148.8205
88.500000	100.114	-149.4665
90.000000	100.053	-150.4395
91.199997	100.006	-151.0671
92.500000	100.000	-151.7603
93.800003	100.010	-152.5878
95.000000	100.011	-153.2580
96.199997	100.007	-153.8377
97.500000	99.982	-154.4063
98.800003	99.943	-154.8967
100.000000	99.922	-155.3653
101.500000	99.909	-156.1962
103.000000	99.897	-157.0661
104.400002	99.880	-157.9365
106.000000	99.820	-158.6693
107.500000	99.778	-159.1638
109.000000	99.749	-159.7317
110.599998	99.732	-160.3836
112.000000	99.725	-160.9759
113.800003	99.689	-161.5350
115.000000	99.667	-161.7178
117.199997	99.641	-162.4146
118.000000	99.616	-162.7889
120.599998	99.556	-163.9101
122.000000	99.534	-164.5074
124.099998	99.465	-165.2267
125.000000	99.427	-165.5339
126.500000	99.364	-166.1790
128.000000	99.327	-166.9393
131.500000	99.423	-169.2290
132.000000	99.407	-169.5092
134.000000	99.282	-169.4801
136.000000	99.214	-168.9413
138.000000	99.164	-169.1151
140.000000	99.132	-169.8235
143.000000	99.061	-170.8120
145.000000	98.995	-171.2144
147.500000	98.879	-171.9379
150.000000	98.817	-172.2852
152.500000	98.836	-172.6065
155.000000	98.786	-173.0602
157.500000	98.726	-173.7142
160.000000	98.686	-174.5457
162.500000	98.649	-174.8503
165.000000	98.582	-175.0050
167.500000	98.512	-175.1547
170.000000	98.529	-175.7368
172.500000	98.511	-176.4911
175.000000	98.447	-176.7205
177.500000	98.390	-176.7740
180.000000	98.351	-176.9621
182.500000	98.274	-177.3084
185.000000	98.168	-177.5146
187.500000	98.096	-177.6469
190.000000	98.066	-177.7739
192.500000	98.033	-177.9637
195.000000	97.966	-178.1766
197.500000	97.890	-178.2878
200.000000	97.826	-178.5122
203.000000	97.745	-179.0786
206.000000	97.685	-179.4586
209.000000	97.628	-179.4023
212.000000	97.570	-179.2560
214.000000	97.581	-178.9718
218.000000	97.714	-176.7153
220.000000	97.784	-175.8654
224.000000	97.584	-178.0837
227.000000	97.344	-179.8109
230.000000	97.232	179.7805
233.000000	97.141	179.7458
236.000000	97.034	179.6595
240.000000	96.859	179.0857
243.000000	96.755	178.6677
247.000000	96.715	178.2961
250.000000	96.746	177.1402
254.000000	96.778	175.4291
258.000000	96.633	176.5301
262.000000	96.706	176.7235
265.000000	96.758	176.7707
269.000000	96.595	178.4926
272.000000	96.514	179.1172
276.000000	96.476	179.1446
280.000000	96.264	179.4248
285.000000	96.019	178.8114
290.000000	95.964	178.5829
295.000000	95.990	179.3337
300.000000	96.002	-179.8367
304.000000	95.825	-179.2903
307.000000	95.685	-179.3259
311.000000	95.617	-179.6848
315.000000	95.590	-179.7771
320.000000	95.518	-179.6440
325.000000	95.420	-179.4107
330.000000	95.298	-179.3886
335.000000	95.188	-179.5511
340.000000	95.127	-179.3130
345.000000	95.048	-178.8440
350.000000	94.956	-178.3585
355.000000	94.882	-178.1173
360.000000	94.811	-178.0670
365.000000	94.715	-177.8068
370.000000	94.618	-177.3739
375.000000	94.533	-177.0231
382.000000	94.429	-176.4978
387.000000	94.356	-176.0141
395.000000	94.228	-175.4103
400.000000	94.146	-174.9854
406.000000	94.028	-174.4049
412.000000	93.897	-173.9503
418.000000	93.873	-173.2783
425.000000	93.853	-172.5209
431.000000	93.794	-172.2479
437.000000	93.739	-172.0134
444.000000	93.684	-171.5052
450.000000	93.627	-170.9303
455.000000	93.557	-170.3958
462.000000	93.457	-169.5481
468.000000	93.384	-168.9047
475.000000	93.303	-168.2869
482.000000	93.238	-167.7325
487.000000	93.190	-167.3161
494.000000	93.115	-166.7253
500.000000	93.055	-166.1896
508.000000	92.978	-165.4594
515.000000	92.906	-164.8250
522.000000	92.832	-164.0584
530.000000	92.757	-163.1355
538.000000	92.689	-162.3034
545.000000	92.624	-161.6443
552.000000	92.559	-160.9224
560.000000	92.481	-159.8343
570.000000	92.393	-158.5952
580.000000	92.328	-157.5588
590.000000	92.245	-156.5052
600.000000	92.175	-155.5040
608.000000	92.123	-154.5248
615.000000	92.067	-153.5620
622.000000	91.995	-152.7632
630.000000	91.919	-151.8864
640.000000	91.841	-150.5905
650.000000	91.747	-149.2894
660.000000	91.694	-148.1545
670.000000	91.632	-146.9720
680.000000	91.538	-145.6511
690.000000	91.453	-144.3476
700.000000	91.364	-143.1109
710.000000	91.282	-141.8347
720.000000	91.215	-140.4979
730.000000	91.161	-139.1352
740.000000	91.105	-137.8374
750.000000	91.052	-136.5832
762.000000	90.993	-135.0932
775.000000	90.938	-133.4951
788.000000	90.887	-131.7862
800.000000	90.845	-130.1907
812.000000	90.817	-128.5834
825.000000	90.798	-126.8399
838.000000	90.775	-125.1249
850.000000	90.763	-123.4785
862.000000	90.754	-121.8204
875.000000	90.737	-120.1133
885.000000	90.730	-118.7642
900.000000	90.732	-116.6717
912.000000	90.737	-115.0092
925.000000	90.741	-113.2204
938.000000	90.758	-111.4379
950.000000	90.786	-109.7534
962.000000	90.823	-108.0290
975.000000	90.875	-106.2013
988.000000	90.934	-104.4313
1000.000000	90.991	-102.7964
1015.000000	91.069	-100.7291
1030.000000	91.159	-98.6427
1044.000000	91.244	-96.6846
1060.000000	91.343	-94.4222
1075.000000	91.442	-92.2943
1090.000000	91.548	-90.1964
1106.000000	91.665	-87.9557
1120.000000	91.768	-85.9678
1138.000000	91.908	-83.3937
1150.000000	92.009	-81.6860
1172.000000	92.197	-78.5720
1180.000000	92.267	-77.4230
1206.000000	92.492	-73.6752
1220.000000	92.604	-71.6475
1241.000000	92.758	-68.5743
1250.000000	92.821	-67.2515
1265.000000	92.921	-65.0367
1280.000000	93.019	-62.8036
1315.000000	93.242	-57.5585
1320.000000	93.273	-56.8081
1340.000000	93.393	-53.7956
1360.000000	93.512	-50.7672
1380.000000	93.628	-47.7257
1400.000000	93.738	-44.6787
1430.000000	93.889	-40.1350
1450.000000	93.981	-37.1133
1475.000000	94.088	-33.3406
1500.000000	94.187	-29.5852
1525.000000	94.282	-25.8294
1550.000000	94.373	-22.0811
1575.000000	94.464	-18.3496
1600.000000	94.555	-14.6318
1625.000000	94.649	-10.9168
1650.000000	94.751	-7.2749
1675.000000	94.857	-3.7984
1700.000000	94.965	-0.4442
1725.000000	95.075	2.8449
1750.000000	95.185	6.0782
1775.000000	95.294	9.2559
1800.000000	95.401	12.3768
1825.000000	95.507	15.4463
1850.000000	95.612	18.4762
1875.000000	95.717	21.4721
1900.000000	95.821	24.4222
1925.000000	95.925	27.3255
1950.000000	96.029	30.1928
1975.000000	96.130	33.0375
2000.000000	96.231	35.8729
2030.000000	96.352	39.2700
2060.000000	96.473	42.6431
2090.000000	96.595	45.9880
2120.000000	96.720	49.3193
2140.000000	96.806	51.5341
2180.000000	96.986	55.9339
2200.000000	97.080	58.1210
2240.000000	97.277	62.4665
2270.000000	97.432	65.7002
2300.000000	97.590	68.9025
2330.000000	97.752	72.0720
2360.000000	97.915	75.2137
2400.000000	98.133	79.3476
2430.000000	98.296	82.3969
2470.000000	98.512	86.3749
2500.000000	98.674	89.2928
2540.000000	98.891	93.0903
2580.000000	99.112	96.7698
2620.000000	99.335	100.3196
2650.000000	99.503	102.8889
2690.000000	99.727	106.1802
2720.000000	99.894	108.5436
2760.000000	100.112	111.5788
2800.000000	100.324	114.5054
2850.000000	100.574	118.0075
2900.000000	100.799	121.3385
2950.000000	100.995	124.5335
3000.000000	101.155	127.6708
3040.000000	101.255	130.1655
3070.000000	101.317	132.0323
3110.000000	101.384	134.5314
3150.000000	101.436	137.0536
3200.000000	101.485	140.2292
3250.000000	101.515	143.4118
3300.000000	101.518	146.5946
3350.000000	101.481	149.7794
3400.000000	101.396	153.0287
3450.000000	101.268	156.4376
3500.000000	101.102	160.0609
3550.000000	100.911	163.9050
3600.000000	100.703	167.9757
3650.000000	100.484	172.2919
3700.000000	100.260	176.8549
3750.000000	100.032	-178.3531
3820.000000	99.714	-171.2765
3870.000000	99.491	-165.9508
3950.000000	99.148	-157.0629
4000.000000	98.941	-151.3367
4060.000000	98.698	-144.3032
4120.000000	98.459	-137.1035
4180.000000	98.219	-129.7550
4250.000000	97.930	-121.0052
4310.000000	97.672	-113.4105
4370.000000	97.403	-105.7531
4440.000000	97.079	-96.6959
4500.000000	96.794	-88.8060
4550.000000	96.557	-82.1533
4620.000000	96.235	-72.7664
4680.000000	95.973	-64.7015
4750.000000	95.689	-55.2789
4820.000000	95.434	-45.7991
4870.000000	95.272	-38.9933
4940.000000	95.077	-29.4510
5000.000000	94.938	-21.2623
5080.000000	94.789	-10.3203
5150.000000	94.691	-0.6979
5220.000000	94.627	8.9630
5300.000000	94.602	19.9998
5380.000000	94.637	31.0069
5450.000000	94.716	40.6107
5520.000000	94.829	50.2079
5600.000000	94.977	61.1648
5700.000000	95.150	74.8477
5800.000000	95.283	88.4764
5900.000000	95.367	101.9755
6000.000000	95.405	115.4022
6080.000000	95.406	126.1026
6150.000000	95.393	135.4199
6220.000000	95.373	144.7113
6300.000000	95.348	155.3173
6400.000000	95.325	168.5351
6500.000000	95.313	-178.2567
6600.000000	95.306	-165.0392
6700.000000	95.306	-151.8301
6800.000000	95.304	-138.5969
6900.000000	95.286	-125.3153
7000.000000	95.245	-111.9652
7100.000000	95.179	-98.4451
7200.000000	95.089	-84.6365
7300.000000	94.971	-70.5177
7400.000000	94.813	-56.2137
7500.000000	94.593	-41.6621
7620.000000	94.193	-23.1202
7750.000000	93.631	-1.4420
7880.000000	93.002	21.7808
8000.000000	92.355	44.5665
8120.000000	91.671	67.9537
8250.000000	90.904	93.2077
8380.000000	90.125	117.9258
8500.000000	89.415	140.0703
8620.000000	88.744	161.4435
8750.000000	88.102	-176.3325
8850.000000	87.676	-159.9392
9000.000000	87.120	-136.4369
9120.000000	86.708	-118.4894
9250.000000	86.252	-99.7457
9380.000000	85.756	-81.4327
9500.000000	85.251	-64.6440
9620.000000	84.703	-47.8208
9750.000000	84.077	-29.5015
9880.000000	83.440	-11.0460
10000.000000	82.865	6.1801
10150.000000	82.199	27.9799
10300.000000	81.620	49.9479
10440.000000	81.183	70.5109
10600.000000	80.814	94.0055
10750.000000	80.594	115.8802
10900.000000	80.495	137.4374
11060.000000	80.522	159.9459
11200.000000	80.654	179.0836
11380.000000	80.956	-157.3600
11500.000000	81.211	-142.4485
11720.000000	81.677	-116.8059
11800.000000	81.813	-107.9325
12060.000000	82.002	-79.7107
12200.000000	81.928	-64.1483
12410.000000	81.641	-39.4542
12500.000000	81.477	-28.2844
12650.000000	81.191	-8.8490
12800.000000	80.934	11.5371
13150.000000	80.694	61.8452
13200.000000	80.721	69.2596
13400.000000	81.002	99.2697
13600.000000	81.506	129.6255
13800.000000	82.135	160.1002
14000.000000	82.824	-169.5400
14300.000000	83.930	-124.8463
14500.000000	84.698	-96.0392
14750.000000	85.685	-61.7529
15000.000000	86.697	-30.1381
15250.000000	87.651	-1.2147
15500.000000	88.369	25.6536
15750.000000	88.680	51.7321
16000.000000	88.537	78.6174
16250.000000	88.026	107.4658
16500.000000	87.280	138.5679
16750.000000	86.291	171.7627
17000.000000	84.615	-153.1814
17250.000000	81.453	-116.6960
17500.000000	76.375	-79.3472
17750.000000	69.599	-41.6614
18000.000000	61.810	-4.0786
18250.000000	53.912	33.0891
18500.000000	47.138	69.3403
18750.000000	42.891	103.8555
19000.000000	41.239	135.4302
19250.000000	40.798	162.9880
19500.000000	40.370	-173.3381
19750.000000	39.449	-153.1865
