* Measurement data measured by REW V5.20.4
* Source: Microphone (Realtek USB2.0 Audio), MICROPHONE (Master Volume), L, volume: 1.000. Timing signal peak level -24.0 dBFS, measurement signal peak level -15.5 dBFS
* Format: 4M Log Swept Sine, 1 sweep at -15.0 dBFS using an acoustic timing reference
* Dated: Dec 29, 2021 1:58:19 PM
* REW Settings:
*  C-weighting compensation: Off
*  Target level: 75.0 dB
* Note: Delay -0.2383 ms (-82 mm, -3.22 in) using estimated IR delay relative to Acoustic reference on  L with no timing offset
* Measurement: Tanya L
* Smoothing: 1/24 octave
* Frequency Step: 1/48 octave
* Start Frequency: 20.000 Hz
*
* Freq(Hz)	SPL(dB)	Phase(degrees)
20.000000	94.935	-45.5651
20.299999	95.230	-47.7343
20.600000	95.388	-49.8571
20.900000	95.442	-51.4971
21.200001	95.460	-52.4567
21.400000	95.495	-52.8108
21.799999	95.654	-53.2572
22.000000	95.777	-53.5756
22.400000	96.059	-54.7731
22.700001	96.246	-56.1559
23.000000	96.374	-57.7356
23.299999	96.446	-59.2334
23.600000	96.485	-60.4851
24.000000	96.534	-61.7181
24.299999	96.600	-62.4743
24.700001	96.728	-63.5704
25.000000	96.828	-64.5909
25.400000	96.927	-66.1443
25.799999	96.979	-67.5788
26.200001	97.026	-68.5933
26.500000	97.102	-69.1186
26.900000	97.285	-69.8368
27.200001	97.466	-70.7023
27.600000	97.699	-72.5419
28.000000	97.832	-75.0000
28.500000	97.800	-78.0051
29.000000	97.640	-79.7823
29.500000	97.556	-80.2350
30.000000	97.662	-80.5312
30.400000	97.811	-81.4022
30.700001	97.897	-82.4423
31.100000	97.936	-83.9286
31.500000	97.910	-85.0628
32.000000	97.892	-85.7479
32.500000	97.977	-86.1611
33.000000	98.123	-86.9954
33.500000	98.244	-88.2448
34.000000	98.324	-89.4912
34.500000	98.406	-90.6423
35.000000	98.491	-91.9409
35.500000	98.532	-93.3732
36.000000	98.518	-94.5027
36.500000	98.524	-95.0828
37.000000	98.619	-95.5233
37.500000	98.774	-96.4405
38.200001	98.910	-98.5473
38.700001	98.913	-99.9268
39.500000	98.923	-101.2616
40.000000	98.988	-102.0194
40.599998	99.083	-103.2258
41.200001	99.150	-104.6541
41.799999	99.180	-106.1653
42.500000	99.150	-107.8137
43.099998	99.086	-108.7150
43.700001	99.072	-109.0591
44.400002	99.174	-109.4241
45.000000	99.302	-110.2240
45.500000	99.383	-111.1630
46.200001	99.443	-112.5470
46.799999	99.464	-113.6441
47.500000	99.473	-114.7490
48.200001	99.503	-115.7068
48.700001	99.546	-116.4871
49.400002	99.592	-117.8922
50.000000	99.578	-119.1011
50.799999	99.548	-120.1360
51.500000	99.610	-120.8441
52.200001	99.710	-122.0728
53.000000	99.728	-123.8425
53.799999	99.655	-124.9615
54.500000	99.624	-125.3507
55.200001	99.640	-125.7060
56.000000	99.651	-126.2179
57.000000	99.662	-126.6110
58.000000	99.757	-127.2021
59.000000	99.832	-128.7161
60.000000	99.793	-130.3398
60.799999	99.768	-131.3273
61.500000	99.780	-132.2952
62.200001	99.784	-133.4454
63.000000	99.762	-134.6664
64.000000	99.748	-135.9475
65.000000	99.719	-137.0543
66.000000	99.709	-137.4384
67.000000	99.833	-137.7998
68.000000	99.936	-138.9884
69.000000	99.921	-140.1553
70.000000	99.873	-140.9107
71.000000	99.842	-141.5375
72.000000	99.826	-142.3939
73.000000	99.773	-143.4930
74.000000	99.697	-144.4082
75.000000	99.665	-145.1409
76.199997	99.698	-146.1736
77.500000	99.748	-147.5934
78.800003	99.743	-148.8156
80.000000	99.725	-149.4157
81.199997	99.708	-149.7375
82.500000	99.720	-149.9149
83.800003	99.758	-150.8212
85.000000	99.692	-152.1352
86.199997	99.591	-153.2318
87.500000	99.509	-154.3381
88.500000	99.458	-155.0615
90.000000	99.436	-155.7934
91.199997	99.458	-156.3685
92.500000	99.458	-157.0301
93.800003	99.427	-157.5563
95.000000	99.394	-158.0103
96.199997	99.365	-158.5172
97.500000	99.353	-159.2046
98.800003	99.349	-160.0760
100.000000	99.338	-160.8982
101.500000	99.308	-161.8107
103.000000	99.249	-162.4195
104.400002	99.219	-162.6838
106.000000	99.232	-163.3245
107.500000	99.212	-164.3829
109.000000	99.146	-165.3658
110.599998	99.096	-166.0385
112.000000	99.097	-166.5909
113.800003	99.085	-167.6085
115.000000	99.028	-168.2833
117.199997	98.908	-168.9784
118.000000	98.886	-169.2036
120.599998	98.814	-169.9275
122.000000	98.777	-170.1312
124.099998	98.737	-170.6663
125.000000	98.714	-171.0943
126.500000	98.677	-172.0075
128.000000	98.663	-173.0312
131.500000	98.848	-174.0407
132.000000	98.902	-174.1542
134.000000	98.931	-175.1127
136.000000	98.644	-175.1194
138.000000	98.418	-174.9003
140.000000	98.293	-175.5436
143.000000	98.223	-176.6664
145.000000	98.225	-177.0283
147.500000	98.188	-177.3403
150.000000	98.171	-177.5753
152.500000	98.151	-177.9504
155.000000	98.046	-178.5597
157.500000	97.870	-179.2570
160.000000	97.775	-179.8474
162.500000	97.783	179.6272
165.000000	97.692	179.0210
167.500000	97.490	178.7227
170.000000	97.415	178.5833
172.500000	97.500	178.1351
175.000000	97.546	177.7707
177.500000	97.464	177.6165
180.000000	97.344	177.2523
182.500000	97.253	176.5148
185.000000	97.201	175.9054
187.500000	97.145	175.5677
190.000000	97.068	175.3979
192.500000	96.984	175.1772
195.000000	96.911	174.8572
197.500000	96.853	174.3511
200.000000	96.796	173.9379
203.000000	96.754	173.8116
206.000000	96.701	173.8910
209.000000	96.654	173.8940
212.000000	96.602	173.6538
214.000000	96.544	173.4802
218.000000	96.469	172.8389
220.000000	96.499	172.3437
224.000000	96.475	171.8837
227.000000	96.284	172.4150
230.000000	96.123	172.5434
233.000000	96.066	172.2100
236.000000	96.018	172.1804
240.000000	95.926	172.3503
243.000000	95.830	172.1845
247.000000	95.632	172.2313
250.000000	95.585	172.4194
254.000000	95.680	172.7463
258.000000	95.726	172.5098
262.000000	95.635	172.5938
265.000000	95.510	173.2543
269.000000	95.321	172.9247
272.000000	95.220	171.8367
276.000000	95.143	171.4700
280.000000	95.022	171.8228
285.000000	94.822	171.4678
290.000000	94.760	170.9496
295.000000	94.820	171.5375
300.000000	94.913	172.3269
304.000000	94.846	172.4259
307.000000	94.730	172.4162
311.000000	94.588	172.6637
315.000000	94.500	173.1260
320.000000	94.403	173.2866
325.000000	94.332	172.8805
330.000000	94.277	172.9976
335.000000	94.159	173.3180
340.000000	94.059	173.0863
345.000000	93.961	172.9202
350.000000	93.873	173.3414
355.000000	93.764	173.7574
360.000000	93.668	173.9414
365.000000	93.620	174.1752
370.000000	93.579	174.6865
375.000000	93.525	175.2931
382.000000	93.416	175.7665
387.000000	93.344	175.8873
395.000000	93.215	176.3593
400.000000	93.131	176.8129
406.000000	93.054	177.2623
412.000000	92.980	177.5538
418.000000	92.886	177.8214
425.000000	92.849	178.3302
431.000000	92.814	178.7429
437.000000	92.717	179.2495
444.000000	92.608	-179.9059
450.000000	92.559	-179.4270
455.000000	92.520	-179.4080
462.000000	92.456	-179.3729
468.000000	92.397	-179.0402
475.000000	92.333	-178.3456
482.000000	92.280	-177.7302
487.000000	92.222	-177.4823
494.000000	92.126	-177.0002
500.000000	92.055	-176.2850
508.000000	91.982	-175.5244
515.000000	91.905	-174.9630
522.000000	91.793	-174.4453
530.000000	91.707	-174.0480
538.000000	91.663	-173.5580
545.000000	91.655	-172.7980
552.000000	91.629	-171.9506
560.000000	91.573	-171.1630
570.000000	91.495	-170.2534
580.000000	91.422	-169.2354
590.000000	91.351	-168.2352
600.000000	91.280	-167.3613
608.000000	91.219	-166.6388
615.000000	91.169	-165.9534
622.000000	91.120	-165.2651
630.000000	91.071	-164.4745
640.000000	91.020	-163.5104
650.000000	90.966	-162.5769
660.000000	90.894	-161.5822
670.000000	90.822	-160.4610
680.000000	90.764	-159.4687
690.000000	90.697	-158.5347
700.000000	90.627	-157.5328
710.000000	90.558	-156.5021
720.000000	90.496	-155.4758
730.000000	90.439	-154.4359
740.000000	90.383	-153.3948
750.000000	90.334	-152.3596
762.000000	90.283	-151.1447
775.000000	90.243	-149.7828
788.000000	90.220	-148.4272
800.000000	90.200	-147.1741
812.000000	90.179	-145.9264
825.000000	90.168	-144.6088
838.000000	90.164	-143.2198
850.000000	90.161	-141.9127
862.000000	90.160	-140.7139
875.000000	90.162	-139.4455
885.000000	90.164	-138.4647
900.000000	90.172	-137.0369
912.000000	90.186	-135.9198
925.000000	90.213	-134.6899
938.000000	90.250	-133.4698
950.000000	90.287	-132.3618
962.000000	90.332	-131.2439
975.000000	90.391	-130.0183
988.000000	90.455	-128.7769
1000.000000	90.520	-127.6486
1015.000000	90.611	-126.2886
1030.000000	90.711	-124.9268
1044.000000	90.808	-123.6208
1060.000000	90.926	-122.1255
1075.000000	91.041	-120.7144
1090.000000	91.158	-119.2898
1106.000000	91.286	-117.7900
1120.000000	91.400	-116.5038
1138.000000	91.557	-114.8384
1150.000000	91.668	-113.7256
1172.000000	91.882	-111.6866
1180.000000	91.961	-110.9481
1206.000000	92.211	-108.5710
1220.000000	92.341	-107.2995
1241.000000	92.518	-105.5145
1250.000000	92.581	-104.7438
1265.000000	92.691	-103.3239
1280.000000	92.809	-101.8392
1315.000000	93.060	-98.5807
1320.000000	93.095	-98.1237
1340.000000	93.228	-96.2885
1360.000000	93.358	-94.4397
1380.000000	93.481	-92.5778
1400.000000	93.596	-90.6979
1430.000000	93.752	-87.8268
1450.000000	93.848	-85.9259
1475.000000	93.965	-83.5702
1500.000000	94.077	-81.2103
1525.000000	94.185	-78.8680
1550.000000	94.290	-76.5272
1575.000000	94.392	-74.2227
1600.000000	94.496	-71.9587
1625.000000	94.606	-69.7209
1650.000000	94.721	-67.5194
1675.000000	94.841	-65.3497
1700.000000	94.965	-63.2177
1725.000000	95.089	-61.1235
1750.000000	95.212	-59.0708
1775.000000	95.331	-57.0862
1800.000000	95.448	-55.1661
1825.000000	95.563	-53.2890
1850.000000	95.676	-51.4501
1875.000000	95.788	-49.6470
1900.000000	95.897	-47.8788
1925.000000	96.005	-46.1481
1950.000000	96.113	-44.4490
1975.000000	96.220	-42.7728
2000.000000	96.327	-41.1249
2030.000000	96.456	-39.1843
2060.000000	96.586	-37.2750
2090.000000	96.719	-35.3695
2120.000000	96.859	-33.4643
2140.000000	96.955	-32.2065
2180.000000	97.156	-29.7261
2200.000000	97.262	-28.5007
2240.000000	97.487	-26.0874
2270.000000	97.663	-24.3200
2300.000000	97.844	-22.5844
2330.000000	98.029	-20.8754
2360.000000	98.216	-19.2101
2400.000000	98.467	-17.0644
2430.000000	98.655	-15.5088
2470.000000	98.908	-13.5249
2500.000000	99.099	-12.0995
2540.000000	99.357	-10.2947
2580.000000	99.620	-8.6151
2620.000000	99.888	-7.0687
2650.000000	100.091	-5.9993
2690.000000	100.364	-4.6904
2720.000000	100.568	-3.7963
2760.000000	100.838	-2.7041
2800.000000	101.102	-1.6397
2850.000000	101.424	-0.2107
2900.000000	101.726	1.2125
2950.000000	102.007	2.5358
3000.000000	102.272	3.6760
3040.000000	102.471	4.2586
3070.000000	102.614	4.4598
3110.000000	102.793	4.4871
3150.000000	102.950	4.3113
3200.000000	103.096	3.9011
3250.000000	103.174	3.4056
3300.000000	103.183	2.9586
3350.000000	103.129	2.6533
3400.000000	103.022	2.5524
3450.000000	102.874	2.6913
3500.000000	102.693	3.0916
3550.000000	102.487	3.7570
3600.000000	102.263	4.6851
3650.000000	102.028	5.8666
3700.000000	101.788	7.2881
3750.000000	101.544	8.9365
3820.000000	101.204	11.5984
3870.000000	100.965	13.7389
3950.000000	100.590	17.4921
4000.000000	100.360	20.0023
4060.000000	100.089	23.1823
4120.000000	99.818	26.5496
4180.000000	99.547	30.0738
4250.000000	99.223	34.3263
4310.000000	98.938	38.0972
4370.000000	98.645	41.9760
4440.000000	98.295	46.6133
4500.000000	97.992	50.6701
4550.000000	97.742	54.0886
4620.000000	97.403	58.9109
4680.000000	97.128	63.0532
4750.000000	96.835	67.8776
4820.000000	96.571	72.6869
4870.000000	96.401	76.1304
4940.000000	96.196	81.0192
5000.000000	96.053	85.2369
5080.000000	95.899	90.7822
5150.000000	95.795	95.6034
5220.000000	95.719	100.4229
5300.000000	95.675	105.8927
5380.000000	95.687	111.3423
5450.000000	95.752	116.1087
5520.000000	95.856	120.8564
5600.000000	95.992	126.2424
5700.000000	96.153	132.9708
5800.000000	96.264	139.8748
5900.000000	96.324	146.5832
6000.000000	96.340	153.1741
6080.000000	96.325	158.4099
6150.000000	96.293	162.9725
6220.000000	96.255	167.5192
6300.000000	96.216	172.6887
6400.000000	96.175	179.1055
6500.000000	96.146	-174.5304
6600.000000	96.128	-168.2072
6700.000000	96.116	-161.8784
6800.000000	96.103	-155.5137
6900.000000	96.077	-149.1006
7000.000000	96.036	-142.5439
7100.000000	95.978	-135.4774
7200.000000	95.904	-127.4963
7300.000000	95.809	-118.7170
7400.000000	95.683	-109.3041
7500.000000	95.506	-99.2262
7620.000000	95.195	-86.2993
7750.000000	94.701	-71.5061
7880.000000	94.079	-55.5422
8000.000000	93.441	-39.6519
8120.000000	92.762	-23.1811
8250.000000	91.990	-5.3882
8380.000000	91.199	11.8923
8500.000000	90.483	27.2222
8620.000000	89.816	41.8640
8750.000000	89.178	56.7974
8850.000000	88.757	67.5395
9000.000000	88.210	82.4662
9120.000000	87.803	93.5240
9250.000000	87.353	104.9014
9380.000000	86.867	115.9639
9500.000000	86.375	126.0681
9620.000000	85.845	136.1499
9750.000000	85.240	147.1287
9880.000000	84.622	158.2751
10000.000000	84.065	168.7183
10150.000000	83.422	-178.0937
10300.000000	82.867	-164.7881
10440.000000	82.449	-152.2516
10600.000000	82.097	-137.9412
10750.000000	81.893	-124.7295
10900.000000	81.813	-111.8200
11060.000000	81.860	-98.5503
11200.000000	82.012	-87.5544
11380.000000	82.341	-74.5259
11500.000000	82.618	-66.6349
11720.000000	83.122	-53.8596
11800.000000	83.271	-49.6693
12060.000000	83.503	-36.7334
12200.000000	83.452	-29.5392
12410.000000	83.195	-17.4783
12500.000000	83.044	-11.6946
12650.000000	82.779	-1.2278
12800.000000	82.540	10.1581
13150.000000	82.336	39.5140
13200.000000	82.367	43.9393
13400.000000	82.663	61.9709
13600.000000	83.174	80.3263
13800.000000	83.808	98.8314
14000.000000	84.500	117.2019
14300.000000	85.625	143.7838
14500.000000	86.437	160.4520
14750.000000	87.550	179.5031
15000.000000	88.781	-164.4258
15250.000000	89.971	-152.4020
15500.000000	90.760	-144.0994
15750.000000	90.842	-136.9363
16000.000000	90.226	-127.5129
16250.000000	89.184	-114.1083
16500.000000	88.013	-97.1322
16750.000000	86.755	-77.7944
17000.000000	84.938	-57.0431
17250.000000	81.709	-35.3747
17500.000000	76.595	-13.1362
17750.000000	69.796	9.3797
18000.000000	61.989	31.9493
18250.000000	54.068	54.1755
18500.000000	47.250	75.7190
18750.000000	42.925	96.5621
19000.000000	41.262	116.6801
19250.000000	41.045	135.0875
19500.000000	41.186	150.3403
19750.000000	41.124	161.6289
