* Measurement data measured by REW V5.20.13
* Source: EXCL: Microphone (High Definition Audio Device), MICROPHONE (Master Volume), R, volume: 1.000. Timing signal peak level -18.3 dBFS, measurement signal peak level -16.7 dBFS
* Format: 4M Log Swept Sine, 1 sweep at 0.0 dBFS using an acoustic timing reference
* Dated: Oct 7, 2022 11:53:16 AM
* REW Settings:
*  C-weighting compensation: Off
*  Target level: 75.0 dB
* Note: Delay -0.0499 ms (-17 mm, -0.67 in) using estimated IR delay relative to Acoustic reference played from SPEAKER R with no timing offset
* Measurement: T2 DLC R
* Smoothing: None
* Frequency Step: 1/48 octave
* Start Frequency: 20.000 Hz
*
* Freq(Hz)	SPL(dB)	Phase(degrees)
20.000000	95.652	52.7741
20.299999	95.694	51.9432
20.600000	95.735	51.2101
20.900000	95.783	50.5553
21.200001	95.843	49.9254
21.400000	95.887	49.4853
21.799999	95.980	48.5290
22.000000	96.024	48.0128
22.400000	96.097	46.9460
22.700001	96.139	46.1709
23.000000	96.174	45.4581
23.299999	96.210	44.8065
23.600000	96.250	44.1907
24.000000	96.310	43.3729
24.299999	96.356	42.7334
24.700001	96.411	41.8518
25.000000	96.444	41.1985
25.400000	96.482	40.3787
25.799999	96.519	39.6296
26.200001	96.560	38.9202
26.500000	96.594	38.3875
26.900000	96.639	37.6590
27.200001	96.671	37.1028
27.600000	96.709	36.3658
28.000000	96.742	35.6512
28.500000	96.782	34.7908
29.000000	96.821	33.9493
29.500000	96.858	33.1183
30.000000	96.892	32.3022
30.400000	96.917	31.6620
30.700001	96.934	31.1890
31.100000	96.956	30.5692
31.500000	96.976	29.9662
32.000000	97.000	29.2399
32.500000	97.025	28.5329
33.000000	97.050	27.8236
33.500000	97.071	27.1082
34.000000	97.086	26.4097
34.500000	97.097	25.7530
35.000000	97.110	25.1332
35.500000	97.126	24.5206
36.000000	97.142	23.8959
36.500000	97.154	23.2683
37.000000	97.163	22.6565
37.500000	97.172	22.0601
38.200001	97.182	21.2300
38.700001	97.185	20.6514
39.500000	97.189	19.8073
40.000000	97.198	19.3080
40.599998	97.213	18.6771
41.200001	97.222	18.0106
41.799999	97.223	17.3718
42.500000	97.224	16.6971
43.099998	97.230	16.1273
43.700001	97.235	15.5308
44.400002	97.232	14.8322
45.000000	97.225	14.2670
45.500000	97.218	13.8237
46.200001	97.210	13.2298
46.799999	97.206	12.7204
47.500000	97.200	12.1044
48.200001	97.187	11.5033
48.700001	97.176	11.1152
49.400002	97.168	10.6103
50.000000	97.166	10.1553
50.799999	97.158	9.5214
51.500000	97.147	9.0105
52.200001	97.140	8.5089
53.000000	97.128	7.8878
53.799999	97.103	7.3095
54.500000	97.082	6.8737
55.200001	97.068	6.4397
56.000000	97.054	5.9059
57.000000	97.026	5.1868
58.000000	96.984	4.5825
59.000000	96.966	4.0704
60.000000	96.948	3.4203
60.799999	96.922	2.9646
61.500000	96.905	2.5974
62.200001	96.886	2.2290
63.000000	96.868	1.8596
64.000000	96.855	1.2841
65.000000	96.810	0.7148
66.000000	96.785	0.3390
67.000000	96.767	-0.2584
68.000000	96.721	-0.7811
69.000000	96.683	-1.2177
70.000000	96.646	-1.6170
71.000000	96.616	-2.0257
72.000000	96.576	-2.4066
73.000000	96.556	-2.7643
74.000000	96.518	-3.2756
75.000000	96.472	-3.5776
76.199997	96.445	-4.0666
77.500000	96.389	-4.5164
78.800003	96.356	-4.9847
80.000000	96.309	-5.3995
81.199997	96.270	-5.7733
82.500000	96.226	-6.1875
83.800003	96.183	-6.6163
85.000000	96.132	-7.0269
86.199997	96.084	-7.2576
87.500000	96.058	-7.6570
88.500000	96.013	-7.9546
90.000000	95.967	-8.2849
91.199997	95.925	-8.6053
92.500000	95.873	-8.9526
93.800003	95.819	-9.2077
95.000000	95.780	-9.4589
96.199997	95.744	-9.7612
97.500000	95.689	-10.0920
98.800003	95.644	-10.3051
100.000000	95.603	-10.5470
101.500000	95.554	-10.8638
103.000000	95.492	-11.0689
104.400002	95.452	-11.3781
106.000000	95.390	-11.6121
107.500000	95.333	-11.8936
109.000000	95.285	-12.1080
110.599998	95.228	-12.3375
112.000000	95.182	-12.5414
113.800003	95.120	-12.7825
115.000000	95.080	-12.9238
117.199997	94.999	-13.2065
118.000000	94.976	-13.2598
120.599998	94.901	-13.5781
122.000000	94.846	-13.7027
124.099998	94.776	-13.9449
125.000000	94.745	-13.9669
126.500000	94.703	-14.1396
128.000000	94.655	-14.2729
131.500000	94.544	-14.5691
132.000000	94.526	-14.5914
134.000000	94.458	-14.7779
136.000000	94.413	-14.8757
138.000000	94.345	-14.9320
140.000000	94.281	-15.0568
143.000000	94.186	-15.2983
145.000000	94.142	-15.2875
147.500000	94.062	-15.6359
150.000000	93.987	-15.5173
152.500000	93.901	-15.6476
155.000000	93.839	-15.7126
157.500000	93.763	-15.7952
160.000000	93.688	-15.8243
162.500000	93.610	-15.8373
165.000000	93.534	-15.9152
167.500000	93.471	-15.9203
170.000000	93.398	-15.8921
172.500000	93.316	-15.8268
175.000000	93.249	-15.7697
177.500000	93.159	-15.5569
180.000000	93.093	-15.6756
182.500000	93.009	-15.5658
185.000000	92.940	-15.2344
187.500000	92.837	-15.0457
190.000000	92.772	-14.7122
192.500000	92.662	-14.1792
195.000000	92.656	-13.5908
197.500000	92.587	-13.3290
200.000000	92.568	-12.4301
203.000000	92.600	-11.7081
206.000000	92.690	-11.4070
209.000000	92.751	-11.5654
212.000000	92.785	-11.8701
214.000000	92.779	-12.0414
218.000000	92.756	-12.3164
220.000000	92.747	-12.6616
224.000000	92.664	-12.8019
227.000000	92.617	-12.9121
230.000000	92.558	-13.0100
233.000000	92.491	-13.0129
236.000000	92.441	-12.9066
240.000000	92.355	-13.0071
243.000000	92.316	-12.7928
247.000000	92.248	-12.5748
250.000000	92.194	-12.5143
254.000000	92.128	-12.3132
258.000000	92.076	-12.0747
262.000000	92.019	-11.8312
265.000000	91.984	-11.6925
269.000000	91.935	-11.3935
272.000000	91.899	-11.2303
276.000000	91.868	-11.0139
280.000000	91.829	-10.8326
285.000000	91.795	-10.6244
290.000000	91.743	-10.4375
295.000000	91.691	-10.2370
300.000000	91.641	-10.0116
304.000000	91.598	-9.8188
307.000000	91.573	-9.7337
311.000000	91.524	-9.5107
315.000000	91.487	-9.2949
320.000000	91.435	-9.0422
325.000000	91.389	-8.7488
330.000000	91.344	-8.4809
335.000000	91.300	-8.1860
340.000000	91.257	-7.8954
345.000000	91.220	-7.5924
350.000000	91.182	-7.3052
355.000000	91.145	-7.0059
360.000000	91.110	-6.7216
365.000000	91.076	-6.4252
370.000000	91.043	-6.1514
375.000000	91.011	-5.8661
382.000000	90.966	-5.4464
387.000000	90.934	-5.1527
395.000000	90.883	-4.6999
400.000000	90.856	-4.3940
406.000000	90.822	-4.0328
412.000000	90.787	-3.6608
418.000000	90.759	-3.2755
425.000000	90.731	-2.8672
431.000000	90.706	-2.4895
437.000000	90.679	-2.1415
444.000000	90.650	-1.7475
450.000000	90.623	-1.3820
455.000000	90.607	-1.1061
462.000000	90.578	-0.6772
468.000000	90.557	-0.3186
475.000000	90.530	0.0798
482.000000	90.506	0.5229
487.000000	90.491	0.7993
494.000000	90.467	1.2401
500.000000	90.448	1.5970
508.000000	90.427	2.0878
515.000000	90.407	2.4858
522.000000	90.388	2.9070
530.000000	90.372	3.3832
538.000000	90.355	3.8651
545.000000	90.339	4.2955
552.000000	90.326	4.7151
560.000000	90.310	5.2096
570.000000	90.294	5.8088
580.000000	90.279	6.3951
590.000000	90.272	7.0148
600.000000	90.256	7.6200
608.000000	90.249	8.1041
615.000000	90.241	8.5364
622.000000	90.239	8.9454
630.000000	90.235	9.4456
640.000000	90.230	10.0686
650.000000	90.224	10.6803
660.000000	90.225	11.3031
670.000000	90.227	11.9232
680.000000	90.231	12.5317
690.000000	90.235	13.1266
700.000000	90.240	13.7679
710.000000	90.252	14.3845
720.000000	90.263	15.0261
730.000000	90.275	15.6600
740.000000	90.290	16.2763
750.000000	90.308	16.8953
762.000000	90.331	17.6437
775.000000	90.362	18.4645
788.000000	90.394	19.2753
800.000000	90.426	20.0400
812.000000	90.463	20.7836
825.000000	90.510	21.5687
838.000000	90.559	22.3734
850.000000	90.610	23.1014
862.000000	90.665	23.8167
875.000000	90.726	24.5931
885.000000	90.779	25.1813
900.000000	90.858	26.0388
912.000000	90.924	26.6970
925.000000	91.005	27.4026
938.000000	91.086	28.0730
950.000000	91.164	28.6769
962.000000	91.245	29.2704
975.000000	91.334	29.8824
988.000000	91.429	30.4384
1000.000000	91.520	30.9684
1015.000000	91.630	31.5504
1030.000000	91.746	32.1228
1044.000000	91.856	32.6263
1060.000000	91.981	33.1331
1075.000000	92.103	33.5958
1090.000000	92.221	33.9911
1106.000000	92.351	34.3773
1120.000000	92.465	34.6658
1138.000000	92.613	34.9714
1150.000000	92.712	35.1229
1172.000000	92.884	35.2113
1180.000000	92.935	35.1732
1206.000000	93.019	34.9605
1220.000000	93.009	35.2894
1241.000000	93.084	36.5003
1250.000000	93.156	36.9630
1265.000000	93.304	37.6022
1280.000000	93.455	37.9997
1315.000000	93.811	38.4237
1320.000000	93.860	38.4493
1340.000000	94.042	38.3547
1360.000000	94.201	38.1760
1380.000000	94.344	37.9871
1400.000000	94.468	37.7650
1430.000000	94.632	37.5091
1450.000000	94.735	37.3695
1475.000000	94.856	37.2036
1500.000000	94.967	37.1054
1525.000000	95.076	37.0000
1550.000000	95.181	36.9431
1575.000000	95.289	36.9257
1600.000000	95.397	36.9100
1625.000000	95.501	36.8893
1650.000000	95.610	36.8905
1675.000000	95.719	36.8894
1700.000000	95.831	36.8805
1725.000000	95.940	36.8672
1750.000000	96.053	36.8804
1775.000000	96.167	36.8689
1800.000000	96.281	36.8266
1825.000000	96.397	36.7832
1850.000000	96.516	36.7427
1875.000000	96.636	36.6638
1900.000000	96.754	36.5829
1925.000000	96.875	36.4956
1950.000000	96.999	36.3635
1975.000000	97.123	36.2486
2000.000000	97.246	36.0639
2030.000000	97.393	35.8598
2060.000000	97.545	35.6012
2090.000000	97.695	35.3024
2120.000000	97.845	34.9736
2140.000000	97.943	34.7518
2180.000000	98.145	34.1986
2200.000000	98.245	33.9150
2240.000000	98.441	33.2617
2270.000000	98.588	32.6948
2300.000000	98.733	32.1129
2330.000000	98.873	31.4618
2360.000000	99.009	30.7721
2400.000000	99.182	29.7839
2430.000000	99.306	28.9682
2470.000000	99.458	27.8386
2500.000000	99.562	26.9612
2540.000000	99.697	25.7076
2580.000000	99.812	24.4419
2620.000000	99.909	23.1449
2650.000000	99.975	22.1409
2690.000000	100.048	20.7857
2720.000000	100.091	19.7809
2760.000000	100.131	18.4304
2800.000000	100.158	17.1199
2850.000000	100.173	15.5406
2900.000000	100.166	14.0234
2950.000000	100.142	12.5803
3000.000000	100.102	11.2373
3040.000000	100.060	10.2330
3070.000000	100.024	9.5275
3110.000000	99.972	8.6522
3150.000000	99.919	7.8430
3200.000000	99.844	6.9364
3250.000000	99.766	6.1180
3300.000000	99.691	5.3777
3350.000000	99.616	4.7262
3400.000000	99.542	4.1631
3450.000000	99.475	3.6750
3500.000000	99.412	3.2533
3550.000000	99.353	2.8769
3600.000000	99.302	2.5205
3650.000000	99.253	2.2324
3700.000000	99.213	1.9495
3750.000000	99.178	1.6965
3820.000000	99.142	1.4108
3870.000000	99.124	1.2208
3950.000000	99.114	0.8737
4000.000000	99.120	0.6349
4060.000000	99.134	0.3241
4120.000000	99.154	-0.0650
4180.000000	99.180	-0.4981
4250.000000	99.217	-1.0726
4310.000000	99.246	-1.6560
4370.000000	99.273	-2.3020
4440.000000	99.302	-3.1632
4500.000000	99.323	-3.9981
4550.000000	99.331	-4.7238
4620.000000	99.326	-5.7875
4680.000000	99.312	-6.7280
4750.000000	99.282	-7.8229
4820.000000	99.238	-8.9028
4870.000000	99.206	-9.6893
4940.000000	99.148	-10.7675
5000.000000	99.095	-11.7076
5080.000000	99.008	-12.9940
5150.000000	98.917	-14.1279
5220.000000	98.804	-15.2137
5300.000000	98.659	-16.4810
5380.000000	98.488	-17.6208
5450.000000	98.323	-18.4995
5520.000000	98.157	-19.2837
5600.000000	97.953	-20.0137
5700.000000	97.687	-20.8263
5800.000000	97.413	-21.4474
5900.000000	97.126	-21.8389
6000.000000	96.837	-21.9477
6080.000000	96.614	-21.7419
6150.000000	96.429	-21.3765
6220.000000	96.270	-20.8955
6300.000000	96.119	-20.2786
6400.000000	95.966	-19.4452
6500.000000	95.857	-18.5557
6600.000000	95.789	-17.6946
6700.000000	95.768	-16.8501
6800.000000	95.783	-16.1353
6900.000000	95.833	-15.5527
7000.000000	95.918	-15.1873
7100.000000	96.037	-15.0090
7200.000000	96.193	-15.0936
7300.000000	96.378	-15.5493
7400.000000	96.592	-16.4078
7500.000000	96.811	-17.8075
7620.000000	97.053	-20.2504
7750.000000	97.267	-23.8358
7880.000000	97.381	-28.3752
8000.000000	97.369	-33.3494
8120.000000	97.157	-39.0684
8250.000000	96.666	-45.1528
8380.000000	95.943	-50.7019
8500.000000	95.106	-55.0086
8620.000000	94.161	-58.3777
8750.000000	93.060	-61.0476
8850.000000	92.157	-62.3539
9000.000000	90.757	-63.0235
9120.000000	89.609	-62.3230
9250.000000	88.408	-60.3398
9380.000000	87.300	-57.2635
9500.000000	86.378	-53.7405
9620.000000	85.540	-49.8189
9750.000000	84.738	-45.1553
9880.000000	84.013	-40.3342
10000.000000	83.407	-35.6580
10150.000000	82.707	-29.4379
10300.000000	82.081	-22.9401
10440.000000	81.572	-16.4271
10600.000000	81.070	-8.2917
10750.000000	80.741	0.0529
10900.000000	80.619	9.2036
11060.000000	80.814	19.2367
11200.000000	81.281	27.3118
11380.000000	82.195	35.3942
11500.000000	82.852	39.0623
11720.000000	83.881	43.1440
11800.000000	84.171	44.2576
12060.000000	84.903	47.9072
12200.000000	85.225	50.1347
12410.000000	85.753	53.9916
12500.000000	86.000	55.7796
12650.000000	86.458	58.8011
12800.000000	86.997	61.8333
13150.000000	88.617	68.4143
13200.000000	88.894	69.2280
13400.000000	90.156	71.7570
13600.000000	91.658	72.6407
13800.000000	93.388	70.9141
14000.000000	95.219	65.0073
14300.000000	97.247	45.9607
14500.000000	97.231	30.0202
14750.000000	95.919	16.0914
15000.000000	94.358	10.2656
15250.000000	93.185	9.4518
15500.000000	92.453	10.8732
15750.000000	92.179	13.1818
16000.000000	92.388	15.3574
16250.000000	93.112	15.7383
16500.000000	94.348	11.9117
16750.000000	95.818	-0.4786
17000.000000	96.127	-25.3828
17250.000000	93.299	-53.2409
17500.000000	86.057	-58.6047
17750.000000	86.126	-28.9257
18000.000000	85.563	-31.0449
18250.000000	84.228	-28.9753
18500.000000	83.057	-24.1991
18750.000000	82.185	-18.2095
19000.000000	81.637	-11.8622
19250.000000	81.400	-6.0219
19500.000000	81.430	-1.0527
19750.000000	81.645	2.0365
