* Measurement data measured by REW V5.20 Beta 55
* Source: Microphone (Realtek USB2.0 Audio), MICROPHONE (Master Volume), L, volume: 0.588. Timing signal peak level -13.9 dBFS, measurement signal peak level -6.5 dBFS
* Format: 2M Log Swept Sine, 1 sweep at -10.0 dBFS using an acoustic timing reference
* Dated: Jun 17, 2020 12:57:00 PM
* REW Settings:
*  C-weighting compensation: Off
*  Target level: 75.0 dB
* Note: Delay -0.0518 ms (-18 mm, -0.7 in) using estimated IR delay relative to Acoustic reference on SPEAKER L with no timing offset
* Measurement: VX L
* Smoothing: 1/24 octave
* Frequency Step: 1/48 octave
* Start Frequency: 20.000 Hz
*
* Freq(Hz)	SPL(dB)	Phase(degrees)
20.000000	72.5	-84.8445
20.299999	72.6	-85.6562
20.600000	72.7	-86.9523
20.900000	72.8	-88.0447
21.200001	72.8	-89.0628
21.400000	72.9	-89.8327
21.799999	72.9	-91.4773
22.000000	73.0	-92.2566
22.400000	73.0	-93.6512
22.700001	73.1	-94.6237
23.000000	73.1	-95.6045
23.299999	73.1	-96.6167
23.600000	73.2	-97.6752
24.000000	73.2	-99.1520
24.299999	73.2	-100.2130
24.700001	73.3	-101.4705
25.000000	73.3	-102.3602
25.400000	73.4	-103.5824
25.799999	73.4	-104.8328
26.200001	73.5	-106.0124
26.500000	73.5	-106.8008
26.900000	73.5	-107.7682
27.200001	73.5	-108.5146
27.600000	73.5	-109.5719
28.000000	73.6	-110.5876
28.500000	73.7	-111.7476
29.000000	73.7	-112.9780
29.500000	73.7	-114.2619
30.000000	73.7	-115.4685
30.400000	73.7	-116.3896
30.700001	73.7	-117.0740
31.100000	73.7	-117.9646
31.500000	73.7	-118.8091
32.000000	73.8	-119.8415
32.500000	73.8	-120.9057
33.000000	73.8	-121.9636
33.500000	73.8	-122.9449
34.000000	73.8	-123.8861
34.500000	73.8	-124.8374
35.000000	73.9	-125.7407
35.500000	73.9	-126.5799
36.000000	73.9	-127.4124
36.500000	73.9	-128.2467
37.000000	73.9	-129.0777
37.500000	73.9	-129.8801
38.200001	73.9	-130.9775
38.700001	73.9	-131.7582
39.500000	73.9	-132.9454
40.000000	74.0	-133.7046
40.599998	74.0	-134.5843
41.200001	74.0	-135.3836
41.799999	74.0	-136.1660
42.500000	74.0	-137.0210
43.099998	74.0	-137.8718
43.700001	74.0	-138.8593
44.400002	73.9	-139.9138
45.000000	73.9	-140.7547
45.500000	73.9	-141.3904
46.200001	73.9	-142.1088
46.799999	74.0	-142.6396
47.500000	74.0	-143.2250
48.200001	74.0	-143.7917
48.700001	74.0	-144.2800
49.400002	73.9	-145.1890
50.000000	73.9	-145.9350
50.799999	73.9	-146.7500
51.500000	73.9	-147.4264
52.200001	73.9	-148.0616
53.000000	73.9	-148.7961
53.799999	73.8	-149.5425
54.500000	73.8	-150.1806
55.200001	73.8	-150.8126
56.000000	73.8	-151.5200
57.000000	73.8	-152.3701
58.000000	73.8	-153.1676
59.000000	73.7	-153.9674
60.000000	73.7	-154.7773
60.799999	73.7	-155.4249
61.500000	73.6	-155.9666
62.200001	73.6	-156.4776
63.000000	73.6	-157.0373
64.000000	73.6	-157.7267
65.000000	73.6	-158.4757
66.000000	73.6	-159.1650
67.000000	73.5	-159.7000
68.000000	73.5	-160.2093
69.000000	73.4	-160.7660
70.000000	73.4	-161.3272
71.000000	73.4	-161.8814
72.000000	73.3	-162.4600
73.000000	73.3	-162.9913
74.000000	73.2	-163.4202
75.000000	73.2	-163.7800
76.199997	73.1	-164.2090
77.500000	73.1	-164.6625
78.800003	73.0	-164.9524
80.000000	73.0	-165.1319
81.199997	73.0	-165.4335
82.500000	73.0	-165.7221
83.800003	72.9	-166.0037
85.000000	73.0	-166.4118
86.199997	73.0	-166.3772
87.500000	73.0	-167.3216
88.500000	73.0	-168.5375
90.000000	73.0	-169.6640
91.199997	72.9	-170.2090
92.500000	72.9	-170.6507
93.800003	72.9	-171.0156
95.000000	72.9	-171.4000
96.199997	72.8	-171.8568
97.500000	72.8	-172.3502
98.800003	72.8	-172.8410
100.000000	72.7	-173.2639
101.500000	72.7	-173.7423
103.000000	72.7	-174.1741
104.400002	72.6	-174.5783
106.000000	72.6	-175.0799
107.500000	72.5	-175.5255
109.000000	72.5	-175.9063
110.599998	72.4	-176.2924
112.000000	72.4	-176.6441
113.800003	72.3	-177.0741
115.000000	72.3	-177.3590
117.199997	72.2	-177.8682
118.000000	72.2	-178.0747
120.599998	72.1	-178.7612
122.000000	72.1	-179.0547
124.099998	72.0	-179.4727
125.000000	72.0	-179.6652
126.500000	72.0	-179.9821
128.000000	71.9	179.7184
131.500000	71.8	178.9413
132.000000	71.8	178.8625
134.000000	71.8	178.6321
136.000000	71.7	178.3589
138.000000	71.6	178.0644
140.000000	71.5	177.8204
143.000000	71.4	177.6405
145.000000	71.4	177.5343
147.500000	71.3	177.2122
150.000000	71.2	176.9242
152.500000	71.0	176.9449
155.000000	70.9	177.3423
157.500000	70.8	178.0575
160.000000	70.9	178.7623
162.500000	71.0	178.8547
165.000000	71.0	178.4389
167.500000	71.1	177.8871
170.000000	71.1	177.5182
172.500000	71.1	177.3239
175.000000	71.0	176.7358
177.500000	70.9	176.1378
180.000000	70.9	175.7604
182.500000	70.8	175.4454
185.000000	70.8	175.1947
187.500000	70.7	174.9730
190.000000	70.6	174.7633
192.500000	70.6	174.5815
195.000000	70.5	174.4245
197.500000	70.4	174.2762
200.000000	70.4	174.1221
203.000000	70.3	173.9637
206.000000	70.2	173.8406
209.000000	70.1	173.8228
212.000000	70.0	174.0693
214.000000	69.9	174.3122
218.000000	69.9	174.0644
220.000000	69.9	173.7975
224.000000	69.8	173.6311
227.000000	69.8	173.6474
230.000000	69.7	173.6942
233.000000	69.7	173.7980
236.000000	69.7	173.9585
240.000000	69.6	174.0913
243.000000	69.6	174.0468
247.000000	69.5	173.9372
250.000000	69.5	173.9522
254.000000	69.4	173.9512
258.000000	69.4	174.0070
262.000000	69.3	174.0566
265.000000	69.3	174.0585
269.000000	69.2	174.1494
272.000000	69.2	174.2288
276.000000	69.1	174.1744
280.000000	69.1	174.0932
285.000000	69.0	174.1695
290.000000	69.0	174.4075
295.000000	68.9	174.5847
300.000000	68.8	174.7391
304.000000	68.8	174.8607
307.000000	68.8	174.9463
311.000000	68.7	175.0679
315.000000	68.7	175.1942
320.000000	68.6	175.3237
325.000000	68.6	175.5318
330.000000	68.5	175.8306
335.000000	68.5	176.2042
340.000000	68.4	176.5950
345.000000	68.4	176.9656
350.000000	68.4	177.3709
355.000000	68.3	177.8038
360.000000	68.3	178.2279
365.000000	68.2	178.6552
370.000000	68.2	179.0779
375.000000	68.2	179.5107
382.000000	68.1	-179.9110
387.000000	68.1	-179.4873
395.000000	68.0	-178.7547
400.000000	68.0	-178.2693
406.000000	68.0	-177.6949
412.000000	67.9	-177.1738
418.000000	67.9	-176.7331
425.000000	67.9	-176.3019
431.000000	67.8	-175.9669
437.000000	67.8	-175.6257
444.000000	67.8	-175.2361
450.000000	67.8	-174.9087
455.000000	67.7	-174.6322
462.000000	67.7	-174.2502
468.000000	67.7	-173.9286
475.000000	67.7	-173.5521
482.000000	67.7	-173.1752
487.000000	67.7	-172.9114
494.000000	67.6	-172.5482
500.000000	67.6	-172.2403
508.000000	67.6	-171.8312
515.000000	67.6	-171.4695
522.000000	67.6	-171.1041
530.000000	67.6	-170.6937
538.000000	67.6	-170.2884
545.000000	67.6	-169.9296
552.000000	67.6	-169.5644
560.000000	67.6	-169.1445
570.000000	67.6	-168.6364
580.000000	67.6	-168.1367
590.000000	67.6	-167.6334
600.000000	67.6	-167.1380
608.000000	67.7	-166.7487
615.000000	67.7	-166.4086
622.000000	67.7	-166.0703
630.000000	67.7	-165.6915
640.000000	67.7	-165.2316
650.000000	67.7	-164.7777
660.000000	67.8	-164.3287
670.000000	67.8	-163.8923
680.000000	67.8	-163.4653
690.000000	67.9	-163.0451
700.000000	67.9	-162.6404
710.000000	68.0	-162.2540
720.000000	68.0	-161.8834
730.000000	68.0	-161.5339
740.000000	68.1	-161.1983
750.000000	68.1	-160.8591
762.000000	68.1	-160.4484
775.000000	68.2	-160.0060
788.000000	68.3	-159.5925
800.000000	68.3	-159.2755
812.000000	68.4	-159.0466
825.000000	68.5	-158.8110
838.000000	68.5	-158.4097
850.000000	68.6	-157.9373
862.000000	68.6	-157.4486
875.000000	68.7	-156.8345
885.000000	68.7	-156.2295
900.000000	68.9	-155.2596
912.000000	69.1	-154.8114
925.000000	69.3	-154.7220
938.000000	69.4	-154.7386
950.000000	69.5	-154.7100
962.000000	69.7	-154.6370
975.000000	69.8	-154.5208
988.000000	69.9	-154.3766
1000.000000	70.1	-154.2229
1015.000000	70.2	-154.0126
1030.000000	70.4	-153.8067
1044.000000	70.6	-153.6315
1060.000000	70.8	-153.4517
1075.000000	71.0	-153.2823
1090.000000	71.2	-153.0981
1106.000000	71.5	-152.9046
1120.000000	71.7	-152.7518
1138.000000	71.9	-152.5716
1150.000000	72.1	-152.4535
1172.000000	72.4	-152.2430
1180.000000	72.6	-152.1705
1206.000000	72.9	-151.9518
1220.000000	73.1	-151.8514
1241.000000	73.5	-151.6879
1250.000000	73.6	-151.5881
1265.000000	73.8	-151.3287
1280.000000	74.0	-150.9872
1315.000000	74.4	-150.4985
1320.000000	74.5	-150.4646
1340.000000	74.8	-150.3699
1360.000000	75.0	-150.3184
1380.000000	75.2	-150.3004
1400.000000	75.4	-150.3182
1430.000000	75.8	-150.4045
1450.000000	76.0	-150.5041
1475.000000	76.2	-150.6932
1500.000000	76.5	-150.9142
1525.000000	76.7	-151.1571
1550.000000	77.0	-151.4576
1575.000000	77.2	-151.8684
1600.000000	77.4	-152.3639
1625.000000	77.6	-152.8932
1650.000000	77.8	-153.4691
1675.000000	78.0	-154.1007
1700.000000	78.2	-154.8057
1725.000000	78.3	-155.6109
1750.000000	78.5	-156.5144
1775.000000	78.7	-157.5096
1800.000000	78.8	-158.6049
1825.000000	79.0	-159.8206
1850.000000	79.1	-161.1754
1875.000000	79.2	-162.6515
1900.000000	79.4	-164.2318
1925.000000	79.5	-165.9172
1950.000000	79.6	-167.6984
1975.000000	79.7	-169.5586
2000.000000	79.8	-171.4747
2030.000000	79.9	-173.8038
2060.000000	80.0	-176.1427
2090.000000	80.1	-178.4721
2120.000000	80.2	179.2797
2140.000000	80.2	177.8521
2180.000000	80.3	175.1549
2200.000000	80.3	173.8947
2240.000000	80.2	171.6118
2270.000000	80.2	170.1292
2300.000000	80.1	168.8460
2330.000000	80.0	167.7978
2360.000000	79.9	166.9998
2400.000000	79.6	166.2545
2430.000000	79.4	165.8659
2470.000000	79.2	165.4280
2500.000000	79.0	164.9495
2540.000000	78.8	164.0741
2580.000000	78.6	163.6459
2620.000000	78.4	163.8373
2650.000000	78.3	164.1713
2690.000000	78.0	164.7183
2720.000000	77.9	165.1705
2760.000000	77.7	165.8622
2800.000000	77.5	166.7089
2850.000000	77.3	167.9611
2900.000000	77.1	169.3558
2950.000000	77.1	170.8773
3000.000000	77.0	172.4185
3040.000000	77.1	173.6250
3070.000000	77.1	174.5065
3110.000000	77.2	175.6122
3150.000000	77.3	176.5673
3200.000000	77.5	177.4437
3250.000000	77.7	177.8681
3300.000000	77.8	177.8006
3350.000000	78.0	177.3316
3400.000000	78.1	176.6680
3450.000000	78.1	176.0204
3500.000000	78.1	175.3403
3550.000000	78.1	174.4634
3600.000000	78.1	173.8910
3650.000000	78.2	173.7946
3700.000000	78.3	173.6600
3750.000000	78.4	173.2352
3820.000000	78.6	172.2125
3870.000000	78.7	171.2823
3950.000000	78.8	169.5087
4000.000000	78.9	168.2302
4060.000000	78.9	166.5306
4120.000000	78.8	164.7750
4180.000000	78.7	163.0864
4250.000000	78.4	161.3291
4310.000000	78.2	160.2173
4370.000000	77.9	159.6931
4440.000000	77.5	159.7986
4500.000000	77.1	160.0045
4550.000000	76.8	159.7098
4620.000000	76.5	158.5384
4680.000000	76.2	157.4363
4750.000000	75.9	156.8656
4820.000000	75.7	157.4686
4870.000000	75.6	158.2343
4940.000000	75.6	159.1650
5000.000000	75.5	159.6539
5080.000000	75.4	160.0445
5150.000000	75.3	160.4207
5220.000000	75.0	161.0759
5300.000000	74.7	162.6771
5380.000000	74.5	165.4653
5450.000000	74.5	167.1780
5520.000000	74.5	167.6719
5600.000000	74.2	168.7022
5700.000000	73.9	171.2155
5800.000000	73.6	174.3322
5900.000000	73.4	177.7750
6000.000000	73.1	-178.4477
6080.000000	72.9	-175.2617
6150.000000	72.8	-172.3692
6220.000000	72.7	-169.3919
6300.000000	72.7	-165.8998
6400.000000	72.8	-161.3869
6500.000000	72.9	-156.7707
6600.000000	73.2	-151.9490
6700.000000	73.5	-146.6298
6800.000000	73.8	-140.5243
6900.000000	74.1	-133.3558
7000.000000	74.4	-124.8775
7100.000000	74.7	-114.6864
7200.000000	75.1	-102.4833
7300.000000	75.5	-88.9676
7400.000000	76.1	-76.1550
7500.000000	76.8	-66.1804
7620.000000	77.5	-59.5174
7750.000000	78.0	-58.7339
7880.000000	78.1	-62.3908
8000.000000	77.9	-67.0068
8120.000000	77.2	-70.7255
8250.000000	76.3	-72.4730
8380.000000	75.2	-71.6549
8500.000000	74.2	-69.0905
8620.000000	73.3	-65.4553
8750.000000	72.3	-60.7239
8850.000000	71.7	-56.6897
9000.000000	70.9	-50.2181
9120.000000	70.5	-44.9957
9250.000000	70.2	-39.6487
9380.000000	70.1	-34.8165
9500.000000	70.1	-31.0302
9620.000000	70.3	-28.2204
9750.000000	70.6	-26.8621
9880.000000	70.9	-27.5957
10000.000000	71.0	-28.7826
10150.000000	71.0	-29.0288
10300.000000	70.8	-28.2019
10440.000000	70.6	-27.2545
10600.000000	70.4	-26.6352
10750.000000	70.4	-26.7467
10900.000000	70.5	-27.7671
11060.000000	70.7	-29.8405
11200.000000	70.8	-32.0234
11380.000000	70.8	-34.4653
11500.000000	70.6	-35.3920
11720.000000	69.9	-35.1341
11800.000000	69.6	-34.5053
12060.000000	68.3	-31.2797
12200.000000	67.6	-28.8313
12410.000000	66.5	-24.4282
12500.000000	66.2	-22.4297
12650.000000	65.8	-19.0340
12800.000000	65.6	-15.6854
13150.000000	66.0	-8.9100
13200.000000	66.1	-8.1053
13400.000000	66.4	-5.3415
13600.000000	66.3	-3.1211
13800.000000	65.9	-1.0386
14000.000000	65.0	1.2882
14300.000000	63.3	6.3200
14500.000000	62.5	11.3653
14750.000000	62.0	19.2418
15000.000000	62.2	27.7072
15250.000000	62.4	35.7279
15500.000000	62.5	42.6836
15750.000000	62.2	48.1062
16000.000000	61.1	52.2603
16250.000000	59.1	55.7123
16500.000000	56.8	58.1589
16750.000000	54.6	58.5165
17000.000000	52.4	56.0115
17250.000000	49.9	51.6458
17500.000000	46.7	48.0047
17750.000000	43.3	47.2963
18000.000000	40.9	50.6129
18250.000000	39.2	58.5746
18500.000000	39.1	72.3902
18750.000000	40.9	90.2377
19000.000000	40.8	107.3743
19250.000000	38.3	125.6304
19500.000000	36.4	137.6217
19750.000000	35.6	142.8070
