* Measurement data measured by REW V5.20.9
* Source: Microfone (USB Sound Device        ), MICROPHONE (Volume geral), R, volume: 0,560
* Format: 256k Log Swept Sine, 1 sweep at -12,0 dBFS with no timing reference
* Dated: 17/ago/2022 13:39:03
* REW Settings:
*  C-weighting compensation: Off
*  Target level: 75.0 dB
* Note: ; 
* Measurement: 64 Audio U12T MX20 R
* Smoothing: 1/12 octave
* Frequency Step: 1/48 octave
* Start Frequency: 20.300 Hz
*
* Freq(Hz)	SPL(dB)	Phase(degrees)
20.299999	76.466	-160.4681
20.600000	76.480	-160.8773
20.900000	76.513	-161.6981
21.200001	76.544	-162.4580
21.400000	76.562	-162.8649
21.799999	76.596	-163.4599
22.000000	76.613	-163.6828
22.400000	76.651	-164.1038
22.700001	76.678	-164.4946
23.000000	76.702	-165.0204
23.299999	76.718	-165.7070
23.600000	76.725	-166.5500
24.000000	76.718	-167.8726
24.299999	76.700	-168.9469
24.700001	76.659	-170.3792
25.000000	76.618	-171.3697
25.400000	76.558	-172.4878
25.799999	76.504	-173.3217
26.200001	76.469	-173.8883
26.500000	76.461	-174.1837
26.900000	76.474	-174.4760
27.200001	76.497	-174.6647
27.600000	76.539	-174.9151
28.000000	76.581	-175.1871
28.500000	76.623	-175.5794
29.000000	76.643	-176.0499
29.500000	76.641	-176.5925
30.000000	76.633	-177.1671
30.400000	76.640	-177.6381
30.700001	76.661	-178.0156
31.100000	76.707	-178.6019
31.500000	76.763	-179.3253
32.000000	76.812	179.5948
32.500000	76.811	178.4849
33.000000	76.766	177.5729
33.500000	76.719	176.9259
34.000000	76.714	176.3770
34.500000	76.753	175.6736
35.000000	76.797	174.7272
35.500000	76.801	173.6885
36.000000	76.749	172.8000
36.500000	76.656	172.1798
37.000000	76.546	171.7677
37.500000	76.433	171.4523
38.200001	76.284	171.1595
38.700001	76.205	171.1405
39.500000	76.184	171.2923
40.000000	76.233	171.2109
40.599998	76.311	170.7319
41.200001	76.371	169.9120
41.799999	76.410	168.9368
42.500000	76.435	167.7728
43.099998	76.439	166.8522
43.700001	76.429	166.0850
44.400002	76.410	165.3639
45.000000	76.393	164.7699
45.500000	76.372	164.2314
46.200001	76.324	163.4668
46.799999	76.274	162.9033
47.500000	76.229	162.3826
48.200001	76.204	161.9223
48.700001	76.189	161.5926
49.400002	76.158	161.1337
50.000000	76.122	160.7438
50.799999	76.069	160.1796
51.500000	76.027	159.6248
52.200001	75.996	159.0626
53.000000	75.975	158.4781
53.799999	75.954	157.9800
54.500000	75.927	157.6067
55.200001	75.891	157.2500
56.000000	75.845	156.7920
57.000000	75.777	156.1368
58.000000	75.702	155.4957
59.000000	75.638	154.8770
60.000000	75.591	154.2551
60.799999	75.556	153.7945
61.500000	75.520	153.4232
62.200001	75.477	153.0477
63.000000	75.422	152.5651
64.000000	75.356	151.8720
65.000000	75.298	151.1848
66.000000	75.242	150.6005
67.000000	75.181	150.1160
68.000000	75.122	149.7191
69.000000	75.076	149.3773
70.000000	75.043	149.0254
71.000000	75.009	148.6309
72.000000	74.963	148.1993
73.000000	74.903	147.7577
74.000000	74.834	147.3253
75.000000	74.765	146.9047
76.199997	74.688	146.4257
77.500000	74.608	145.9295
78.800003	74.525	145.4640
80.000000	74.455	145.0948
81.199997	74.392	144.7469
82.500000	74.321	144.3356
83.800003	74.252	143.9097
85.000000	74.197	143.5078
86.199997	74.140	143.0799
87.500000	74.068	142.6334
88.500000	74.014	142.3336
90.000000	73.942	141.9270
91.199997	73.887	141.6011
92.500000	73.824	141.2056
93.800003	73.757	140.7605
95.000000	73.694	140.3572
96.199997	73.633	140.0074
97.500000	73.569	139.6929
98.800003	73.505	139.4164
100.000000	73.445	139.1714
101.500000	73.370	138.8735
103.000000	73.295	138.6132
104.400002	73.225	138.3887
106.000000	73.150	138.0677
107.500000	73.082	137.7029
109.000000	73.014	137.3745
110.599998	72.936	137.1173
112.000000	72.867	136.9131
113.800003	72.790	136.5814
115.000000	72.744	136.3074
117.199997	72.654	135.7860
118.000000	72.619	135.6219
120.599998	72.505	135.2122
122.000000	72.445	135.0486
124.099998	72.366	134.8027
125.000000	72.336	134.6641
126.500000	72.288	134.3747
128.000000	72.236	134.0513
131.500000	72.086	133.4067
132.000000	72.064	133.3301
134.000000	71.979	133.0505
136.000000	71.892	132.8161
138.000000	71.804	132.6115
140.000000	71.726	132.4260
143.000000	71.637	132.1203
145.000000	71.584	131.8379
147.500000	71.509	131.4619
150.000000	71.418	131.1810
152.500000	71.324	130.9472
155.000000	71.243	130.6187
157.500000	71.169	130.2321
160.000000	71.085	129.8883
162.500000	70.983	129.6801
165.000000	70.875	129.5279
167.500000	70.778	129.2854
170.000000	70.701	128.9829
172.500000	70.641	128.7092
175.000000	70.587	128.4772
177.500000	70.529	128.2681
180.000000	70.457	128.0766
182.500000	70.377	127.8986
185.000000	70.298	127.7426
187.500000	70.231	127.6229
190.000000	70.183	127.5085
192.500000	70.145	127.3670
195.000000	70.105	127.2295
197.500000	70.061	127.1550
200.000000	70.009	127.1281
203.000000	69.939	127.0450
206.000000	69.872	126.8612
209.000000	69.818	126.6340
212.000000	69.779	126.4084
214.000000	69.759	126.2691
218.000000	69.703	126.0265
220.000000	69.663	125.9305
224.000000	69.569	125.7897
227.000000	69.498	125.7088
230.000000	69.437	125.6642
233.000000	69.382	125.7057
236.000000	69.330	125.8179
240.000000	69.276	125.9232
243.000000	69.258	125.9364
247.000000	69.271	125.8862
250.000000	69.298	125.7933
254.000000	69.327	125.5787
258.000000	69.322	125.3573
262.000000	69.295	125.1717
265.000000	69.289	124.9516
269.000000	69.302	124.5492
272.000000	69.303	124.2147
276.000000	69.270	123.7451
280.000000	69.217	123.2931
285.000000	69.157	122.8884
290.000000	69.105	122.6801
295.000000	69.068	122.5071
300.000000	69.055	122.2517
304.000000	69.044	122.0104
307.000000	69.032	121.7894
311.000000	69.017	121.4371
315.000000	69.008	121.0728
320.000000	68.998	120.6209
325.000000	68.985	120.1534
330.000000	68.972	119.7160
335.000000	68.963	119.3391
340.000000	68.951	118.9883
345.000000	68.939	118.6404
350.000000	68.929	118.3108
355.000000	68.925	118.0250
360.000000	68.924	117.7846
365.000000	68.922	117.5249
370.000000	68.921	117.1732
375.000000	68.927	116.7207
382.000000	68.951	116.0046
387.000000	68.973	115.5211
395.000000	68.999	114.8920
400.000000	69.006	114.5424
406.000000	69.022	114.0938
412.000000	69.050	113.5955
418.000000	69.082	113.0347
425.000000	69.117	112.3095
431.000000	69.141	111.6687
437.000000	69.159	111.0236
444.000000	69.182	110.2738
450.000000	69.212	109.6348
455.000000	69.239	109.1030
462.000000	69.272	108.3853
468.000000	69.298	107.8130
475.000000	69.330	107.2041
482.000000	69.360	106.6340
487.000000	69.379	106.1942
494.000000	69.408	105.4411
500.000000	69.438	104.6631
508.000000	69.490	103.5765
515.000000	69.538	102.7257
522.000000	69.578	102.0037
530.000000	69.605	101.2130
538.000000	69.622	100.3282
545.000000	69.640	99.4972
552.000000	69.664	98.6614
560.000000	69.694	97.7181
570.000000	69.719	96.5472
580.000000	69.739	95.3817
590.000000	69.764	94.2166
600.000000	69.781	93.0312
608.000000	69.787	92.1028
615.000000	69.789	91.3072
622.000000	69.787	90.5238
630.000000	69.783	89.6661
640.000000	69.777	88.6476
650.000000	69.770	87.6349
660.000000	69.760	86.6223
670.000000	69.752	85.6391
680.000000	69.749	84.6743
690.000000	69.746	83.7194
700.000000	69.740	82.8015
710.000000	69.733	81.9051
720.000000	69.724	81.0510
730.000000	69.708	80.3153
740.000000	69.683	79.6507
750.000000	69.653	78.9418
762.000000	69.612	78.0020
775.000000	69.569	76.9955
788.000000	69.535	76.1256
800.000000	69.504	75.4144
812.000000	69.475	74.7804
825.000000	69.452	74.1822
838.000000	69.438	73.5905
850.000000	69.425	73.0348
862.000000	69.409	72.5108
875.000000	69.398	71.9872
885.000000	69.400	71.6091
900.000000	69.412	71.1130
912.000000	69.424	70.7805
925.000000	69.442	70.4535
938.000000	69.466	70.1464
950.000000	69.488	69.8631
962.000000	69.508	69.5544
975.000000	69.531	69.1849
988.000000	69.562	68.8222
1000.000000	69.596	68.5258
1015.000000	69.637	68.1745
1030.000000	69.676	67.7885
1044.000000	69.718	67.3865
1060.000000	69.771	66.8713
1075.000000	69.821	66.3794
1090.000000	69.870	65.9153
1106.000000	69.919	65.4117
1120.000000	69.957	64.9524
1138.000000	70.008	64.3463
1150.000000	70.043	63.9454
1172.000000	70.112	63.2553
1180.000000	70.138	63.0202
1206.000000	70.234	62.2751
1220.000000	70.291	61.8713
1241.000000	70.381	61.2658
1250.000000	70.419	60.9994
1265.000000	70.481	60.5314
1280.000000	70.541	60.0490
1315.000000	70.694	59.0674
1320.000000	70.718	58.9448
1340.000000	70.816	58.4811
1360.000000	70.906	58.0507
1380.000000	70.990	57.6310
1400.000000	71.076	57.2180
1430.000000	71.204	56.6574
1450.000000	71.291	56.3204
1475.000000	71.407	55.9289
1500.000000	71.525	55.6015
1525.000000	71.642	55.3423
1550.000000	71.753	55.0646
1575.000000	71.854	54.7218
1600.000000	71.952	54.3491
1625.000000	72.060	54.0103
1650.000000	72.177	53.7474
1675.000000	72.305	53.5203
1700.000000	72.439	53.2781
1725.000000	72.577	53.0051
1750.000000	72.719	52.6943
1775.000000	72.862	52.3514
1800.000000	73.008	51.9931
1825.000000	73.158	51.6137
1850.000000	73.311	51.1881
1875.000000	73.462	50.6958
1900.000000	73.612	50.1357
1925.000000	73.764	49.5132
1950.000000	73.919	48.8257
1975.000000	74.073	48.0763
2000.000000	74.221	47.2713
2030.000000	74.390	46.2267
2060.000000	74.552	45.0856
2090.000000	74.706	43.8524
2120.000000	74.842	42.5225
2140.000000	74.920	41.5834
2180.000000	75.049	39.5869
2200.000000	75.102	38.5335
2240.000000	75.176	36.3589
2270.000000	75.202	34.7113
2300.000000	75.202	33.0760
2330.000000	75.176	31.4617
2360.000000	75.124	29.8880
2400.000000	75.014	27.9138
2430.000000	74.905	26.5641
2470.000000	74.730	24.9712
2500.000000	74.580	23.9500
2540.000000	74.361	22.8568
2580.000000	74.128	22.0767
2620.000000	73.895	21.5812
2650.000000	73.730	21.3613
2690.000000	73.525	21.2136
2720.000000	73.381	21.1819
2760.000000	73.202	21.2143
2800.000000	73.035	21.3054
2850.000000	72.838	21.4809
2900.000000	72.657	21.7034
2950.000000	72.491	21.9467
3000.000000	72.332	22.2535
3040.000000	72.206	22.5990
3070.000000	72.114	22.9220
3110.000000	71.995	23.4091
3150.000000	71.884	23.9338
3200.000000	71.762	24.6511
3250.000000	71.660	25.4437
3300.000000	71.572	26.2795
3350.000000	71.501	27.1279
3400.000000	71.452	27.9960
3450.000000	71.425	28.8748
3500.000000	71.420	29.7649
3550.000000	71.436	30.6492
3600.000000	71.469	31.4910
3650.000000	71.522	32.2523
3700.000000	71.596	32.8780
3750.000000	71.690	33.3570
3820.000000	71.839	33.7890
3870.000000	71.946	33.9438
3950.000000	72.108	33.9799
4000.000000	72.198	33.8450
4060.000000	72.289	33.5169
4120.000000	72.366	33.0975
4180.000000	72.435	32.6860
4250.000000	72.515	32.2661
4310.000000	72.591	31.9481
4370.000000	72.691	31.6467
4440.000000	72.842	31.2534
4500.000000	73.002	30.7841
4550.000000	73.158	30.2332
4620.000000	73.414	29.1434
4680.000000	73.665	27.8241
4750.000000	73.977	25.6560
4820.000000	74.275	22.6356
4870.000000	74.458	19.8884
4940.000000	74.642	15.1693
5000.000000	74.695	10.3503
5080.000000	74.543	3.1395
5150.000000	74.138	-3.2361
5220.000000	73.459	-8.7084
5300.000000	72.398	-12.6769
5380.000000	71.179	-13.5339
5450.000000	70.152	-11.9874
5520.000000	69.308	-9.1099
5600.000000	68.656	-5.3115
5700.000000	68.253	-0.9935
5800.000000	68.122	2.3053
5900.000000	68.085	4.5770
6000.000000	68.045	6.2301
6080.000000	68.002	7.5394
6150.000000	68.000	8.8748
6220.000000	68.073	10.2574
6300.000000	68.254	11.5371
6400.000000	68.558	12.4189
6500.000000	68.872	12.5850
6600.000000	69.173	12.1188
6700.000000	69.467	10.9781
6800.000000	69.751	9.1248
6900.000000	70.006	6.6118
7000.000000	70.201	3.6206
7100.000000	70.303	0.3843
7200.000000	70.291	-2.8961
7300.000000	70.161	-6.0156
7400.000000	69.927	-8.7089
7500.000000	69.619	-10.7272
7620.000000	69.204	-12.1186
7750.000000	68.751	-12.4843
7880.000000	68.321	-11.9888
8000.000000	67.963	-11.0163
8120.000000	67.665	-9.6742
8250.000000	67.418	-8.0124
8380.000000	67.244	-6.2742
8500.000000	67.139	-4.5566
8620.000000	67.085	-2.7226
8750.000000	67.091	-0.7089
8850.000000	67.154	0.7648
9000.000000	67.369	2.6436
9120.000000	67.641	3.6190
9250.000000	67.993	3.8374
9380.000000	68.341	2.9361
9500.000000	68.596	1.0360
9620.000000	68.725	-1.6935
9750.000000	68.672	-5.0131
9880.000000	68.412	-7.9312
10000.000000	68.028	-9.6964
10150.000000	67.467	-10.3069
10300.000000	66.977	-9.3867
10440.000000	66.701	-7.8286
10600.000000	66.631	-6.2422
10750.000000	66.739	-5.8000
10900.000000	66.891	-6.9103
11060.000000	66.946	-9.8679
11200.000000	66.795	-13.4890
11380.000000	66.249	-18.2784
11500.000000	65.666	-20.7424
11720.000000	64.248	-22.2902
11800.000000	63.662	-21.7538
12060.000000	61.733	-16.4062
12200.000000	60.786	-11.7373
12410.000000	59.630	-3.0811
12500.000000	59.261	1.0975
12650.000000	58.837	8.5101
12800.000000	58.671	16.2670
13150.000000	59.364	33.7566
13200.000000	59.586	35.9853
13400.000000	60.747	43.7644
13600.000000	62.240	49.1762
13800.000000	63.859	51.2822
14000.000000	65.354	49.2202
14300.000000	66.849	38.5554
14500.000000	67.138	28.8076
14750.000000	66.747	18.1018
15000.000000	65.848	11.8149
15250.000000	64.857	9.9310
15500.000000	64.089	11.0386
15750.000000	63.717	13.8465
16000.000000	63.877	17.5224
16250.000000	64.766	21.2403
16500.000000	66.417	23.3242
16750.000000	68.429	20.8083
17000.000000	70.204	10.7854
17250.000000	71.262	-7.1699
17500.000000	71.349	-29.5292
17750.000000	70.496	-50.9255
18000.000000	68.947	-68.3618
18250.000000	67.001	-82.5028
18500.000000	64.880	-96.6970
18750.000000	62.668	-117.7639
19000.000000	60.367	-160.3804
19250.000000	58.001	108.9425
19500.000000	55.672	-54.9659
19750.000000	53.626	90.4000
