* Measurement data measured by REW V5.20.13
* Source: Microfone (6- USB Sound Device        ), MICROPHONE (Volume geral), R, volume: 0,250
* Format: 256k Log Swept Sine, 1 sweep at -12,0 dBFS with no timing reference
* Dated: 26/jun/2023 20:55:26
* REW Settings:
*  C-weighting compensation: Off
*  Target level: 75.0 dB
* Note: ; 
* Measurement: 7th Acoustic Supernova R
* Smoothing: 1/12 octave
* Frequency Step: 1/48 octave
* Start Frequency: 20.300 Hz
*
* Freq(Hz)	SPL(dB)	Phase(degrees)
20.299999	64.666	161.2106
20.600000	64.572	161.8305
20.900000	64.354	163.0336
21.200001	64.160	163.9787
21.400000	64.069	164.2460
21.799999	63.973	163.8267
22.000000	63.961	163.2077
22.400000	63.977	161.5875
22.700001	64.012	160.4980
23.000000	64.058	159.8477
23.299999	64.110	159.7000
23.600000	64.156	159.9782
24.000000	64.191	160.7715
24.299999	64.191	161.4542
24.700001	64.158	162.2224
25.000000	64.121	162.5603
25.400000	64.075	162.6129
25.799999	64.049	162.2513
26.200001	64.051	161.6109
26.500000	64.064	161.0313
26.900000	64.080	160.1860
27.200001	64.071	159.5215
27.600000	64.009	158.6426
28.000000	63.882	157.8853
28.500000	63.675	157.2857
29.000000	63.523	157.0108
29.500000	63.502	156.6826
30.000000	63.578	155.9843
30.400000	63.641	155.2482
30.700001	63.667	154.7354
31.100000	63.666	154.2532
31.500000	63.638	154.0029
32.000000	63.586	153.7929
32.500000	63.521	153.4110
33.000000	63.445	152.8079
33.500000	63.377	152.1548
34.000000	63.351	151.5909
34.500000	63.371	151.1145
35.000000	63.406	150.7124
35.500000	63.420	150.4676
36.000000	63.404	150.4647
36.500000	63.377	150.6361
37.000000	63.356	150.7626
37.500000	63.339	150.6851
38.200001	63.303	150.3691
38.700001	63.275	150.2476
39.500000	63.269	150.3343
40.000000	63.279	150.3878
40.599998	63.276	150.4078
41.200001	63.271	150.4662
41.799999	63.303	150.3636
42.500000	63.363	149.4769
43.099998	63.337	148.0145
43.700001	63.195	146.5049
44.400002	62.957	145.3555
45.000000	62.795	144.8864
45.500000	62.718	144.6258
46.200001	62.668	144.2949
46.799999	62.647	144.0421
47.500000	62.638	143.6696
48.200001	62.638	142.9734
48.700001	62.632	142.2560
49.400002	62.606	141.1815
50.000000	62.570	140.4939
50.799999	62.523	140.1442
51.500000	62.493	140.1877
52.200001	62.465	140.2065
53.000000	62.417	139.9522
53.799999	62.353	139.4498
54.500000	62.293	138.9746
55.200001	62.240	138.5916
56.000000	62.193	138.2725
57.000000	62.151	137.8988
58.000000	62.113	137.4654
59.000000	62.074	136.9549
60.000000	62.032	136.3517
60.799999	61.996	135.8673
61.500000	61.967	135.4886
62.200001	61.943	135.1229
63.000000	61.921	134.6010
64.000000	61.898	133.6568
65.000000	61.882	132.5483
66.000000	61.859	131.6963
67.000000	61.799	131.4056
68.000000	61.706	131.5221
69.000000	61.612	131.6159
70.000000	61.540	131.4675
71.000000	61.479	131.1133
72.000000	61.413	130.6296
73.000000	61.342	130.0409
74.000000	61.271	129.4004
75.000000	61.208	128.7952
76.199997	61.151	128.1174
77.500000	61.107	127.3978
78.800003	61.060	126.7982
80.000000	60.999	126.4310
81.199997	60.932	126.1281
82.500000	60.873	125.6718
83.800003	60.820	125.0978
85.000000	60.768	124.6360
86.199997	60.718	124.2855
87.500000	60.677	123.9453
88.500000	60.650	123.6774
90.000000	60.603	123.2611
91.199997	60.553	122.9320
92.500000	60.490	122.5903
93.800003	60.423	122.2187
95.000000	60.362	121.7945
96.199997	60.307	121.3019
97.500000	60.255	120.7611
98.800003	60.208	120.2328
100.000000	60.166	119.7287
101.500000	60.111	119.0972
103.000000	60.050	118.5877
104.400002	59.993	118.2445
106.000000	59.930	117.8767
107.500000	59.873	117.4976
109.000000	59.822	117.0669
110.599998	59.769	116.5354
112.000000	59.720	116.0505
113.800003	59.656	115.4889
115.000000	59.620	115.1522
117.199997	59.562	114.5125
118.000000	59.536	114.2538
120.599998	59.431	113.3456
122.000000	59.372	112.9140
124.099998	59.294	112.4100
125.000000	59.265	112.2118
126.500000	59.213	111.8512
128.000000	59.154	111.4350
131.500000	58.996	110.3852
132.000000	58.974	110.2270
134.000000	58.894	109.5810
136.000000	58.833	109.0288
138.000000	58.803	108.6397
140.000000	58.778	108.3308
143.000000	58.707	107.8077
145.000000	58.655	107.4017
147.500000	58.606	106.9074
150.000000	58.570	106.4367
152.500000	58.527	105.9754
155.000000	58.456	105.5189
157.500000	58.367	105.1214
160.000000	58.282	104.7288
162.500000	58.216	104.2904
165.000000	58.158	103.7885
167.500000	58.092	103.2326
170.000000	58.030	102.6272
172.500000	57.992	101.8922
175.000000	57.966	101.1181
177.500000	57.926	100.6051
180.000000	57.860	100.3389
182.500000	57.776	100.0566
185.000000	57.700	99.6914
187.500000	57.645	99.3460
190.000000	57.600	99.0513
192.500000	57.551	98.7873
195.000000	57.496	98.5853
197.500000	57.444	98.4551
200.000000	57.403	98.3541
203.000000	57.359	98.1822
206.000000	57.306	97.8557
209.000000	57.241	97.3997
212.000000	57.175	96.9061
214.000000	57.138	96.5828
218.000000	57.072	96.0016
220.000000	57.042	95.7623
224.000000	56.983	95.3617
227.000000	56.936	95.0336
230.000000	56.893	94.6609
233.000000	56.858	94.3218
236.000000	56.831	94.0843
240.000000	56.794	93.8515
243.000000	56.751	93.6158
247.000000	56.685	93.1536
250.000000	56.643	92.7865
254.000000	56.595	92.3729
258.000000	56.545	92.0093
262.000000	56.499	91.6570
265.000000	56.468	91.4258
269.000000	56.430	91.2275
272.000000	56.402	91.1674
276.000000	56.357	91.1329
280.000000	56.297	91.0490
285.000000	56.209	90.8418
290.000000	56.123	90.6335
295.000000	56.064	90.5396
300.000000	56.021	90.5825
304.000000	56.002	90.7058
307.000000	56.000	90.8225
311.000000	56.011	90.9743
315.000000	56.026	91.0756
320.000000	56.042	90.9829
325.000000	56.056	90.5141
330.000000	56.060	89.8746
335.000000	56.041	89.3483
340.000000	56.005	88.9619
345.000000	55.972	88.6959
350.000000	55.945	88.5243
355.000000	55.915	88.3798
360.000000	55.878	88.2533
365.000000	55.838	88.1689
370.000000	55.805	88.1049
375.000000	55.777	88.0243
382.000000	55.745	87.9385
387.000000	55.724	87.9109
395.000000	55.672	87.8773
400.000000	55.633	87.8796
406.000000	55.603	87.9202
412.000000	55.587	88.0013
418.000000	55.568	88.1072
425.000000	55.530	88.2581
431.000000	55.489	88.3416
437.000000	55.449	88.3429
444.000000	55.410	88.3250
450.000000	55.385	88.3633
455.000000	55.367	88.4615
462.000000	55.347	88.6485
468.000000	55.336	88.7631
475.000000	55.327	88.8459
482.000000	55.304	88.9717
487.000000	55.281	89.1138
494.000000	55.254	89.3641
500.000000	55.234	89.6078
508.000000	55.205	89.9629
515.000000	55.180	90.2308
522.000000	55.163	90.4254
530.000000	55.152	90.6071
538.000000	55.140	90.8275
545.000000	55.122	91.0838
552.000000	55.105	91.3799
560.000000	55.099	91.7374
570.000000	55.096	92.1870
580.000000	55.080	92.5986
590.000000	55.054	92.9765
600.000000	55.028	93.4560
608.000000	55.004	93.9880
615.000000	54.983	94.4720
622.000000	54.966	94.8751
630.000000	54.958	95.2596
640.000000	54.954	95.8003
650.000000	54.945	96.4472
660.000000	54.932	97.1336
670.000000	54.922	97.8216
680.000000	54.925	98.4949
690.000000	54.943	99.1015
700.000000	54.957	99.6676
710.000000	54.959	100.3193
720.000000	54.956	101.0863
730.000000	54.955	101.8792
740.000000	54.962	102.6349
750.000000	54.985	103.3822
762.000000	55.033	104.3319
775.000000	55.087	105.4310
788.000000	55.127	106.5031
800.000000	55.169	107.4531
812.000000	55.228	108.4374
825.000000	55.291	109.5126
838.000000	55.340	110.5223
850.000000	55.385	111.4253
862.000000	55.439	112.3096
875.000000	55.509	113.2145
885.000000	55.567	113.8733
900.000000	55.652	114.8920
912.000000	55.723	115.7409
925.000000	55.806	116.6255
938.000000	55.893	117.4758
950.000000	55.977	118.2262
962.000000	56.066	118.9299
975.000000	56.167	119.6673
988.000000	56.269	120.4022
1000.000000	56.368	121.0725
1015.000000	56.497	121.8943
1030.000000	56.627	122.7340
1044.000000	56.758	123.5029
1060.000000	56.915	124.2962
1075.000000	57.058	124.9623
1090.000000	57.192	125.5870
1106.000000	57.332	126.2221
1120.000000	57.450	126.7354
1138.000000	57.588	127.3258
1150.000000	57.671	127.6936
1172.000000	57.824	128.3934
1180.000000	57.883	128.6633
1206.000000	58.076	129.4907
1220.000000	58.175	129.8824
1241.000000	58.318	130.4450
1250.000000	58.376	130.6736
1265.000000	58.469	131.0324
1280.000000	58.557	131.3781
1315.000000	58.765	132.2486
1320.000000	58.795	132.3740
1340.000000	58.912	132.8438
1360.000000	59.019	133.2812
1380.000000	59.115	133.7241
1400.000000	59.213	134.1820
1430.000000	59.374	134.8776
1450.000000	59.481	135.3615
1475.000000	59.607	135.9689
1500.000000	59.727	136.5452
1525.000000	59.846	137.1378
1550.000000	59.964	137.7171
1575.000000	60.088	138.2383
1600.000000	60.217	138.7364
1625.000000	60.348	139.2284
1650.000000	60.479	139.6982
1675.000000	60.613	140.1507
1700.000000	60.745	140.5919
1725.000000	60.870	141.0170
1750.000000	60.993	141.3991
1775.000000	61.115	141.7340
1800.000000	61.240	142.0495
1825.000000	61.371	142.3447
1850.000000	61.504	142.5937
1875.000000	61.633	142.7909
1900.000000	61.755	142.9598
1925.000000	61.871	143.1152
1950.000000	61.985	143.2544
1975.000000	62.098	143.3703
2000.000000	62.209	143.4421
2030.000000	62.338	143.4441
2060.000000	62.465	143.3688
2090.000000	62.587	143.2328
2120.000000	62.699	143.0580
2140.000000	62.766	142.9336
2180.000000	62.887	142.6688
2200.000000	62.942	142.5144
2240.000000	63.043	142.1437
2270.000000	63.110	141.8419
2300.000000	63.165	141.5468
2330.000000	63.209	141.2564
2360.000000	63.242	140.9527
2400.000000	63.273	140.5195
2430.000000	63.290	140.2000
2470.000000	63.299	139.7991
2500.000000	63.298	139.5145
2540.000000	63.288	139.1762
2580.000000	63.263	138.9007
2620.000000	63.223	138.6661
2650.000000	63.186	138.5137
2690.000000	63.131	138.3598
2720.000000	63.088	138.2837
2760.000000	63.028	138.2192
2800.000000	62.961	138.1945
2850.000000	62.868	138.2372
2900.000000	62.770	138.3359
2950.000000	62.668	138.4960
3000.000000	62.565	138.6979
3040.000000	62.480	138.8845
3070.000000	62.414	139.0672
3110.000000	62.325	139.3830
3150.000000	62.236	139.7619
3200.000000	62.127	140.3135
3250.000000	62.021	140.9720
3300.000000	61.925	141.7263
3350.000000	61.846	142.5382
3400.000000	61.782	143.3815
3450.000000	61.733	144.2384
3500.000000	61.699	145.0745
3550.000000	61.679	145.8574
3600.000000	61.664	146.5563
3650.000000	61.651	147.1619
3700.000000	61.639	147.7026
3750.000000	61.629	148.2060
3820.000000	61.615	148.8754
3870.000000	61.607	149.3345
3950.000000	61.600	150.0294
4000.000000	61.595	150.4243
4060.000000	61.582	150.8423
4120.000000	61.563	151.2004
4180.000000	61.541	151.5250
4250.000000	61.515	151.8896
4310.000000	61.486	152.1799
4370.000000	61.441	152.4380
4440.000000	61.377	152.7050
4500.000000	61.316	152.9384
4550.000000	61.262	153.1738
4620.000000	61.184	153.6007
4680.000000	61.116	154.0284
4750.000000	61.036	154.5565
4820.000000	60.962	155.0890
4870.000000	60.914	155.4503
4940.000000	60.852	155.9187
5000.000000	60.799	156.2894
5080.000000	60.726	156.7519
5150.000000	60.662	157.1572
5220.000000	60.599	157.5936
5300.000000	60.519	158.1161
5380.000000	60.430	158.6401
5450.000000	60.351	159.1058
5520.000000	60.272	159.5876
5600.000000	60.179	160.1765
5700.000000	60.053	160.9990
5800.000000	59.919	161.9841
5900.000000	59.798	163.1005
6000.000000	59.704	164.1840
6080.000000	59.649	165.0029
6150.000000	59.610	165.7016
6220.000000	59.576	166.3986
6300.000000	59.542	167.2038
6400.000000	59.509	168.2118
6500.000000	59.483	169.1901
6600.000000	59.466	170.1034
6700.000000	59.462	170.8847
6800.000000	59.468	171.4736
6900.000000	59.480	171.8292
7000.000000	59.493	171.9430
7100.000000	59.491	171.8182
7200.000000	59.458	171.4295
7300.000000	59.376	170.7689
7400.000000	59.218	169.9327
7500.000000	58.958	169.1623
7620.000000	58.486	168.8229
7750.000000	57.795	170.0060
7880.000000	57.055	173.6744
8000.000000	56.559	179.3795
8120.000000	56.506	-173.5774
8250.000000	57.074	-166.3275
8380.000000	58.073	-161.5754
8500.000000	59.041	-160.4637
8620.000000	59.822	-162.3365
8750.000000	60.338	-166.5870
8850.000000	60.489	-170.4609
9000.000000	60.370	-175.8325
9120.000000	60.056	-179.0669
9250.000000	59.590	178.7176
9380.000000	59.077	177.7410
9500.000000	58.617	177.7209
9620.000000	58.197	178.3230
9750.000000	57.800	179.4681
9880.000000	57.469	-179.0282
10000.000000	57.224	-177.4341
10150.000000	56.988	-175.3378
10300.000000	56.808	-173.2806
10440.000000	56.675	-171.4217
10600.000000	56.558	-169.3143
10750.000000	56.476	-167.3496
10900.000000	56.415	-165.4033
11060.000000	56.376	-163.3159
11200.000000	56.371	-161.4737
11380.000000	56.412	-159.1252
11500.000000	56.476	-157.5974
11720.000000	56.682	-155.0764
11800.000000	56.785	-154.3307
12060.000000	57.180	-152.7764
12200.000000	57.398	-152.5975
12410.000000	57.674	-153.2246
12500.000000	57.764	-153.7708
12650.000000	57.864	-154.9676
12800.000000	57.900	-156.4161
13150.000000	57.727	-159.9099
13200.000000	57.676	-160.3538
13400.000000	57.421	-161.9145
13600.000000	57.109	-163.1803
13800.000000	56.766	-164.3080
14000.000000	56.395	-165.3858
14300.000000	55.707	-166.4440
14500.000000	55.139	-165.9928
14750.000000	54.477	-163.6967
15000.000000	54.099	-160.5338
15250.000000	54.038	-157.9768
15500.000000	54.165	-156.7682
15750.000000	54.318	-157.0652
16000.000000	54.375	-158.5830
16250.000000	54.283	-160.6904
16500.000000	54.055	-162.5903
16750.000000	53.753	-163.6363
17000.000000	53.479	-163.6169
17250.000000	53.351	-162.7904
17500.000000	53.465	-161.7776
17750.000000	53.827	-161.3309
18000.000000	54.372	-162.0790
18250.000000	55.045	-164.4181
18500.000000	55.787	-168.6969
18750.000000	56.504	-175.4545
19000.000000	57.065	174.8623
19250.000000	57.344	162.5318
19500.000000	57.284	149.0577
19750.000000	56.974	137.1767
