* Measurement data measured by REW V5.20.13
* Source: Microfone (6- USB Sound Device        ), MICROPHONE (Volume geral), R, volume: 0,250
* Format: 256k Log Swept Sine, 1 sweep at -12,0 dBFS with no timing reference
* Dated: 19/jul/2023 21:10:51
* REW Settings:
*  C-weighting compensation: Off
*  Target level: 75.0 dB
* Note: ; 
* Measurement: DUNU Falcon Ultra Blue R
* Smoothing: 1/12 octave
* Frequency Step: 1/48 octave
* Start Frequency: 20.300 Hz
*
* Freq(Hz)	SPL(dB)	Phase(degrees)
20.299999	66.063	-148.9191
20.600000	66.055	-149.4942
20.900000	66.045	-150.7218
21.200001	66.054	-152.0981
21.400000	66.074	-153.0058
21.799999	66.144	-154.6442
22.000000	66.189	-155.3000
22.400000	66.288	-156.1750
22.700001	66.364	-156.4370
23.000000	66.436	-156.4212
23.299999	66.498	-156.2494
23.600000	66.547	-156.0455
24.000000	66.581	-155.8985
24.299999	66.579	-155.9603
24.700001	66.543	-156.2700
25.000000	66.504	-156.6151
25.400000	66.459	-157.1326
25.799999	66.454	-157.6529
26.200001	66.502	-158.1908
26.500000	66.568	-158.6420
26.900000	66.674	-159.3387
27.200001	66.749	-159.9229
27.600000	66.824	-160.7318
28.000000	66.864	-161.4970
28.500000	66.873	-162.3240
29.000000	66.860	-163.0293
29.500000	66.840	-163.6707
30.000000	66.819	-164.2674
30.400000	66.810	-164.7112
30.700001	66.811	-165.0349
31.100000	66.826	-165.4860
31.500000	66.854	-165.9852
32.000000	66.896	-166.6670
32.500000	66.935	-167.3304
33.000000	66.958	-167.8733
33.500000	66.960	-168.2588
34.000000	66.942	-168.5249
34.500000	66.918	-168.7776
35.000000	66.908	-169.1718
35.500000	66.921	-169.8682
36.000000	66.933	-170.8749
36.500000	66.908	-171.9500
37.000000	66.825	-172.6815
37.500000	66.710	-172.8301
38.200001	66.611	-172.5169
38.700001	66.633	-172.7043
39.500000	66.742	-174.6588
40.000000	66.779	-176.4114
40.599998	66.772	-178.0294
41.200001	66.743	-178.5454
41.799999	66.719	-178.2111
42.500000	66.699	-177.5535
43.099998	66.690	-177.2396
43.700001	66.708	-177.2751
44.400002	66.759	-177.6492
45.000000	66.786	-178.0250
45.500000	66.773	-178.2356
46.200001	66.703	-178.4041
46.799999	66.622	-178.6231
47.500000	66.537	-179.1104
48.200001	66.481	-179.7126
48.700001	66.458	179.9044
49.400002	66.431	179.4911
50.000000	66.398	179.2040
50.799999	66.339	178.7988
51.500000	66.286	178.3897
52.200001	66.238	178.0219
53.000000	66.187	177.7508
53.799999	66.134	177.5082
54.500000	66.078	177.1651
55.200001	66.015	176.7435
56.000000	65.956	176.3382
57.000000	65.917	176.0300
58.000000	65.878	175.8644
59.000000	65.829	175.6890
60.000000	65.794	175.2892
60.799999	65.776	174.8700
61.500000	65.763	174.6047
62.200001	65.750	174.5242
63.000000	65.730	174.5727
64.000000	65.672	174.5580
65.000000	65.565	174.3648
66.000000	65.450	174.1310
67.000000	65.367	173.9312
68.000000	65.311	173.7688
69.000000	65.269	173.6233
70.000000	65.236	173.4169
71.000000	65.204	173.1068
72.000000	65.160	172.8294
73.000000	65.110	172.7280
74.000000	65.063	172.7526
75.000000	65.026	172.7490
76.199997	65.006	172.6049
77.500000	65.012	172.3739
78.800003	65.005	172.2782
80.000000	64.962	172.3226
81.199997	64.905	172.3388
82.500000	64.869	172.1591
83.800003	64.872	171.8360
85.000000	64.896	171.5850
86.199997	64.910	171.2630
87.500000	64.906	170.6367
88.500000	64.917	170.0815
90.000000	64.940	169.5509
91.199997	64.904	169.4285
92.500000	64.808	169.2861
93.800003	64.706	169.0303
95.000000	64.624	168.8673
96.199997	64.550	168.8388
97.500000	64.477	168.8345
98.800003	64.407	168.7591
100.000000	64.338	168.6364
101.500000	64.241	168.4849
103.000000	64.140	168.4534
104.400002	64.053	168.5796
106.000000	63.962	168.7961
107.500000	63.875	168.8539
109.000000	63.790	168.6781
110.599998	63.713	168.3630
112.000000	63.657	168.1461
113.800003	63.593	168.1187
115.000000	63.545	168.2394
117.199997	63.419	168.4607
118.000000	63.367	168.4816
120.599998	63.225	168.3297
122.000000	63.157	168.1781
124.099998	63.038	167.9311
125.000000	62.982	167.8456
126.500000	62.900	167.7961
128.000000	62.839	167.9218
131.500000	62.738	168.4821
132.000000	62.724	168.5374
134.000000	62.668	168.6862
136.000000	62.618	168.7499
138.000000	62.581	168.6783
140.000000	62.572	168.4678
143.000000	62.589	168.3753
145.000000	62.510	168.8494
147.500000	62.316	169.6396
150.000000	62.151	170.0546
152.500000	62.054	170.1942
155.000000	61.992	170.3627
157.500000	61.929	170.6281
160.000000	61.851	170.8830
162.500000	61.758	171.0797
165.000000	61.664	171.2719
167.500000	61.580	171.5254
170.000000	61.500	171.8451
172.500000	61.421	172.1745
175.000000	61.350	172.4680
177.500000	61.288	172.7310
180.000000	61.219	173.0046
182.500000	61.136	173.3279
185.000000	61.056	173.6985
187.500000	60.992	174.0898
190.000000	60.942	174.4549
192.500000	60.899	174.7571
195.000000	60.855	175.0242
197.500000	60.807	175.2926
200.000000	60.752	175.5541
203.000000	60.679	175.8809
206.000000	60.600	176.2740
209.000000	60.521	176.7197
212.000000	60.443	177.1592
214.000000	60.392	177.4356
218.000000	60.292	177.9969
220.000000	60.246	178.3062
224.000000	60.160	178.9494
227.000000	60.102	179.3938
230.000000	60.045	179.8138
233.000000	59.984	-179.7692
236.000000	59.918	-179.3861
240.000000	59.821	-178.9361
243.000000	59.748	-178.5675
247.000000	59.666	-178.0108
250.000000	59.621	-177.6029
254.000000	59.570	-177.0890
258.000000	59.511	-176.5635
262.000000	59.449	-175.9577
265.000000	59.405	-175.4845
269.000000	59.339	-174.8951
272.000000	59.285	-174.4534
276.000000	59.218	-173.8385
280.000000	59.166	-173.2588
285.000000	59.107	-172.6299
290.000000	59.039	-171.9724
295.000000	58.967	-171.1874
300.000000	58.885	-170.3809
304.000000	58.817	-169.8055
307.000000	58.771	-169.4199
311.000000	58.722	-168.9300
315.000000	58.686	-168.4081
320.000000	58.648	-167.6551
325.000000	58.601	-166.8030
330.000000	58.544	-165.9343
335.000000	58.478	-165.1422
340.000000	58.408	-164.4263
345.000000	58.344	-163.7627
350.000000	58.289	-163.1025
355.000000	58.241	-162.3743
360.000000	58.193	-161.5903
365.000000	58.148	-160.8023
370.000000	58.110	-160.0368
375.000000	58.076	-159.3125
382.000000	58.030	-158.3438
387.000000	57.994	-157.6382
395.000000	57.928	-156.4872
400.000000	57.883	-155.7956
406.000000	57.833	-154.9720
412.000000	57.791	-154.0992
418.000000	57.752	-153.2293
425.000000	57.707	-152.2575
431.000000	57.668	-151.3866
437.000000	57.627	-150.4618
444.000000	57.584	-149.3797
450.000000	57.552	-148.5361
455.000000	57.522	-147.8951
462.000000	57.478	-147.0042
468.000000	57.447	-146.1673
475.000000	57.420	-145.1036
482.000000	57.387	-144.0167
487.000000	57.356	-143.2752
494.000000	57.315	-142.3036
500.000000	57.290	-141.4943
508.000000	57.267	-140.3972
515.000000	57.245	-139.4586
522.000000	57.217	-138.5918
530.000000	57.184	-137.6372
538.000000	57.164	-136.6042
545.000000	57.153	-135.6019
552.000000	57.139	-134.5583
560.000000	57.115	-133.3872
570.000000	57.089	-131.9782
580.000000	57.068	-130.6279
590.000000	57.044	-129.3654
600.000000	57.034	-128.1561
608.000000	57.032	-127.1482
615.000000	57.027	-126.2131
622.000000	57.018	-125.2437
630.000000	57.003	-124.1300
640.000000	56.980	-122.7482
650.000000	56.963	-121.4128
660.000000	56.961	-120.1618
670.000000	56.960	-118.9492
680.000000	56.948	-117.7189
690.000000	56.933	-116.3970
700.000000	56.929	-114.9852
710.000000	56.939	-113.5627
720.000000	56.953	-112.1879
730.000000	56.967	-110.8665
740.000000	56.984	-109.5803
750.000000	57.008	-108.3140
762.000000	57.042	-106.8169
775.000000	57.067	-105.1808
788.000000	57.081	-103.5401
800.000000	57.106	-102.0776
812.000000	57.151	-100.6513
825.000000	57.217	-99.0880
838.000000	57.285	-97.5255
850.000000	57.339	-96.1229
862.000000	57.388	-94.7438
875.000000	57.445	-93.2454
885.000000	57.497	-92.0853
900.000000	57.582	-90.3662
912.000000	57.650	-89.0410
925.000000	57.725	-87.6531
938.000000	57.807	-86.2886
950.000000	57.885	-85.0280
962.000000	57.970	-83.7518
975.000000	58.073	-82.3593
988.000000	58.186	-80.9973
1000.000000	58.287	-79.7938
1015.000000	58.398	-78.3641
1030.000000	58.502	-77.0139
1044.000000	58.604	-75.8281
1060.000000	58.728	-74.5060
1075.000000	58.847	-73.2433
1090.000000	58.967	-72.0236
1106.000000	59.092	-70.8496
1120.000000	59.198	-69.9146
1138.000000	59.333	-68.7758
1150.000000	59.423	-68.0254
1172.000000	59.589	-66.6487
1180.000000	59.649	-66.1596
1206.000000	59.835	-64.6574
1220.000000	59.928	-63.8989
1241.000000	60.059	-62.8189
1250.000000	60.112	-62.3714
1265.000000	60.199	-61.6348
1280.000000	60.282	-60.9004
1315.000000	60.457	-59.0893
1320.000000	60.480	-58.8165
1340.000000	60.569	-57.7171
1360.000000	60.657	-56.6656
1380.000000	60.747	-55.6995
1400.000000	60.834	-54.7700
1430.000000	60.946	-53.3395
1450.000000	61.013	-52.3296
1475.000000	61.109	-50.9919
1500.000000	61.219	-49.6120
1525.000000	61.334	-48.2016
1550.000000	61.450	-46.8218
1575.000000	61.572	-45.4979
1600.000000	61.703	-44.1987
1625.000000	61.836	-42.9455
1650.000000	61.967	-41.7619
1675.000000	62.095	-40.6160
1700.000000	62.223	-39.4806
1725.000000	62.350	-38.3730
1750.000000	62.482	-37.3239
1775.000000	62.617	-36.3281
1800.000000	62.753	-35.3569
1825.000000	62.890	-34.3930
1850.000000	63.028	-33.4439
1875.000000	63.163	-32.5424
1900.000000	63.295	-31.7039
1925.000000	63.425	-30.9131
1950.000000	63.556	-30.1547
1975.000000	63.687	-29.4235
2000.000000	63.815	-28.7157
2030.000000	63.961	-27.8965
2060.000000	64.104	-27.1192
2090.000000	64.246	-26.3808
2120.000000	64.387	-25.6789
2140.000000	64.478	-25.2326
2180.000000	64.652	-24.3888
2200.000000	64.735	-23.9900
2240.000000	64.889	-23.2306
2270.000000	64.997	-22.6845
2300.000000	65.099	-22.1571
2330.000000	65.197	-21.6396
2360.000000	65.296	-21.1143
2400.000000	65.426	-20.4090
2430.000000	65.522	-19.8974
2470.000000	65.639	-19.2454
2500.000000	65.716	-18.7540
2540.000000	65.809	-18.0271
2580.000000	65.902	-17.1522
2620.000000	66.009	-16.1466
2650.000000	66.109	-15.3687
2690.000000	66.268	-14.3879
2720.000000	66.406	-13.7395
2760.000000	66.606	-13.0408
2800.000000	66.815	-12.5630
2850.000000	67.077	-12.3027
2900.000000	67.319	-12.4225
2950.000000	67.518	-12.8495
3000.000000	67.665	-13.4436
3040.000000	67.746	-13.9333
3070.000000	67.786	-14.2713
3110.000000	67.817	-14.6621
3150.000000	67.828	-14.9735
3200.000000	67.825	-15.2323
3250.000000	67.810	-15.3413
3300.000000	67.792	-15.3143
3350.000000	67.779	-15.1791
3400.000000	67.776	-14.9839
3450.000000	67.784	-14.7842
3500.000000	67.796	-14.6350
3550.000000	67.807	-14.5551
3600.000000	67.812	-14.5346
3650.000000	67.809	-14.5484
3700.000000	67.792	-14.5600
3750.000000	67.761	-14.5299
3820.000000	67.700	-14.3579
3870.000000	67.656	-14.1190
3950.000000	67.605	-13.5702
4000.000000	67.590	-13.2094
4060.000000	67.588	-12.8560
4120.000000	67.598	-12.6428
4180.000000	67.610	-12.5908
4250.000000	67.612	-12.7220
4310.000000	67.595	-12.9662
4370.000000	67.558	-13.2894
4440.000000	67.491	-13.7372
4500.000000	67.413	-14.1626
4550.000000	67.333	-14.5203
4620.000000	67.196	-14.9969
4680.000000	67.054	-15.3729
4750.000000	66.861	-15.7545
4820.000000	66.639	-16.0441
4870.000000	66.463	-16.1770
4940.000000	66.196	-16.2277
5000.000000	65.954	-16.1180
5080.000000	65.621	-15.7210
5150.000000	65.322	-15.1452
5220.000000	65.023	-14.3866
5300.000000	64.686	-13.3100
5380.000000	64.356	-12.0119
5450.000000	64.077	-10.7039
5520.000000	63.808	-9.2368
5600.000000	63.520	-7.3739
5700.000000	63.203	-4.8553
5800.000000	62.931	-2.2441
5900.000000	62.685	0.4518
6000.000000	62.467	3.2727
6080.000000	62.318	5.6035
6150.000000	62.210	7.6839
6220.000000	62.121	9.8032
6300.000000	62.048	12.2636
6400.000000	61.998	15.3578
6500.000000	61.992	18.4247
6600.000000	62.030	21.3979
6700.000000	62.120	24.2392
6800.000000	62.267	26.9606
6900.000000	62.473	29.5506
7000.000000	62.737	31.9524
7100.000000	63.061	34.0797
7200.000000	63.449	35.8304
7300.000000	63.900	37.0812
7400.000000	64.408	37.6930
7500.000000	64.955	37.5103
7620.000000	65.618	36.0024
7750.000000	66.259	32.5386
7880.000000	66.712	27.1913
8000.000000	66.881	21.0128
8120.000000	66.767	14.3814
8250.000000	66.331	7.6363
8380.000000	65.622	2.1613
8500.000000	64.799	-1.3995
8620.000000	63.890	-3.5015
8750.000000	62.884	-4.3011
8850.000000	62.136	-4.0349
9000.000000	61.098	-2.5071
9120.000000	60.363	-0.5528
9250.000000	59.674	2.0556
9380.000000	59.096	4.9973
9500.000000	58.658	7.9129
9620.000000	58.316	10.9285
9750.000000	58.046	14.2042
9880.000000	57.871	17.4249
10000.000000	57.792	20.3130
10150.000000	57.817	23.7384
10300.000000	57.989	26.8478
10440.000000	58.289	29.3156
10600.000000	58.794	31.3487
10750.000000	59.410	32.1090
10900.000000	60.125	31.2965
11060.000000	60.906	28.1809
11200.000000	61.488	23.2467
11380.000000	61.919	13.9969
11500.000000	61.928	6.5934
11720.000000	61.279	-6.9965
11800.000000	60.842	-11.2693
12060.000000	58.888	-20.8078
12200.000000	57.644	-23.0850
12410.000000	55.758	-23.5160
12500.000000	54.985	-22.9010
12650.000000	53.781	-21.1491
12800.000000	52.700	-18.7297
13150.000000	50.722	-11.6580
13200.000000	50.501	-10.5788
13400.000000	49.750	-6.2157
13600.000000	49.200	-1.7778
13800.000000	48.829	2.7290
14000.000000	48.619	7.1820
14300.000000	48.620	13.2849
14500.000000	48.855	16.5092
14750.000000	49.442	18.9552
15000.000000	50.313	19.0251
15250.000000	51.328	15.7805
15500.000000	52.267	8.2404
15750.000000	52.851	-3.6434
16000.000000	52.873	-18.2953
16250.000000	52.288	-33.3195
16500.000000	51.198	-46.9787
16750.000000	49.779	-59.3546
17000.000000	48.180	-73.8453
17250.000000	46.477	-102.0088
17500.000000	44.696	-178.7039
17750.000000	42.852	-33.3950
18000.000000	40.991	162.6429
18250.000000	39.226	-166.9883
18500.000000	37.698	-130.6328
18750.000000	36.579	101.7114
19000.000000	36.132	113.5273
19250.000000	36.642	-129.1055
19500.000000	38.093	22.3281
19750.000000	39.840	142.0234
