* Measurement data measured by REW V5.20.13
* Source: Microfone (6- USB Sound Device        ), MICROPHONE (Volume geral), R, volume: 0,250
* Format: 256k Log Swept Sine, 1 sweep at -12,0 dBFS with no timing reference
* Dated: 19/jul/2023 21:14:09
* REW Settings:
*  C-weighting compensation: Off
*  Target level: 75.0 dB
* Note: ; 
* Measurement: DUNU Falcon Ultra Gold R
* Smoothing: 1/12 octave
* Frequency Step: 1/48 octave
* Start Frequency: 20.300 Hz
*
* Freq(Hz)	SPL(dB)	Phase(degrees)
20.299999	66.650	-147.8683
20.600000	66.688	-148.2905
20.900000	66.768	-149.2037
21.200001	66.823	-150.2501
21.400000	66.833	-150.9075
21.799999	66.799	-151.9066
22.000000	66.767	-152.1748
22.400000	66.719	-152.2610
22.700001	66.727	-152.1604
23.000000	66.779	-152.2113
23.299999	66.850	-152.5619
23.600000	66.913	-153.1576
24.000000	66.963	-154.0163
24.299999	66.989	-154.3884
24.700001	67.058	-154.3317
25.000000	67.167	-154.0385
25.400000	67.375	-153.8018
25.799999	67.563	-154.2457
26.200001	67.623	-155.3808
26.500000	67.553	-156.3627
26.900000	67.332	-157.3454
27.200001	67.132	-157.6379
27.600000	66.926	-157.5513
28.000000	66.875	-157.4580
28.500000	66.999	-158.1115
29.000000	67.169	-159.6244
29.500000	67.285	-161.2088
30.000000	67.371	-162.2303
30.400000	67.452	-162.7217
30.700001	67.520	-163.0681
31.100000	67.595	-163.6465
31.500000	67.628	-164.3342
32.000000	67.600	-165.1298
32.500000	67.529	-165.6827
33.000000	67.455	-166.0830
33.500000	67.392	-166.5077
34.000000	67.337	-166.9855
34.500000	67.297	-167.4237
35.000000	67.289	-167.7977
35.500000	67.308	-168.1864
36.000000	67.329	-168.6424
36.500000	67.331	-169.1245
37.000000	67.313	-169.5755
37.500000	67.290	-170.0094
38.200001	67.274	-170.6747
38.700001	67.273	-171.1799
39.500000	67.275	-171.9182
40.000000	67.257	-172.3201
40.599998	67.196	-172.7204
41.200001	67.100	-172.9642
41.799999	67.018	-173.0959
42.500000	66.987	-173.3786
43.099998	67.002	-173.8741
43.700001	67.018	-174.4619
44.400002	67.025	-175.0482
45.000000	67.024	-175.4798
45.500000	67.014	-175.8535
46.200001	66.980	-176.3453
46.799999	66.944	-176.6309
47.500000	66.917	-176.8636
48.200001	66.899	-177.2169
48.700001	66.874	-177.5764
49.400002	66.818	-178.0592
50.000000	66.778	-178.3080
50.799999	66.771	-178.4612
51.500000	66.783	-178.6296
52.200001	66.763	-178.8801
53.000000	66.691	-179.1698
53.799999	66.616	-179.5037
54.500000	66.576	-179.9638
55.200001	66.548	179.4490
56.000000	66.504	178.8699
57.000000	66.438	178.5667
58.000000	66.401	178.5161
59.000000	66.399	178.2141
60.000000	66.384	177.5552
60.799999	66.338	177.0535
61.500000	66.286	176.7865
62.200001	66.235	176.6524
63.000000	66.188	176.5180
64.000000	66.142	176.1869
65.000000	66.107	175.6568
66.000000	66.071	175.0954
67.000000	66.023	174.6797
68.000000	65.959	174.4325
69.000000	65.883	174.2593
70.000000	65.805	174.1295
71.000000	65.747	174.0648
72.000000	65.716	174.0316
73.000000	65.699	173.9746
74.000000	65.676	173.8409
75.000000	65.635	173.5766
76.199997	65.564	173.0527
77.500000	65.471	172.4142
78.800003	65.349	172.0904
80.000000	65.192	172.2465
81.199997	65.022	172.7818
82.500000	64.884	173.5453
83.800003	64.837	174.2246
85.000000	64.875	174.4993
86.199997	64.953	174.3265
87.500000	65.015	173.8865
88.500000	65.026	173.6212
90.000000	64.988	173.4161
91.199997	64.934	173.3771
92.500000	64.902	173.3973
93.800003	64.915	173.4163
95.000000	64.947	173.4964
96.199997	64.975	173.6270
97.500000	64.983	173.5665
98.800003	64.955	173.1299
100.000000	64.895	172.5998
101.500000	64.801	172.1288
103.000000	64.716	171.9153
104.400002	64.646	171.7732
106.000000	64.554	171.4788
107.500000	64.458	171.1384
109.000000	64.375	170.9347
110.599998	64.315	170.9478
112.000000	64.271	171.0459
113.800003	64.207	171.0318
115.000000	64.168	170.9157
117.199997	64.105	170.7416
118.000000	64.077	170.7249
120.599998	63.961	170.7935
122.000000	63.891	170.8669
124.099998	63.791	170.9252
125.000000	63.750	170.9202
126.500000	63.685	170.8950
128.000000	63.618	170.8793
131.500000	63.453	170.9267
132.000000	63.430	170.9539
134.000000	63.345	171.1628
136.000000	63.278	171.5343
138.000000	63.227	171.9431
140.000000	63.185	172.0725
143.000000	63.131	171.1290
145.000000	63.093	170.2774
147.500000	63.025	170.6939
150.000000	62.937	172.0863
152.500000	62.844	172.7730
155.000000	62.745	172.9658
157.500000	62.644	173.1626
160.000000	62.545	173.3766
162.500000	62.456	173.5627
165.000000	62.378	173.6829
167.500000	62.312	173.8069
170.000000	62.255	174.0685
172.500000	62.190	174.4218
175.000000	62.110	174.7574
177.500000	62.028	175.0558
180.000000	61.949	175.3688
182.500000	61.874	175.7042
185.000000	61.810	176.0340
187.500000	61.756	176.3835
190.000000	61.701	176.7244
192.500000	61.635	177.0281
195.000000	61.569	177.3289
197.500000	61.514	177.6382
200.000000	61.463	177.9526
203.000000	61.402	178.3145
206.000000	61.340	178.6062
209.000000	61.275	178.8974
212.000000	61.208	179.2815
214.000000	61.164	179.5803
218.000000	61.084	-179.7749
220.000000	61.045	-179.4472
224.000000	60.966	-178.8484
227.000000	60.905	-178.4615
230.000000	60.845	-178.0961
233.000000	60.786	-177.7393
236.000000	60.729	-177.3851
240.000000	60.652	-176.8660
243.000000	60.591	-176.4028
247.000000	60.514	-175.7325
250.000000	60.467	-175.2484
254.000000	60.410	-174.6379
258.000000	60.350	-174.0610
262.000000	60.289	-173.4767
265.000000	60.243	-172.9925
269.000000	60.179	-172.3305
272.000000	60.133	-171.8635
276.000000	60.076	-171.2735
280.000000	60.022	-170.6950
285.000000	59.951	-169.9890
290.000000	59.879	-169.2332
295.000000	59.811	-168.3890
300.000000	59.749	-167.5555
304.000000	59.703	-166.9499
307.000000	59.669	-166.5254
311.000000	59.624	-165.9781
315.000000	59.582	-165.4267
320.000000	59.530	-164.7117
325.000000	59.476	-163.9450
330.000000	59.421	-163.1248
335.000000	59.373	-162.3315
340.000000	59.327	-161.6106
345.000000	59.277	-160.9224
350.000000	59.226	-160.1862
355.000000	59.180	-159.3745
360.000000	59.133	-158.5314
365.000000	59.086	-157.6985
370.000000	59.038	-156.8957
375.000000	58.995	-156.1363
382.000000	58.947	-155.1576
387.000000	58.918	-154.4874
395.000000	58.871	-153.4075
400.000000	58.845	-152.7313
406.000000	58.821	-151.9137
412.000000	58.796	-151.0444
418.000000	58.763	-150.0954
425.000000	58.717	-148.9428
431.000000	58.678	-147.9813
437.000000	58.641	-147.0803
444.000000	58.595	-146.0995
450.000000	58.556	-145.2764
455.000000	58.531	-144.5973
462.000000	58.506	-143.6411
468.000000	58.491	-142.7946
475.000000	58.468	-141.8027
482.000000	58.435	-140.8367
487.000000	58.410	-140.1386
494.000000	58.384	-139.1058
500.000000	58.375	-138.2009
508.000000	58.367	-137.0227
515.000000	58.352	-135.9959
522.000000	58.334	-134.9740
530.000000	58.315	-133.8642
538.000000	58.298	-132.7964
545.000000	58.281	-131.8381
552.000000	58.264	-130.8531
560.000000	58.249	-129.7459
570.000000	58.234	-128.4019
580.000000	58.216	-127.0593
590.000000	58.192	-125.7226
600.000000	58.180	-124.4143
608.000000	58.186	-123.3619
615.000000	58.199	-122.4315
622.000000	58.212	-121.4991
630.000000	58.222	-120.4243
640.000000	58.228	-119.0808
650.000000	58.238	-117.7790
660.000000	58.254	-116.5250
670.000000	58.270	-115.2796
680.000000	58.289	-114.0014
690.000000	58.311	-112.6738
700.000000	58.336	-111.3052
710.000000	58.360	-109.9259
720.000000	58.385	-108.5464
730.000000	58.418	-107.1789
740.000000	58.455	-105.8612
750.000000	58.486	-104.6081
762.000000	58.515	-103.1456
775.000000	58.558	-101.5478
788.000000	58.614	-99.9252
800.000000	58.664	-98.3994
812.000000	58.715	-96.8757
825.000000	58.781	-95.3148
838.000000	58.862	-93.8298
850.000000	58.946	-92.4511
862.000000	59.034	-91.0404
875.000000	59.132	-89.5072
885.000000	59.208	-88.3387
900.000000	59.316	-86.6264
912.000000	59.401	-85.3177
925.000000	59.501	-83.9536
938.000000	59.615	-82.6298
950.000000	59.727	-81.4350
962.000000	59.842	-80.2528
975.000000	59.970	-78.9804
988.000000	60.105	-77.7285
1000.000000	60.227	-76.6202
1015.000000	60.370	-75.3179
1030.000000	60.513	-74.0676
1044.000000	60.650	-72.9415
1060.000000	60.809	-71.7286
1075.000000	60.963	-70.6637
1090.000000	61.117	-69.6507
1106.000000	61.279	-68.6047
1120.000000	61.421	-67.7222
1138.000000	61.600	-66.6460
1150.000000	61.719	-65.9706
1172.000000	61.932	-64.8061
1180.000000	62.008	-64.3991
1206.000000	62.250	-63.1666
1220.000000	62.376	-62.5815
1241.000000	62.558	-61.7935
1250.000000	62.631	-61.4788
1265.000000	62.748	-60.9626
1280.000000	62.860	-60.4373
1315.000000	63.112	-59.1734
1320.000000	63.148	-58.9905
1340.000000	63.288	-58.2651
1360.000000	63.424	-57.5786
1380.000000	63.556	-56.9267
1400.000000	63.683	-56.2797
1430.000000	63.858	-55.2873
1450.000000	63.968	-54.6080
1475.000000	64.111	-53.7647
1500.000000	64.268	-52.9397
1525.000000	64.436	-52.1609
1550.000000	64.611	-51.4625
1575.000000	64.783	-50.8436
1600.000000	64.950	-50.2930
1625.000000	65.117	-49.8042
1650.000000	65.283	-49.3837
1675.000000	65.445	-49.0421
1700.000000	65.603	-48.7750
1725.000000	65.752	-48.5611
1750.000000	65.889	-48.3964
1775.000000	66.017	-48.2943
1800.000000	66.138	-48.2565
1825.000000	66.254	-48.2760
1850.000000	66.361	-48.3502
1875.000000	66.457	-48.4718
1900.000000	66.543	-48.6230
1925.000000	66.619	-48.7958
1950.000000	66.684	-48.9882
1975.000000	66.740	-49.1941
2000.000000	66.784	-49.4012
2030.000000	66.819	-49.6355
2060.000000	66.836	-49.8605
2090.000000	66.839	-50.0818
2120.000000	66.828	-50.2929
2140.000000	66.812	-50.4236
2180.000000	66.763	-50.6510
2200.000000	66.731	-50.7393
2240.000000	66.654	-50.8357
2270.000000	66.584	-50.8229
2300.000000	66.505	-50.7314
2330.000000	66.418	-50.5654
2360.000000	66.326	-50.3313
2400.000000	66.197	-49.9190
2430.000000	66.094	-49.5317
2470.000000	65.949	-48.9016
2500.000000	65.836	-48.3352
2540.000000	65.682	-47.4354
2580.000000	65.529	-46.3341
2620.000000	65.384	-44.9844
2650.000000	65.287	-43.8072
2690.000000	65.191	-42.0636
2720.000000	65.149	-40.6740
2760.000000	65.137	-38.7976
2800.000000	65.171	-37.0120
2850.000000	65.265	-35.0941
2900.000000	65.385	-33.5992
2950.000000	65.499	-32.4605
3000.000000	65.585	-31.5568
3040.000000	65.631	-30.9155
3070.000000	65.656	-30.4541
3110.000000	65.677	-29.8428
3150.000000	65.688	-29.2122
3200.000000	65.695	-28.3710
3250.000000	65.700	-27.4627
3300.000000	65.706	-26.4880
3350.000000	65.720	-25.4514
3400.000000	65.747	-24.3693
3450.000000	65.788	-23.2832
3500.000000	65.848	-22.2374
3550.000000	65.930	-21.2809
3600.000000	66.028	-20.4720
3650.000000	66.134	-19.8569
3700.000000	66.240	-19.4522
3750.000000	66.338	-19.2357
3820.000000	66.445	-19.1518
3870.000000	66.498	-19.1806
3950.000000	66.544	-19.2618
4000.000000	66.557	-19.3044
4060.000000	66.565	-19.3671
4120.000000	66.569	-19.4805
4180.000000	66.567	-19.6852
4250.000000	66.548	-20.0883
4310.000000	66.510	-20.5827
4370.000000	66.444	-21.1777
4440.000000	66.325	-21.9128
4500.000000	66.186	-22.5224
4550.000000	66.045	-22.9972
4620.000000	65.811	-23.5725
4680.000000	65.583	-23.9305
4750.000000	65.290	-24.1405
4820.000000	64.975	-24.1139
4870.000000	64.737	-23.9479
4940.000000	64.393	-23.5043
5000.000000	64.092	-22.9257
5080.000000	63.691	-21.8819
5150.000000	63.346	-20.7286
5220.000000	63.010	-19.3622
5300.000000	62.637	-17.5650
5380.000000	62.281	-15.5348
5450.000000	61.987	-13.5704
5520.000000	61.711	-11.4478
5600.000000	61.424	-8.8607
5700.000000	61.123	-5.4866
5800.000000	60.878	-2.1116
5900.000000	60.677	1.2703
6000.000000	60.514	4.7568
6080.000000	60.411	7.6400
6150.000000	60.343	10.2120
6220.000000	60.297	12.7958
6300.000000	60.272	15.7256
6400.000000	60.288	19.3246
6500.000000	60.361	22.8293
6600.000000	60.492	26.2274
6700.000000	60.684	29.5318
6800.000000	60.940	32.7201
6900.000000	61.261	35.6912
7000.000000	61.652	38.3167
7100.000000	62.117	40.4997
7200.000000	62.654	42.1365
7300.000000	63.249	43.0748
7400.000000	63.885	43.1550
7500.000000	64.533	42.1992
7620.000000	65.263	39.4415
7750.000000	65.893	34.3478
7880.000000	66.237	27.4010
8000.000000	66.228	20.1560
8120.000000	65.894	13.1483
8250.000000	65.215	6.8667
8380.000000	64.302	2.5236
8500.000000	63.349	0.2700
8620.000000	62.371	-0.4931
8750.000000	61.360	-0.0016
8850.000000	60.644	1.0544
9000.000000	59.689	3.4304
9120.000000	59.034	5.8217
9250.000000	58.440	8.6904
9380.000000	57.954	11.6698
9500.000000	57.585	14.4269
9620.000000	57.269	17.1628
9750.000000	56.971	20.1289
9880.000000	56.715	23.2007
10000.000000	56.524	26.2470
10150.000000	56.376	30.3901
10300.000000	56.366	34.7768
10440.000000	56.510	38.8798
10600.000000	56.885	43.3374
10750.000000	57.461	47.0392
10900.000000	58.273	49.9641
11060.000000	59.398	51.8075
11200.000000	60.556	51.8120
11380.000000	62.126	48.4356
11500.000000	63.083	43.3249
11720.000000	64.242	27.4193
11800.000000	64.383	20.0490
12060.000000	63.648	-3.7665
12200.000000	62.589	-13.3980
12410.000000	60.480	-21.7716
12500.000000	59.490	-23.4082
12650.000000	57.849	-24.2380
12800.000000	56.315	-23.4169
13150.000000	53.433	-18.1904
13200.000000	53.105	-17.2406
13400.000000	51.977	-13.1801
13600.000000	51.093	-8.8720
13800.000000	50.436	-4.5741
14000.000000	49.999	-0.5534
14300.000000	49.732	4.6657
14500.000000	49.786	7.4140
14750.000000	50.104	9.6646
15000.000000	50.674	10.1103
15250.000000	51.396	8.2132
15500.000000	52.150	3.5116
15750.000000	52.805	-4.4258
16000.000000	53.227	-15.6359
16250.000000	53.318	-29.5398
16500.000000	53.016	-45.2476
16750.000000	52.260	-62.1146
17000.000000	51.014	-80.3582
17250.000000	49.290	-103.5945
17500.000000	47.157	-147.3478
17750.000000	44.750	102.5651
18000.000000	42.284	-171.6486
18250.000000	40.013	-24.3964
18500.000000	38.135	86.3474
18750.000000	36.788	112.9822
19000.000000	36.235	13.9727
19250.000000	36.816	76.4873
19500.000000	38.415	-49.9707
19750.000000	40.251	-179.0527
