* Measurement data measured by REW V5.20.13
* Source: Microfone (6- USB Sound Device        ), MICROPHONE (Volume geral), R, volume: 0,250
* Format: 256k Log Swept Sine, 1 sweep at -12,0 dBFS with no timing reference
* Dated: 7/ago/2023 15:05:25
* REW Settings:
*  C-weighting compensation: Off
*  Target level: 75.0 dB
* Note: ; 
* Measurement: Juzear 41T L
* Smoothing: 1/12 octave
* Frequency Step: 1/48 octave
* Start Frequency: 20.300 Hz
*
* Freq(Hz)	SPL(dB)	Phase(degrees)
20.299999	67.254	163.5727
20.600000	67.238	163.4182
20.900000	67.200	163.0925
21.200001	67.158	162.7381
21.400000	67.131	162.5008
21.799999	67.079	162.0276
22.000000	67.055	161.7932
22.400000	67.009	161.3306
22.700001	66.975	160.9954
23.000000	66.942	160.6735
23.299999	66.910	160.3586
23.600000	66.879	160.0411
24.000000	66.838	159.6032
24.299999	66.805	159.2665
24.700001	66.759	158.8288
25.000000	66.723	158.5297
25.400000	66.677	158.1856
25.799999	66.636	157.8912
26.200001	66.600	157.6080
26.500000	66.574	157.3799
26.900000	66.537	157.0440
27.200001	66.507	156.7749
27.600000	66.464	156.4135
28.000000	66.424	156.0701
28.500000	66.384	155.6769
29.000000	66.357	155.3127
29.500000	66.334	154.9651
30.000000	66.302	154.6307
30.400000	66.265	154.3708
30.700001	66.228	154.1768
31.100000	66.170	153.9129
31.500000	66.106	153.6363
32.000000	66.026	153.2663
32.500000	65.957	152.8680
33.000000	65.903	152.4474
33.500000	65.863	152.0181
34.000000	65.826	151.6028
34.500000	65.784	151.2278
35.000000	65.735	150.9099
35.500000	65.684	150.6452
36.000000	65.641	150.4050
36.500000	65.608	150.1537
37.000000	65.580	149.8774
37.500000	65.549	149.6043
38.200001	65.483	149.3289
38.700001	65.424	149.2362
39.500000	65.331	149.1040
40.000000	65.282	148.8907
40.599998	65.229	148.4473
41.200001	65.175	147.8944
41.799999	65.118	147.3795
42.500000	65.053	146.9323
43.099998	65.000	146.6607
43.700001	64.949	146.4379
44.400002	64.891	146.2013
45.000000	64.844	146.0073
45.500000	64.807	145.8452
46.200001	64.753	145.6053
46.799999	64.700	145.3798
47.500000	64.633	145.0946
48.200001	64.566	144.7989
48.700001	64.523	144.5925
49.400002	64.471	144.3249
50.000000	64.433	144.1223
50.799999	64.380	143.8806
51.500000	64.328	143.6643
52.200001	64.270	143.4150
53.000000	64.201	143.0899
53.799999	64.134	142.7521
54.500000	64.079	142.4713
55.200001	64.023	142.2218
56.000000	63.953	141.9895
57.000000	63.863	141.7727
58.000000	63.782	141.5650
59.000000	63.716	141.2661
60.000000	63.655	140.8671
60.799999	63.600	140.5546
61.500000	63.548	140.3412
62.200001	63.499	140.1833
63.000000	63.452	140.0230
64.000000	63.401	139.7986
65.000000	63.347	139.5709
66.000000	63.283	139.3644
67.000000	63.208	139.1317
68.000000	63.128	138.8452
69.000000	63.050	138.5789
70.000000	62.983	138.3902
71.000000	62.919	138.2163
72.000000	62.850	138.0004
73.000000	62.780	137.7828
74.000000	62.718	137.6068
75.000000	62.661	137.4655
76.199997	62.592	137.2636
77.500000	62.521	136.9447
78.800003	62.454	136.6524
80.000000	62.392	136.5060
81.199997	62.324	136.3921
82.500000	62.246	136.1803
83.800003	62.173	135.8948
85.000000	62.112	135.6469
86.199997	62.053	135.4480
87.500000	61.992	135.2402
88.500000	61.940	135.0479
90.000000	61.846	134.7296
91.199997	61.771	134.5228
92.500000	61.701	134.3820
93.800003	61.641	134.2615
95.000000	61.587	134.1090
96.199997	61.529	133.9306
97.500000	61.460	133.7757
98.800003	61.389	133.6902
100.000000	61.321	133.6589
101.500000	61.236	133.6844
103.000000	61.165	133.7924
104.400002	61.119	133.9527
106.000000	61.076	134.0960
107.500000	61.013	134.0227
109.000000	60.913	133.6639
110.599998	60.801	133.0895
112.000000	60.741	132.6821
113.800003	60.711	132.4955
115.000000	60.686	132.4936
117.199997	60.616	132.5076
118.000000	60.591	132.5219
120.599998	60.511	132.6467
122.000000	60.460	132.7168
124.099998	60.391	132.8247
125.000000	60.367	132.9033
126.500000	60.332	133.0832
128.000000	60.303	133.3103
131.500000	60.292	133.9260
132.000000	60.302	133.9895
134.000000	60.369	134.1082
136.000000	60.450	133.9611
138.000000	60.505	133.3635
140.000000	60.522	132.1606
143.000000	60.485	129.8663
145.000000	60.440	128.8773
147.500000	60.406	128.9428
150.000000	60.382	129.5241
152.500000	60.328	129.7395
155.000000	60.261	129.6738
157.500000	60.210	129.5433
160.000000	60.174	129.4486
162.500000	60.148	129.3436
165.000000	60.118	129.0238
167.500000	60.069	128.5224
170.000000	60.009	128.0605
172.500000	59.953	127.6936
175.000000	59.906	127.3638
177.500000	59.858	127.0603
180.000000	59.810	126.8257
182.500000	59.767	126.6171
185.000000	59.728	126.3487
187.500000	59.691	126.0452
190.000000	59.659	125.7924
192.500000	59.636	125.6189
195.000000	59.616	125.4941
197.500000	59.591	125.3807
200.000000	59.562	125.2216
203.000000	59.525	124.9456
206.000000	59.494	124.6597
209.000000	59.473	124.4330
212.000000	59.461	124.2882
214.000000	59.458	124.2466
218.000000	59.452	124.1848
220.000000	59.440	124.0732
224.000000	59.398	123.6929
227.000000	59.362	123.3943
230.000000	59.333	123.1342
233.000000	59.313	122.9089
236.000000	59.295	122.7039
240.000000	59.260	122.3907
243.000000	59.228	122.1223
247.000000	59.188	121.7932
250.000000	59.166	121.5678
254.000000	59.145	121.2823
258.000000	59.128	121.0379
262.000000	59.111	120.8416
265.000000	59.095	120.7066
269.000000	59.063	120.5444
272.000000	59.037	120.4613
276.000000	59.004	120.4254
280.000000	58.973	120.4698
285.000000	58.953	120.6035
290.000000	58.972	120.7458
295.000000	59.017	120.7244
300.000000	59.076	120.4712
304.000000	59.121	120.1353
307.000000	59.144	119.8028
311.000000	59.159	119.2917
315.000000	59.161	118.8079
320.000000	59.154	118.3273
325.000000	59.145	117.9236
330.000000	59.137	117.5424
335.000000	59.135	117.1902
340.000000	59.126	116.9057
345.000000	59.099	116.6640
350.000000	59.066	116.4046
355.000000	59.042	116.1261
360.000000	59.032	115.8731
365.000000	59.027	115.6594
370.000000	59.017	115.4624
375.000000	58.997	115.2923
382.000000	58.972	115.1112
387.000000	58.964	114.9706
395.000000	58.954	114.7220
400.000000	58.944	114.5979
406.000000	58.932	114.4595
412.000000	58.924	114.3132
418.000000	58.921	114.1818
425.000000	58.913	114.0402
431.000000	58.896	113.9025
437.000000	58.875	113.7893
444.000000	58.852	113.7115
450.000000	58.838	113.6943
455.000000	58.829	113.7009
462.000000	58.819	113.6991
468.000000	58.812	113.6797
475.000000	58.805	113.6531
482.000000	58.799	113.6708
487.000000	58.794	113.7349
494.000000	58.786	113.8685
500.000000	58.783	113.9632
508.000000	58.783	114.0419
515.000000	58.782	114.1260
522.000000	58.776	114.2514
530.000000	58.765	114.3990
538.000000	58.756	114.5384
545.000000	58.753	114.6835
552.000000	58.750	114.8620
560.000000	58.743	115.1143
570.000000	58.740	115.5050
580.000000	58.748	115.9514
590.000000	58.757	116.3520
600.000000	58.761	116.6819
608.000000	58.761	116.9330
615.000000	58.765	117.1589
622.000000	58.773	117.3979
630.000000	58.790	117.6994
640.000000	58.816	118.1487
650.000000	58.841	118.6433
660.000000	58.865	119.1286
670.000000	58.892	119.6321
680.000000	58.923	120.1629
690.000000	58.955	120.7076
700.000000	58.992	121.2746
710.000000	59.038	121.8565
720.000000	59.091	122.4290
730.000000	59.148	122.9826
740.000000	59.205	123.5269
750.000000	59.261	124.0795
762.000000	59.329	124.7788
775.000000	59.410	125.5574
788.000000	59.495	126.3098
800.000000	59.574	127.0151
812.000000	59.659	127.7132
825.000000	59.753	128.4047
838.000000	59.849	129.0342
850.000000	59.944	129.5533
862.000000	60.047	130.0113
875.000000	60.168	130.5052
885.000000	60.264	130.9115
900.000000	60.407	131.5493
912.000000	60.521	132.0492
925.000000	60.644	132.5277
938.000000	60.766	132.9447
950.000000	60.876	133.3117
962.000000	60.981	133.6651
975.000000	61.089	134.0188
988.000000	61.195	134.3398
1000.000000	61.299	134.5966
1015.000000	61.438	134.8612
1030.000000	61.578	135.0880
1044.000000	61.700	135.2704
1060.000000	61.827	135.4343
1075.000000	61.940	135.5588
1090.000000	62.051	135.6822
1106.000000	62.167	135.8283
1120.000000	62.264	135.9696
1138.000000	62.382	136.1468
1150.000000	62.456	136.2473
1172.000000	62.583	136.3941
1180.000000	62.626	136.4401
1206.000000	62.754	136.5907
1220.000000	62.817	136.6919
1241.000000	62.906	136.8818
1250.000000	62.943	136.9723
1265.000000	63.003	137.1291
1280.000000	63.061	137.2914
1315.000000	63.189	137.6858
1320.000000	63.207	137.7427
1340.000000	63.277	137.9758
1360.000000	63.342	138.2207
1380.000000	63.400	138.4852
1400.000000	63.457	138.7960
1430.000000	63.549	139.3709
1450.000000	63.613	139.8076
1475.000000	63.690	140.3973
1500.000000	63.767	140.9978
1525.000000	63.850	141.5641
1550.000000	63.939	142.1152
1575.000000	64.033	142.6719
1600.000000	64.131	143.2399
1625.000000	64.230	143.8169
1650.000000	64.329	144.4028
1675.000000	64.430	144.9973
1700.000000	64.540	145.5880
1725.000000	64.655	146.1511
1750.000000	64.773	146.6806
1775.000000	64.893	147.1892
1800.000000	65.018	147.6866
1825.000000	65.149	148.1639
1850.000000	65.283	148.6038
1875.000000	65.419	148.9991
1900.000000	65.558	149.3492
1925.000000	65.698	149.6532
1950.000000	65.838	149.9165
1975.000000	65.977	150.1391
2000.000000	66.119	150.3069
2030.000000	66.295	150.4135
2060.000000	66.474	150.4219
2090.000000	66.651	150.3494
2120.000000	66.822	150.1947
2140.000000	66.933	150.0416
2180.000000	67.143	149.6125
2200.000000	67.242	149.3315
2240.000000	67.428	148.6243
2270.000000	67.556	147.9776
2300.000000	67.671	147.2494
2330.000000	67.769	146.4495
2360.000000	67.849	145.5843
2400.000000	67.924	144.3535
2430.000000	67.957	143.3953
2470.000000	67.967	142.0980
2500.000000	67.951	141.1384
2540.000000	67.900	139.9320
2580.000000	67.819	138.8308
2620.000000	67.713	137.8349
2650.000000	67.620	137.1704
2690.000000	67.478	136.4107
2720.000000	67.363	135.9378
2760.000000	67.201	135.4407
2800.000000	67.032	135.1013
2850.000000	66.818	134.8718
2900.000000	66.603	134.8164
2950.000000	66.388	134.9136
3000.000000	66.177	135.1480
3040.000000	66.013	135.4176
3070.000000	65.892	135.6696
3110.000000	65.737	136.0810
3150.000000	65.589	136.5627
3200.000000	65.415	137.2118
3250.000000	65.249	137.8996
3300.000000	65.089	138.6259
3350.000000	64.935	139.3693
3400.000000	64.785	140.1187
3450.000000	64.636	140.8541
3500.000000	64.491	141.5678
3550.000000	64.342	142.2707
3600.000000	64.180	142.9746
3650.000000	63.998	143.6907
3700.000000	63.792	144.4437
3750.000000	63.561	145.2929
3820.000000	63.190	146.8176
3870.000000	62.894	148.2980
3950.000000	62.398	151.7248
4000.000000	62.115	154.6890
4060.000000	61.865	159.0652
4120.000000	61.787	164.0200
4180.000000	61.924	169.0199
4250.000000	62.327	174.2568
4310.000000	62.811	177.8791
4370.000000	63.361	-179.4431
4440.000000	64.029	-177.4951
4500.000000	64.594	-176.7487
4550.000000	65.045	-176.7147
4620.000000	65.628	-177.4786
4680.000000	66.065	-178.8412
4750.000000	66.476	178.7959
4820.000000	66.754	175.7581
4870.000000	66.864	173.3264
4940.000000	66.891	169.8048
5000.000000	66.797	166.8894
5080.000000	66.519	163.4502
5150.000000	66.160	161.0630
5220.000000	65.724	159.3599
5300.000000	65.167	158.2935
5380.000000	64.581	158.1480
5450.000000	64.071	158.7182
5520.000000	63.581	159.8647
5600.000000	63.068	161.7586
5700.000000	62.517	164.7908
5800.000000	62.077	168.3629
5900.000000	61.763	172.2847
6000.000000	61.577	176.3696
6080.000000	61.517	179.6380
6150.000000	61.526	-177.5702
6220.000000	61.597	-174.8973
6300.000000	61.752	-172.0604
6400.000000	62.051	-168.9916
6500.000000	62.440	-166.6728
6600.000000	62.870	-165.3350
6700.000000	63.289	-165.1266
6800.000000	63.635	-166.0081
6900.000000	63.851	-167.7281
7000.000000	63.905	-169.8223
7100.000000	63.799	-171.7126
7200.000000	63.572	-172.9187
7300.000000	63.294	-173.2438
7400.000000	63.038	-172.7850
7500.000000	62.861	-171.8329
7620.000000	62.787	-170.5813
7750.000000	62.852	-169.7777
7880.000000	62.987	-170.0721
8000.000000	63.080	-171.4392
8120.000000	63.069	-173.6323
8250.000000	62.893	-176.4141
8380.000000	62.537	-179.0108
8500.000000	62.073	179.1891
8620.000000	61.521	178.2071
8750.000000	60.882	178.1177
8850.000000	60.399	178.6675
9000.000000	59.743	-179.7260
9120.000000	59.299	-178.0064
9250.000000	58.910	-175.9299
9380.000000	58.612	-173.7750
9500.000000	58.415	-171.8575
9620.000000	58.289	-170.1419
9750.000000	58.220	-168.6436
9880.000000	58.202	-167.6500
10000.000000	58.207	-167.2736
10150.000000	58.199	-167.5992
10300.000000	58.117	-168.7216
10440.000000	57.934	-170.2104
10600.000000	57.590	-171.9756
10750.000000	57.154	-173.3264
10900.000000	56.618	-174.1243
11060.000000	55.956	-174.1736
11200.000000	55.327	-173.4495
11380.000000	54.495	-171.4125
11500.000000	53.957	-169.3870
11720.000000	53.061	-164.5651
11800.000000	52.777	-162.5331
12060.000000	52.084	-155.0998
12200.000000	51.891	-150.7012
12410.000000	51.859	-144.0395
12500.000000	51.946	-141.3102
12650.000000	52.230	-137.1301
12800.000000	52.670	-133.6965
13150.000000	54.006	-130.3548
13200.000000	54.198	-130.4834
13400.000000	54.884	-132.4210
13600.000000	55.376	-136.2958
13800.000000	55.621	-141.4902
14000.000000	55.602	-147.4140
14300.000000	55.059	-156.1126
14500.000000	54.381	-160.4490
14750.000000	53.320	-162.8167
15000.000000	52.370	-161.3856
15250.000000	52.024	-158.6670
15500.000000	52.112	-159.3178
15750.000000	51.981	-163.2838
16000.000000	51.493	-167.1744
16250.000000	50.815	-168.8750
16500.000000	50.261	-168.0265
16750.000000	50.158	-166.1822
17000.000000	50.518	-165.8855
17250.000000	51.006	-168.7606
17500.000000	51.313	-173.9955
17750.000000	51.493	-179.3520
18000.000000	51.817	175.0508
18250.000000	52.100	166.5926
18500.000000	51.895	155.8347
18750.000000	51.190	145.8566
19000.000000	50.256	137.4526
19250.000000	49.322	129.0809
19500.000000	48.482	118.8240
19750.000000	47.779	106.6353
