* Measurement data measured by REW V5.20.13
* Source: Microfone (6- USB Sound Device        ), MICROPHONE (Volume geral), R, volume: 0,250
* Format: 256k Log Swept Sine, 1 sweep at -12,0 dBFS with no timing reference
* Dated: 7/ago/2023 14:58:33
* REW Settings:
*  C-weighting compensation: Off
*  Target level: 75.0 dB
* Note: ; 
* Measurement: Juzear 41T R
* Smoothing: 1/12 octave
* Frequency Step: 1/48 octave
* Start Frequency: 20.300 Hz
*
* Freq(Hz)	SPL(dB)	Phase(degrees)
20.299999	66.679	171.0334
20.600000	66.660	170.9970
20.900000	66.621	170.8999
21.200001	66.594	170.7227
21.400000	66.585	170.5367
21.799999	66.576	169.9991
22.000000	66.570	169.6665
22.400000	66.543	168.9655
22.700001	66.512	168.5040
23.000000	66.481	168.1596
23.299999	66.459	167.9196
23.600000	66.449	167.7331
24.000000	66.450	167.4669
24.299999	66.448	167.1992
24.700001	66.427	166.7543
25.000000	66.392	166.4012
25.400000	66.327	165.9685
25.799999	66.264	165.5855
26.200001	66.224	165.1733
26.500000	66.211	164.7850
26.900000	66.208	164.1351
27.200001	66.206	163.5843
27.600000	66.194	162.8653
28.000000	66.170	162.2844
28.500000	66.139	161.8226
29.000000	66.124	161.5387
29.500000	66.120	161.2431
30.000000	66.108	160.8479
30.400000	66.081	160.5053
30.700001	66.051	160.2733
31.100000	66.002	160.0248
31.500000	65.950	159.8290
32.000000	65.889	159.5766
32.500000	65.829	159.2359
33.000000	65.769	158.8266
33.500000	65.714	158.4496
34.000000	65.684	158.1710
34.500000	65.687	157.9344
35.000000	65.706	157.6253
35.500000	65.708	157.1932
36.000000	65.672	156.7090
36.500000	65.603	156.2747
37.000000	65.530	155.9121
37.500000	65.480	155.5419
38.200001	65.455	154.8600
38.700001	65.445	154.2903
39.500000	65.392	153.5934
40.000000	65.333	153.4490
40.599998	65.258	153.5392
41.200001	65.203	153.6805
41.799999	65.175	153.6161
42.500000	65.153	153.1802
43.099998	65.121	152.6549
43.700001	65.075	152.1744
44.400002	65.012	151.7383
45.000000	64.956	151.4279
45.500000	64.910	151.1811
46.200001	64.856	150.8309
46.799999	64.820	150.5095
47.500000	64.783	150.1127
48.200001	64.738	149.7450
48.700001	64.699	149.5278
49.400002	64.641	149.2752
50.000000	64.592	149.0706
50.799999	64.529	148.7988
51.500000	64.475	148.5852
52.200001	64.422	148.3877
53.000000	64.357	148.1344
53.799999	64.289	147.8318
54.500000	64.237	147.5297
55.200001	64.196	147.1870
56.000000	64.157	146.7690
57.000000	64.110	146.2872
58.000000	64.071	145.8035
59.000000	64.031	145.2512
60.000000	63.971	144.8447
60.799999	63.916	144.7252
61.500000	63.872	144.6709
62.200001	63.829	144.5483
63.000000	63.777	144.2978
64.000000	63.709	143.9376
65.000000	63.644	143.6378
66.000000	63.581	143.3595
67.000000	63.520	143.0034
68.000000	63.465	142.5772
69.000000	63.414	142.2350
70.000000	63.362	142.0975
71.000000	63.303	142.1023
72.000000	63.247	142.0378
73.000000	63.200	141.7594
74.000000	63.160	141.3348
75.000000	63.119	140.9291
76.199997	63.061	140.5699
77.500000	62.991	140.2477
78.800003	62.924	139.9117
80.000000	62.870	139.6315
81.199997	62.822	139.4013
82.500000	62.765	139.1289
83.800003	62.699	138.7659
85.000000	62.635	138.4362
86.199997	62.580	138.2147
87.500000	62.531	138.0719
88.500000	62.491	137.9638
90.000000	62.409	137.7308
91.199997	62.334	137.4625
92.500000	62.257	137.1090
93.800003	62.193	136.7759
95.000000	62.144	136.5466
96.199997	62.103	136.3672
97.500000	62.056	136.1582
98.800003	62.002	135.9148
100.000000	61.953	135.7023
101.500000	61.907	135.4944
103.000000	61.873	135.2887
104.400002	61.833	135.0417
106.000000	61.759	134.7817
107.500000	61.668	134.6581
109.000000	61.581	134.6716
110.599998	61.509	134.7929
112.000000	61.472	134.7509
113.800003	61.438	134.2784
115.000000	61.396	133.9035
117.199997	61.271	133.4258
118.000000	61.223	133.2676
120.599998	61.098	132.8427
122.000000	61.053	133.0159
124.099998	61.019	133.8190
125.000000	61.020	134.1923
126.500000	61.050	134.7043
128.000000	61.109	135.0054
131.500000	61.230	134.7285
132.000000	61.235	134.6176
134.000000	61.216	134.1392
136.000000	61.175	133.5292
138.000000	61.154	132.5672
140.000000	61.111	131.2413
143.000000	60.969	129.0585
145.000000	60.927	128.5926
147.500000	60.976	129.0972
150.000000	61.030	129.3577
152.500000	61.061	129.1578
155.000000	61.058	128.7161
157.500000	61.005	127.9728
160.000000	60.922	127.0099
162.500000	60.844	126.3616
165.000000	60.784	126.2317
167.500000	60.740	126.1518
170.000000	60.711	125.9053
172.500000	60.690	125.6078
175.000000	60.670	125.3273
177.500000	60.644	125.0601
180.000000	60.608	124.7814
182.500000	60.563	124.4658
185.000000	60.520	124.1373
187.500000	60.487	123.8235
190.000000	60.461	123.5287
192.500000	60.435	123.2272
195.000000	60.414	122.9157
197.500000	60.397	122.6264
200.000000	60.375	122.3627
203.000000	60.341	122.0358
206.000000	60.316	121.6754
209.000000	60.310	121.3281
212.000000	60.322	121.0883
214.000000	60.328	121.0046
218.000000	60.290	120.7768
220.000000	60.246	120.5594
224.000000	60.159	120.0396
227.000000	60.119	119.6528
230.000000	60.093	119.2842
233.000000	60.073	118.9423
236.000000	60.056	118.6194
240.000000	60.038	118.2116
243.000000	60.026	117.9270
247.000000	60.006	117.5291
250.000000	59.985	117.2142
254.000000	59.953	116.8379
258.000000	59.921	116.5184
262.000000	59.887	116.1955
265.000000	59.860	115.9365
269.000000	59.830	115.6032
272.000000	59.807	115.3800
276.000000	59.767	115.0949
280.000000	59.719	114.8009
285.000000	59.676	114.4609
290.000000	59.661	114.2035
295.000000	59.652	114.0456
300.000000	59.646	113.9493
304.000000	59.655	113.8727
307.000000	59.672	113.7942
311.000000	59.701	113.6355
315.000000	59.727	113.3753
320.000000	59.744	112.9049
325.000000	59.746	112.3807
330.000000	59.736	111.9044
335.000000	59.718	111.4862
340.000000	59.694	111.1000
345.000000	59.667	110.7477
350.000000	59.643	110.4548
355.000000	59.621	110.1969
360.000000	59.598	109.9377
365.000000	59.570	109.6808
370.000000	59.537	109.4217
375.000000	59.502	109.1650
382.000000	59.462	108.8624
387.000000	59.442	108.6695
395.000000	59.418	108.3401
400.000000	59.399	108.1466
406.000000	59.369	107.9990
412.000000	59.335	107.9086
418.000000	59.307	107.8126
425.000000	59.277	107.7353
431.000000	59.250	107.7040
437.000000	59.227	107.6449
444.000000	59.205	107.5545
450.000000	59.186	107.5072
455.000000	59.170	107.4913
462.000000	59.149	107.4796
468.000000	59.132	107.4698
475.000000	59.109	107.4609
482.000000	59.081	107.4827
487.000000	59.062	107.5311
494.000000	59.038	107.6237
500.000000	59.019	107.7134
508.000000	59.000	107.8745
515.000000	58.985	108.0622
522.000000	58.971	108.2821
530.000000	58.956	108.5696
538.000000	58.938	108.8635
545.000000	58.920	109.1088
552.000000	58.901	109.3613
560.000000	58.886	109.6724
570.000000	58.887	110.1020
580.000000	58.895	110.6343
590.000000	58.902	111.2405
600.000000	58.911	111.8649
608.000000	58.927	112.3656
615.000000	58.944	112.8060
622.000000	58.957	113.2482
630.000000	58.971	113.7278
640.000000	58.994	114.2780
650.000000	59.024	114.8662
660.000000	59.067	115.4994
670.000000	59.119	116.0823
680.000000	59.168	116.6248
690.000000	59.213	117.1961
700.000000	59.264	117.7968
710.000000	59.321	118.4116
720.000000	59.385	119.0359
730.000000	59.456	119.6472
740.000000	59.531	120.2306
750.000000	59.611	120.7746
762.000000	59.711	121.4191
775.000000	59.823	122.1365
788.000000	59.934	122.8124
800.000000	60.040	123.4075
812.000000	60.151	123.9745
825.000000	60.276	124.5407
838.000000	60.403	125.0616
850.000000	60.522	125.5214
862.000000	60.643	125.9614
875.000000	60.773	126.3741
885.000000	60.871	126.6455
900.000000	61.012	127.0243
912.000000	61.127	127.3083
925.000000	61.255	127.5787
938.000000	61.385	127.8200
950.000000	61.498	128.0390
962.000000	61.606	128.2421
975.000000	61.717	128.4241
988.000000	61.822	128.5777
1000.000000	61.917	128.7038
1015.000000	62.037	128.8317
1030.000000	62.160	128.9114
1044.000000	62.271	128.9401
1060.000000	62.389	128.9339
1075.000000	62.488	128.9162
1090.000000	62.582	128.8921
1106.000000	62.678	128.8516
1120.000000	62.759	128.8126
1138.000000	62.854	128.7905
1150.000000	62.909	128.7968
1172.000000	63.000	128.7978
1180.000000	63.031	128.7895
1206.000000	63.125	128.7669
1220.000000	63.168	128.7736
1241.000000	63.228	128.8325
1250.000000	63.253	128.8742
1265.000000	63.292	128.9625
1280.000000	63.329	129.0735
1315.000000	63.411	129.3933
1320.000000	63.421	129.4458
1340.000000	63.463	129.6835
1360.000000	63.502	129.9515
1380.000000	63.539	130.2237
1400.000000	63.575	130.5245
1430.000000	63.630	131.0953
1450.000000	63.670	131.5065
1475.000000	63.724	131.9935
1500.000000	63.780	132.4869
1525.000000	63.835	133.0135
1550.000000	63.892	133.5562
1575.000000	63.953	134.1143
1600.000000	64.016	134.6908
1625.000000	64.082	135.2731
1650.000000	64.154	135.8609
1675.000000	64.233	136.4579
1700.000000	64.316	137.0430
1725.000000	64.401	137.5984
1750.000000	64.487	138.1253
1775.000000	64.576	138.6336
1800.000000	64.671	139.1264
1825.000000	64.772	139.5960
1850.000000	64.875	140.0262
1875.000000	64.981	140.4052
1900.000000	65.088	140.7481
1925.000000	65.195	141.0720
1950.000000	65.300	141.3732
1975.000000	65.405	141.6397
2000.000000	65.512	141.8597
2030.000000	65.644	142.0567
2060.000000	65.773	142.1819
2090.000000	65.896	142.2233
2120.000000	66.013	142.1842
2140.000000	66.088	142.1206
2180.000000	66.231	141.9250
2200.000000	66.300	141.7971
2240.000000	66.430	141.4690
2270.000000	66.519	141.1579
2300.000000	66.597	140.7977
2330.000000	66.665	140.3901
2360.000000	66.719	139.9399
2400.000000	66.772	139.2961
2430.000000	66.795	138.7906
2470.000000	66.805	138.0934
2500.000000	66.797	137.5686
2540.000000	66.770	136.8943
2580.000000	66.722	136.2771
2620.000000	66.656	135.7210
2650.000000	66.598	135.3365
2690.000000	66.509	134.8758
2720.000000	66.435	134.5809
2760.000000	66.328	134.2611
2800.000000	66.213	134.0256
2850.000000	66.057	133.8705
2900.000000	65.892	133.8854
2950.000000	65.726	134.0329
3000.000000	65.561	134.2923
3040.000000	65.430	134.5669
3070.000000	65.332	134.8108
3110.000000	65.203	135.1844
3150.000000	65.074	135.6040
3200.000000	64.919	136.1706
3250.000000	64.773	136.7672
3300.000000	64.633	137.4016
3350.000000	64.497	138.0714
3400.000000	64.359	138.7542
3450.000000	64.217	139.4247
3500.000000	64.072	140.0786
3550.000000	63.916	140.7358
3600.000000	63.744	141.4228
3650.000000	63.552	142.1792
3700.000000	63.337	143.0791
3750.000000	63.099	144.2152
3820.000000	62.737	146.3963
3870.000000	62.485	148.4996
3950.000000	62.172	152.8463
4000.000000	62.075	156.0161
4060.000000	62.088	159.9536
4120.000000	62.247	163.7015
4180.000000	62.524	166.9951
4250.000000	62.939	170.0682
4310.000000	63.336	172.0052
4370.000000	63.749	173.3005
4440.000000	64.235	174.0039
4500.000000	64.633	173.9268
4550.000000	64.937	173.4110
4620.000000	65.298	172.0638
4680.000000	65.534	170.4147
4750.000000	65.708	168.0685
4820.000000	65.762	165.4587
4870.000000	65.726	163.5596
4940.000000	65.577	161.0405
5000.000000	65.367	159.1532
5080.000000	64.987	157.1902
5150.000000	64.585	156.0709
5220.000000	64.143	155.5298
5300.000000	63.615	155.5952
5380.000000	63.082	156.3419
5450.000000	62.629	157.5107
5520.000000	62.202	159.0970
5600.000000	61.757	161.3518
5700.000000	61.274	164.7715
5800.000000	60.895	168.7210
5900.000000	60.636	172.9743
6000.000000	60.500	177.3400
6080.000000	60.479	-179.2110
6150.000000	60.526	-176.2819
6220.000000	60.631	-173.4674
6300.000000	60.814	-170.4507
6400.000000	61.134	-167.1455
6500.000000	61.540	-164.5825
6600.000000	61.997	-162.9594
6700.000000	62.446	-162.4124
6800.000000	62.827	-162.9249
6900.000000	63.088	-164.2371
7000.000000	63.202	-165.8863
7100.000000	63.178	-167.3666
7200.000000	63.058	-168.3185
7300.000000	62.903	-168.6245
7400.000000	62.771	-168.3669
7500.000000	62.700	-167.7615
7620.000000	62.716	-166.9987
7750.000000	62.849	-166.6906
7880.000000	63.038	-167.3941
8000.000000	63.178	-169.1079
8120.000000	63.215	-171.7227
8250.000000	63.085	-175.1191
8380.000000	62.760	-178.4418
8500.000000	62.303	179.0738
8620.000000	61.739	177.4354
8750.000000	61.068	176.7056
8850.000000	60.546	176.8232
9000.000000	59.803	177.8927
9120.000000	59.272	179.3334
9250.000000	58.786	-178.7126
9380.000000	58.407	-176.5688
9500.000000	58.150	-174.6359
9620.000000	57.965	-172.9094
9750.000000	57.827	-171.4116
9880.000000	57.735	-170.4069
10000.000000	57.666	-169.9580
10150.000000	57.555	-170.0469
10300.000000	57.375	-170.7114
10440.000000	57.119	-171.6047
10600.000000	56.714	-172.6428
10750.000000	56.225	-173.3731
10900.000000	55.638	-173.6010
11060.000000	54.924	-173.0106
11200.000000	54.257	-171.6646
11380.000000	53.396	-168.7557
11500.000000	52.848	-166.1207
11720.000000	51.968	-159.9953
11800.000000	51.703	-157.4042
12060.000000	51.122	-147.9914
12200.000000	51.051	-142.5705
12410.000000	51.331	-134.6891
12500.000000	51.578	-131.6514
12650.000000	52.107	-127.3585
12800.000000	52.720	-124.2393
13150.000000	54.171	-121.6475
13200.000000	54.362	-121.7573
13400.000000	55.074	-123.2190
13600.000000	55.704	-126.2096
13800.000000	56.210	-130.7040
14000.000000	56.498	-136.5228
14300.000000	56.364	-145.6636
14500.000000	56.041	-150.2075
14750.000000	55.774	-155.1672
15000.000000	55.448	-162.3480
15250.000000	54.640	-169.9382
15500.000000	53.429	-175.1706
15750.000000	51.972	-176.0435
16000.000000	50.595	-170.0867
16250.000000	50.204	-159.2458
16500.000000	51.011	-151.8890
16750.000000	52.125	-151.5182
17000.000000	53.221	-155.7480
17250.000000	54.212	-163.5926
17500.000000	54.893	-175.1353
17750.000000	55.062	170.7586
18000.000000	54.657	156.6025
18250.000000	53.767	144.6677
18500.000000	52.584	135.7455
18750.000000	51.333	129.2533
19000.000000	50.191	124.0015
19250.000000	49.255	118.9095
19500.000000	48.590	113.4707
19750.000000	48.258	108.0945
