* Measurement data measured by REW V5.20.13
* Source: Microfone (6- USB Sound Device        ), MICROPHONE (Volume geral), L, volume: 0,250
* Format: 256k Log Swept Sine, 1 sweep at -12,0 dBFS with no timing reference
* Dated: 5/jun/2023 0:12:52
* REW Settings:
*  C-weighting compensation: Off
*  Target level: 75.0 dB
* Note: ; 
* Measurement: Moondrop Blessing 3 L
* Smoothing: 1/12 octave
* Frequency Step: 1/48 octave
* Start Frequency: 20.300 Hz
*
* Freq(Hz)	SPL(dB)	Phase(degrees)
20.299999	68.215	-10.2579
20.600000	68.215	-10.3162
20.900000	68.221	-10.4768
21.200001	68.237	-10.7759
21.400000	68.249	-11.0740
21.799999	68.252	-11.8624
22.000000	68.236	-12.3016
22.400000	68.161	-13.1041
22.700001	68.080	-13.5112
23.000000	67.999	-13.6936
23.299999	67.939	-13.7056
23.600000	67.907	-13.6454
24.000000	67.902	-13.6186
24.299999	67.908	-13.7215
24.700001	67.902	-14.0195
25.000000	67.876	-14.3030
25.400000	67.813	-14.6776
25.799999	67.737	-15.0226
26.200001	67.669	-15.3889
26.500000	67.629	-15.7133
26.900000	67.589	-16.2103
27.200001	67.565	-16.5875
27.600000	67.538	-17.0110
28.000000	67.516	-17.2707
28.500000	67.502	-17.3890
29.000000	67.505	-17.4932
29.500000	67.512	-17.8483
30.000000	67.505	-18.5821
30.400000	67.479	-19.3598
30.700001	67.449	-19.9572
31.100000	67.399	-20.6326
31.500000	67.352	-21.0855
32.000000	67.306	-21.3634
32.500000	67.262	-21.5060
33.000000	67.185	-21.6767
33.500000	67.056	-21.8457
34.000000	66.897	-21.8940
34.500000	66.769	-21.8378
35.000000	66.710	-21.8675
35.500000	66.712	-22.1753
36.000000	66.729	-22.7502
36.500000	66.725	-23.4134
37.000000	66.693	-23.9879
37.500000	66.643	-24.4327
38.200001	66.574	-24.9401
38.700001	66.532	-25.2691
39.500000	66.479	-25.6858
40.000000	66.450	-25.8664
40.599998	66.402	-26.0704
41.200001	66.318	-26.3412
41.799999	66.184	-26.6521
42.500000	65.994	-26.9116
43.099998	65.861	-27.0066
43.700001	65.795	-27.1341
44.400002	65.785	-27.4931
45.000000	65.789	-27.9062
45.500000	65.780	-28.1753
46.200001	65.750	-28.3341
46.799999	65.710	-28.3454
47.500000	65.630	-28.3646
48.200001	65.504	-28.3495
48.700001	65.401	-28.2335
49.400002	65.296	-27.9779
50.000000	65.271	-27.9517
50.799999	65.278	-28.5484
51.500000	65.239	-29.4122
52.200001	65.143	-30.0372
53.000000	65.031	-30.1908
53.799999	64.963	-29.9905
54.500000	64.923	-29.7387
55.200001	64.872	-29.5224
56.000000	64.785	-29.4677
57.000000	64.656	-29.8285
58.000000	64.578	-30.4720
59.000000	64.562	-31.0619
60.000000	64.520	-31.5389
60.799999	64.434	-31.9634
61.500000	64.352	-32.4336
62.200001	64.298	-32.9559
63.000000	64.278	-33.3948
64.000000	64.275	-33.3062
65.000000	64.245	-32.6437
66.000000	64.162	-32.1568
67.000000	64.027	-32.2823
68.000000	63.857	-32.8015
69.000000	63.670	-33.2727
70.000000	63.504	-33.4778
71.000000	63.412	-33.5103
72.000000	63.404	-33.4644
73.000000	63.430	-33.2181
74.000000	63.422	-32.7162
75.000000	63.345	-32.2153
76.199997	63.193	-32.1250
77.500000	63.044	-32.7800
78.800003	62.922	-33.4577
80.000000	62.810	-33.3980
81.199997	62.728	-32.8598
82.500000	62.677	-32.3954
83.800003	62.625	-32.4153
85.000000	62.544	-32.7918
86.199997	62.424	-33.0579
87.500000	62.280	-32.9152
88.500000	62.189	-32.5963
90.000000	62.103	-32.1011
91.199997	62.043	-31.9134
92.500000	61.949	-31.8759
93.800003	61.829	-31.8223
95.000000	61.709	-31.7299
96.199997	61.597	-31.7426
97.500000	61.509	-31.9631
98.800003	61.463	-32.1867
100.000000	61.416	-32.2413
101.500000	61.290	-32.2448
103.000000	61.165	-32.3567
104.400002	61.123	-32.4613
106.000000	61.110	-32.3169
107.500000	61.114	-31.9527
109.000000	61.105	-31.2558
110.599998	61.046	-29.8349
112.000000	61.001	-28.7247
113.800003	60.956	-28.7716
115.000000	60.897	-29.3598
117.199997	60.734	-30.1351
118.000000	60.667	-30.3570
120.599998	60.418	-30.6857
122.000000	60.295	-30.1834
124.099998	60.121	-29.1426
125.000000	60.031	-28.8508
126.500000	59.865	-28.5295
128.000000	59.711	-28.1451
131.500000	59.488	-26.6602
132.000000	59.473	-26.4687
134.000000	59.443	-25.8675
136.000000	59.410	-25.0954
138.000000	59.329	-24.3101
140.000000	59.211	-24.3267
143.000000	58.999	-25.2364
145.000000	58.870	-25.3504
147.500000	58.736	-24.8702
150.000000	58.620	-23.8214
152.500000	58.535	-22.0117
155.000000	58.534	-20.2017
157.500000	58.602	-18.8959
160.000000	58.653	-17.9845
162.500000	58.654	-17.6720
165.000000	58.643	-17.7637
167.500000	58.627	-17.7286
170.000000	58.565	-17.4578
172.500000	58.519	-17.0739
175.000000	58.527	-16.5176
177.500000	58.532	-15.8918
180.000000	58.557	-15.7135
182.500000	58.578	-16.0216
185.000000	58.502	-16.2390
187.500000	58.352	-15.8496
190.000000	58.221	-14.8742
192.500000	58.174	-13.8964
195.000000	58.212	-13.3919
197.500000	58.295	-13.2443
200.000000	58.382	-13.1105
203.000000	58.428	-12.7471
206.000000	58.358	-12.3144
209.000000	58.209	-11.8787
212.000000	58.071	-11.4272
214.000000	58.015	-11.1862
218.000000	57.972	-10.8487
220.000000	57.945	-10.5675
224.000000	57.870	-9.7505
227.000000	57.859	-9.2258
230.000000	57.887	-8.8843
233.000000	57.896	-8.5556
236.000000	57.845	-7.9888
240.000000	57.743	-6.6667
243.000000	57.718	-5.2860
247.000000	57.758	-3.4001
250.000000	57.808	-2.1326
254.000000	57.885	-0.6772
258.000000	58.001	-0.0161
262.000000	58.107	-0.1482
265.000000	58.124	-0.3492
269.000000	58.111	-0.5447
272.000000	58.131	-0.5835
276.000000	58.187	-0.3445
280.000000	58.222	0.3310
285.000000	58.212	1.3664
290.000000	58.184	1.8397
295.000000	58.156	1.8070
300.000000	58.116	1.7668
304.000000	58.091	2.1015
307.000000	58.084	2.5214
311.000000	58.075	2.9281
315.000000	58.036	3.0439
320.000000	57.970	3.3367
325.000000	57.941	4.1367
330.000000	57.989	5.0940
335.000000	58.101	5.8264
340.000000	58.175	6.2232
345.000000	58.153	6.5118
350.000000	58.104	6.8313
355.000000	58.091	7.0818
360.000000	58.110	7.2389
365.000000	58.146	7.5062
370.000000	58.179	7.8631
375.000000	58.187	8.1247
382.000000	58.149	8.4677
387.000000	58.132	8.9260
395.000000	58.202	9.5096
400.000000	58.292	9.5996
406.000000	58.369	9.7727
412.000000	58.383	10.1130
418.000000	58.359	10.4723
425.000000	58.315	11.0368
431.000000	58.303	11.8272
437.000000	58.298	12.6921
444.000000	58.278	13.4603
450.000000	58.271	13.7146
455.000000	58.297	13.7404
462.000000	58.366	14.0033
468.000000	58.415	14.4378
475.000000	58.446	14.9644
482.000000	58.450	15.6305
487.000000	58.435	16.1695
494.000000	58.384	16.7340
500.000000	58.316	17.0047
508.000000	58.255	17.2311
515.000000	58.290	17.2683
522.000000	58.376	17.2883
530.000000	58.461	17.6376
538.000000	58.517	18.2661
545.000000	58.539	18.7850
552.000000	58.518	19.1295
560.000000	58.448	19.2832
570.000000	58.365	19.3555
580.000000	58.359	19.6675
590.000000	58.362	20.5102
600.000000	58.320	21.6745
608.000000	58.296	22.3873
615.000000	58.306	22.7474
622.000000	58.342	22.9765
630.000000	58.395	23.2040
640.000000	58.449	23.5684
650.000000	58.505	24.0533
660.000000	58.552	24.6474
670.000000	58.571	25.3042
680.000000	58.599	26.1148
690.000000	58.654	26.9910
700.000000	58.703	27.6591
710.000000	58.719	28.0889
720.000000	58.715	28.4667
730.000000	58.697	28.8810
740.000000	58.669	29.3870
750.000000	58.668	29.9978
762.000000	58.720	30.7705
775.000000	58.788	31.4721
788.000000	58.845	32.3105
800.000000	58.895	33.3069
812.000000	58.928	34.2603
825.000000	58.963	35.0085
838.000000	59.028	35.4849
850.000000	59.103	35.9270
862.000000	59.160	36.5028
875.000000	59.192	37.3984
885.000000	59.216	38.2309
900.000000	59.300	39.3186
912.000000	59.391	39.9056
925.000000	59.485	40.3533
938.000000	59.568	40.7274
950.000000	59.631	41.1175
962.000000	59.696	41.6675
975.000000	59.786	42.3815
988.000000	59.893	42.9822
1000.000000	59.999	43.4864
1015.000000	60.144	44.2679
1030.000000	60.292	44.9597
1044.000000	60.412	45.4162
1060.000000	60.511	45.9552
1075.000000	60.599	46.5434
1090.000000	60.701	46.9760
1106.000000	60.818	47.0794
1120.000000	60.926	46.9896
1138.000000	61.073	46.8345
1150.000000	61.175	46.7890
1172.000000	61.373	46.9640
1180.000000	61.442	47.0924
1206.000000	61.609	47.5496
1220.000000	61.669	47.7657
1241.000000	61.749	47.9594
1250.000000	61.780	47.9943
1265.000000	61.822	48.0840
1280.000000	61.858	48.3289
1315.000000	61.972	49.1518
1320.000000	61.993	49.1968
1340.000000	62.066	49.0915
1360.000000	62.116	48.8625
1380.000000	62.173	48.9291
1400.000000	62.258	49.2423
1430.000000	62.416	49.7045
1450.000000	62.500	49.9627
1475.000000	62.557	50.2980
1500.000000	62.614	50.6904
1525.000000	62.716	51.4467
1550.000000	62.826	52.2241
1575.000000	62.903	52.6352
1600.000000	62.957	52.7868
1625.000000	63.038	52.8677
1650.000000	63.151	53.0302
1675.000000	63.266	53.2571
1700.000000	63.375	53.5821
1725.000000	63.479	54.0319
1750.000000	63.573	54.5425
1775.000000	63.657	55.0039
1800.000000	63.739	55.3181
1825.000000	63.822	55.5210
1850.000000	63.903	55.8050
1875.000000	63.995	56.2621
1900.000000	64.108	56.7961
1925.000000	64.230	57.2947
1950.000000	64.347	57.7545
1975.000000	64.458	58.2138
2000.000000	64.568	58.5913
2030.000000	64.712	58.8259
2060.000000	64.875	58.9515
2090.000000	65.057	59.0456
2120.000000	65.246	59.1202
2140.000000	65.370	59.1882
2180.000000	65.608	59.3536
2200.000000	65.716	59.4104
2240.000000	65.923	59.4478
2270.000000	66.090	59.4451
2300.000000	66.277	59.4729
2330.000000	66.471	59.4999
2360.000000	66.661	59.4083
2400.000000	66.906	59.0403
2430.000000	67.091	58.6659
2470.000000	67.343	58.1619
2500.000000	67.532	57.7444
2540.000000	67.786	57.0455
2580.000000	68.039	56.1622
2620.000000	68.278	55.1520
2650.000000	68.445	54.3836
2690.000000	68.657	53.3317
2720.000000	68.812	52.4801
2760.000000	69.007	51.2279
2800.000000	69.174	49.8121
2850.000000	69.349	47.8742
2900.000000	69.495	45.8497
2950.000000	69.602	43.7387
3000.000000	69.666	41.5674
3040.000000	69.687	39.8302
3070.000000	69.687	38.5442
3110.000000	69.671	36.8721
3150.000000	69.642	35.2763
3200.000000	69.586	33.4173
3250.000000	69.500	31.7487
3300.000000	69.381	30.3088
3350.000000	69.237	29.0634
3400.000000	69.087	27.9416
3450.000000	68.950	26.9271
3500.000000	68.830	25.9740
3550.000000	68.728	25.0339
3600.000000	68.627	24.1663
3650.000000	68.510	23.4807
3700.000000	68.382	22.9765
3750.000000	68.255	22.5344
3820.000000	68.093	21.8877
3870.000000	67.981	21.4418
3950.000000	67.792	20.8617
4000.000000	67.676	20.6364
4060.000000	67.548	20.5616
4120.000000	67.443	20.6726
4180.000000	67.356	20.8619
4250.000000	67.264	20.9662
4310.000000	67.199	20.9296
4370.000000	67.146	20.8843
4440.000000	67.086	20.8686
4500.000000	67.041	20.8075
4550.000000	67.013	20.6929
4620.000000	66.980	20.4730
4680.000000	66.952	20.2823
4750.000000	66.914	20.0550
4820.000000	66.872	19.7785
4870.000000	66.835	19.5916
4940.000000	66.765	19.4317
5000.000000	66.698	19.3870
5080.000000	66.621	19.3913
5150.000000	66.564	19.4443
5220.000000	66.512	19.5380
5300.000000	66.467	19.6917
5380.000000	66.448	19.9290
5450.000000	66.466	20.1704
5520.000000	66.534	20.3315
5600.000000	66.673	20.2730
5700.000000	66.899	19.5583
5800.000000	67.116	17.7573
5900.000000	67.230	14.7730
6000.000000	67.129	11.0337
6080.000000	66.860	8.0780
6150.000000	66.498	5.9477
6220.000000	66.043	4.5198
6300.000000	65.457	3.9248
6400.000000	64.704	4.7320
6500.000000	64.017	6.9474
6600.000000	63.486	10.0979
6700.000000	63.159	13.7680
6800.000000	63.023	17.6590
6900.000000	63.053	21.4568
7000.000000	63.229	24.9231
7100.000000	63.543	28.0167
7200.000000	63.984	30.6650
7300.000000	64.528	32.6381
7400.000000	65.167	33.7439
7500.000000	65.887	33.7969
7620.000000	66.792	32.0957
7750.000000	67.686	27.6688
7880.000000	68.340	20.4762
8000.000000	68.606	11.8274
8120.000000	68.466	2.3633
8250.000000	67.858	-7.0391
8380.000000	66.873	-14.1215
8500.000000	65.751	-18.1697
8620.000000	64.541	-20.0617
8750.000000	63.263	-20.2753
8850.000000	62.365	-19.4747
9000.000000	61.201	-17.0829
9120.000000	60.422	-14.3699
9250.000000	59.714	-10.8095
9380.000000	59.136	-6.9454
9500.000000	58.717	-3.3889
9620.000000	58.418	0.1420
9750.000000	58.251	3.9658
9880.000000	58.226	7.5722
10000.000000	58.266	10.5255
10150.000000	58.351	13.8123
10300.000000	58.493	16.6644
10440.000000	58.699	18.7034
10600.000000	58.995	20.0437
10750.000000	59.272	20.1804
10900.000000	59.493	19.3349
11060.000000	59.621	17.5825
11200.000000	59.625	15.6212
11380.000000	59.478	13.2227
11500.000000	59.302	12.0866
11720.000000	58.886	11.2291
11800.000000	58.718	11.2452
12060.000000	58.197	12.2739
12200.000000	57.968	13.2983
12410.000000	57.660	15.0343
12500.000000	57.533	15.8554
12650.000000	57.334	17.3449
12800.000000	57.169	18.9791
13150.000000	56.898	23.6239
13200.000000	56.867	24.3811
13400.000000	56.794	27.5371
13600.000000	56.844	30.8406
13800.000000	57.069	34.2305
14000.000000	57.518	37.5740
14300.000000	58.663	41.4666
14500.000000	59.654	42.0407
14750.000000	60.944	39.4346
15000.000000	62.039	32.7569
15250.000000	62.712	22.8289
15500.000000	62.856	12.2193
15750.000000	62.571	3.4022
16000.000000	62.134	-2.8455
16250.000000	61.834	-7.0922
16500.000000	61.870	-10.7285
16750.000000	62.189	-15.5541
17000.000000	62.525	-22.8279
17250.000000	62.668	-32.4049
17500.000000	62.533	-43.2030
17750.000000	62.091	-54.1391
18000.000000	61.364	-64.3623
18250.000000	60.419	-73.0700
18500.000000	59.343	-79.7876
18750.000000	58.270	-84.8413
19000.000000	57.351	-89.3859
19250.000000	56.649	-94.6692
19500.000000	56.110	-100.9767
19750.000000	55.686	-107.2730
