* Measurement data measured by REW V5.20.13
* Source: Microfone (6- USB Sound Device        ), MICROPHONE (Volume geral), L, volume: 0,250
* Format: 256k Log Swept Sine, 1 sweep at -12,0 dBFS with no timing reference
* Dated: 22/jun/2023 8:59:39
* REW Settings:
*  C-weighting compensation: Off
*  Target level: 75.0 dB
* Note: ; 
* Measurement: Symphonium Helios SE S2 L
* Smoothing: 1/12 octave
* Frequency Step: 1/48 octave
* Start Frequency: 20.300 Hz
*
* Freq(Hz)	SPL(dB)	Phase(degrees)
20.299999	63.938	175.4199
20.600000	63.930	175.0114
20.900000	63.911	174.1290
21.200001	63.894	173.1061
21.400000	63.882	172.4019
21.799999	63.854	171.0512
22.000000	63.834	170.4638
22.400000	63.782	169.5635
22.700001	63.737	169.1381
23.000000	63.695	168.8549
23.299999	63.663	168.5707
23.600000	63.639	168.1455
24.000000	63.614	167.1790
24.299999	63.594	166.1010
24.700001	63.562	164.2648
25.000000	63.534	162.7221
25.400000	63.493	160.6677
25.799999	63.447	158.8790
26.200001	63.388	157.5779
26.500000	63.332	156.9932
26.900000	63.245	156.7194
27.200001	63.174	156.7982
27.600000	63.077	157.0787
28.000000	62.980	157.3016
28.500000	62.857	157.2529
29.000000	62.739	156.8637
29.500000	62.657	156.3260
30.000000	62.644	155.7437
30.400000	62.676	155.2108
30.700001	62.709	154.7515
31.100000	62.736	154.0897
31.500000	62.723	153.4577
32.000000	62.643	152.8673
32.500000	62.515	152.5718
33.000000	62.383	152.4543
33.500000	62.279	152.2870
34.000000	62.212	151.8581
34.500000	62.175	151.0917
35.000000	62.149	150.0642
35.500000	62.118	148.9569
36.000000	62.078	147.9496
36.500000	62.028	147.1379
37.000000	61.969	146.5294
37.500000	61.901	146.0956
38.200001	61.793	145.7719
38.700001	61.716	145.7446
39.500000	61.619	145.8655
40.000000	61.568	145.8361
40.599998	61.490	145.5143
41.200001	61.380	144.8244
41.799999	61.238	143.8144
42.500000	61.047	142.4282
43.099998	60.876	141.3566
43.700001	60.723	140.6401
44.400002	60.603	140.2488
45.000000	60.558	140.0608
45.500000	60.542	139.8609
46.200001	60.519	139.4880
46.799999	60.475	139.1520
47.500000	60.382	138.8260
48.200001	60.250	138.6069
48.700001	60.146	138.4959
49.400002	60.011	138.3195
50.000000	59.917	138.0935
50.799999	59.825	137.7062
51.500000	59.770	137.3232
52.200001	59.724	136.8907
53.000000	59.657	136.3736
53.799999	59.563	135.9217
54.500000	59.466	135.6030
55.200001	59.364	135.3616
56.000000	59.265	135.2078
57.000000	59.195	135.2258
58.000000	59.174	135.4021
59.000000	59.149	135.3412
60.000000	59.040	134.7861
60.799999	58.890	134.2335
61.500000	58.750	133.8276
62.200001	58.624	133.4883
63.000000	58.498	133.1071
64.000000	58.361	132.5317
65.000000	58.250	131.8625
66.000000	58.177	131.2688
67.000000	58.132	130.8473
68.000000	58.073	130.5948
69.000000	57.985	130.4403
70.000000	57.873	130.2912
71.000000	57.748	130.1411
72.000000	57.626	129.9790
73.000000	57.513	129.7394
74.000000	57.409	129.4075
75.000000	57.315	129.0079
76.199997	57.206	128.5185
77.500000	57.098	128.1496
78.800003	57.009	127.9314
80.000000	56.926	127.8114
81.199997	56.829	127.8315
82.500000	56.704	127.9367
83.800003	56.574	127.8656
85.000000	56.469	127.5561
86.199997	56.370	127.1933
87.500000	56.241	126.9044
88.500000	56.134	126.7607
90.000000	56.001	126.7089
91.199997	55.922	126.7556
92.500000	55.844	126.6945
93.800003	55.764	126.5063
95.000000	55.686	126.3922
96.199997	55.604	126.4019
97.500000	55.513	126.4979
98.800003	55.429	126.6165
100.000000	55.354	126.7052
101.500000	55.254	126.7668
103.000000	55.141	126.7351
104.400002	55.036	126.5742
106.000000	54.947	126.2864
107.500000	54.895	126.1375
109.000000	54.842	126.2227
110.599998	54.771	126.3695
112.000000	54.698	126.3865
113.800003	54.590	126.4780
115.000000	54.513	126.7197
117.199997	54.390	127.3023
118.000000	54.373	127.4554
120.599998	54.469	127.6105
122.000000	54.501	127.4201
124.099998	54.359	126.8748
125.000000	54.259	126.7038
126.500000	54.097	126.5847
128.000000	53.955	126.5455
131.500000	53.698	125.8507
132.000000	53.664	125.6899
134.000000	53.518	125.1873
136.000000	53.364	125.0870
138.000000	53.254	125.3127
140.000000	53.210	125.5956
143.000000	53.142	125.8156
145.000000	53.070	125.8932
147.500000	53.000	125.7990
150.000000	52.955	125.6364
152.500000	52.895	125.6524
155.000000	52.817	125.8011
157.500000	52.732	126.0002
160.000000	52.640	126.1108
162.500000	52.545	126.1228
165.000000	52.458	126.2148
167.500000	52.376	126.4452
170.000000	52.314	126.6156
172.500000	52.266	126.6147
175.000000	52.222	126.6133
177.500000	52.172	126.7689
180.000000	52.110	127.0473
182.500000	52.044	127.2178
185.000000	51.985	127.0952
187.500000	51.929	126.8049
190.000000	51.865	126.6096
192.500000	51.800	126.6257
195.000000	51.749	126.7294
197.500000	51.714	126.7871
200.000000	51.681	126.8567
203.000000	51.630	127.0465
206.000000	51.573	127.2919
209.000000	51.517	127.5003
212.000000	51.470	127.6231
214.000000	51.448	127.6727
218.000000	51.416	127.8349
220.000000	51.409	127.9592
224.000000	51.402	128.1467
227.000000	51.369	128.1014
230.000000	51.305	127.9829
233.000000	51.236	127.9688
236.000000	51.191	128.1418
240.000000	51.181	128.4835
243.000000	51.182	128.6512
247.000000	51.161	128.7542
250.000000	51.124	128.8052
254.000000	51.052	128.9142
258.000000	50.978	129.0699
262.000000	50.941	129.2590
265.000000	50.946	129.4237
269.000000	50.977	129.6202
272.000000	50.993	129.6914
276.000000	50.985	129.7199
280.000000	50.953	129.8997
285.000000	50.917	130.4378
290.000000	50.906	131.0147
295.000000	50.911	131.3737
300.000000	50.923	131.6504
304.000000	50.950	132.0147
307.000000	50.986	132.4092
311.000000	51.056	132.9736
315.000000	51.140	133.3876
320.000000	51.243	133.5035
325.000000	51.316	133.2303
330.000000	51.356	132.8446
335.000000	51.400	132.5059
340.000000	51.459	132.2537
345.000000	51.509	132.0444
350.000000	51.549	131.8375
355.000000	51.573	131.6775
360.000000	51.573	131.6154
365.000000	51.558	131.6544
370.000000	51.551	131.7138
375.000000	51.571	131.7252
382.000000	51.651	131.6476
387.000000	51.722	131.5812
395.000000	51.804	131.6305
400.000000	51.833	131.7403
406.000000	51.857	131.8593
412.000000	51.891	131.9507
418.000000	51.945	131.9715
425.000000	52.021	131.9418
431.000000	52.089	131.9460
437.000000	52.155	131.9872
444.000000	52.227	132.0335
450.000000	52.288	132.0306
455.000000	52.340	131.9554
462.000000	52.413	131.7249
468.000000	52.477	131.5039
475.000000	52.556	131.3200
482.000000	52.635	131.2264
487.000000	52.690	131.1661
494.000000	52.762	131.0341
500.000000	52.823	130.8865
508.000000	52.895	130.6774
515.000000	52.959	130.4760
522.000000	53.033	130.2219
530.000000	53.114	129.8544
538.000000	53.176	129.5046
545.000000	53.220	129.2648
552.000000	53.266	129.0546
560.000000	53.326	128.7734
570.000000	53.410	128.3392
580.000000	53.483	127.9085
590.000000	53.557	127.4036
600.000000	53.641	126.8829
608.000000	53.700	126.5532
615.000000	53.746	126.3006
622.000000	53.788	126.0399
630.000000	53.834	125.7218
640.000000	53.890	125.3086
650.000000	53.944	124.9356
660.000000	53.994	124.6374
670.000000	54.041	124.3852
680.000000	54.079	124.1101
690.000000	54.106	123.7873
700.000000	54.131	123.4698
710.000000	54.151	123.2402
720.000000	54.159	123.0980
730.000000	54.155	122.9684
740.000000	54.149	122.8100
750.000000	54.152	122.6642
762.000000	54.167	122.5400
775.000000	54.180	122.4682
788.000000	54.191	122.5116
800.000000	54.206	122.5508
812.000000	54.225	122.4955
825.000000	54.244	122.4315
838.000000	54.250	122.4975
850.000000	54.244	122.7001
862.000000	54.249	122.9401
875.000000	54.276	123.2020
885.000000	54.307	123.4418
900.000000	54.357	123.8217
912.000000	54.391	124.0801
925.000000	54.420	124.3228
938.000000	54.451	124.6080
950.000000	54.484	124.9383
962.000000	54.517	125.2770
975.000000	54.544	125.5991
988.000000	54.572	125.8993
1000.000000	54.616	126.1868
1015.000000	54.700	126.5691
1030.000000	54.794	126.9619
1044.000000	54.879	127.3064
1060.000000	54.973	127.6745
1075.000000	55.060	127.9939
1090.000000	55.146	128.2826
1106.000000	55.235	128.6054
1120.000000	55.310	128.9128
1138.000000	55.399	129.2925
1150.000000	55.456	129.5280
1172.000000	55.561	129.9469
1180.000000	55.599	130.0942
1206.000000	55.733	130.5181
1220.000000	55.811	130.7115
1241.000000	55.927	130.9756
1250.000000	55.974	131.0795
1265.000000	56.048	131.2489
1280.000000	56.123	131.4338
1315.000000	56.307	131.9931
1320.000000	56.332	132.0757
1340.000000	56.425	132.3826
1360.000000	56.518	132.6577
1380.000000	56.623	132.9207
1400.000000	56.741	133.1766
1430.000000	56.915	133.5497
1450.000000	57.015	133.7715
1475.000000	57.134	134.0425
1500.000000	57.260	134.2810
1525.000000	57.395	134.4932
1550.000000	57.536	134.7411
1575.000000	57.668	135.0332
1600.000000	57.789	135.2924
1625.000000	57.912	135.5143
1650.000000	58.047	135.7537
1675.000000	58.187	135.9670
1700.000000	58.329	136.0626
1725.000000	58.474	136.0349
1750.000000	58.618	135.9830
1775.000000	58.758	135.9640
1800.000000	58.894	135.9492
1825.000000	59.028	135.8883
1850.000000	59.158	135.7427
1875.000000	59.283	135.5332
1900.000000	59.403	135.2917
1925.000000	59.519	135.0305
1950.000000	59.632	134.7468
1975.000000	59.742	134.4265
2000.000000	59.850	134.0484
2030.000000	59.977	133.5243
2060.000000	60.094	132.9824
2090.000000	60.199	132.4246
2120.000000	60.298	131.8226
2140.000000	60.359	131.3979
2180.000000	60.461	130.4831
2200.000000	60.501	129.9967
2240.000000	60.559	128.9962
2270.000000	60.590	128.2389
2300.000000	60.613	127.4948
2330.000000	60.625	126.7674
2360.000000	60.623	126.0506
2400.000000	60.597	125.1472
2430.000000	60.562	124.5333
2470.000000	60.501	123.7959
2500.000000	60.449	123.2892
2540.000000	60.369	122.6549
2580.000000	60.276	122.0764
2620.000000	60.173	121.5780
2650.000000	60.091	121.2560
2690.000000	59.975	120.9008
2720.000000	59.883	120.7072
2760.000000	59.752	120.5572
2800.000000	59.618	120.5063
2850.000000	59.450	120.5661
2900.000000	59.281	120.7893
2950.000000	59.120	121.1738
3000.000000	58.967	121.6655
3040.000000	58.850	122.1098
3070.000000	58.764	122.4956
3110.000000	58.652	123.1043
3150.000000	58.547	123.8067
3200.000000	58.427	124.7725
3250.000000	58.322	125.8194
3300.000000	58.235	126.9546
3350.000000	58.165	128.1552
3400.000000	58.114	129.3515
3450.000000	58.083	130.4640
3500.000000	58.068	131.4901
3550.000000	58.067	132.4648
3600.000000	58.074	133.4218
3650.000000	58.084	134.3614
3700.000000	58.105	135.2806
3750.000000	58.139	136.2181
3820.000000	58.211	137.5323
3870.000000	58.281	138.3781
3950.000000	58.417	139.4627
4000.000000	58.507	139.9512
4060.000000	58.615	140.3307
4120.000000	58.724	140.4738
4180.000000	58.831	140.3501
4250.000000	58.930	139.8395
4310.000000	58.974	139.1181
4370.000000	58.967	138.1770
4440.000000	58.878	136.9006
4500.000000	58.715	135.8111
4550.000000	58.515	135.0405
4620.000000	58.136	134.4108
4680.000000	57.729	134.5080
4750.000000	57.182	135.6157
4820.000000	56.623	137.9911
4870.000000	56.271	140.4988
4940.000000	55.926	144.9832
5000.000000	55.823	149.3658
5080.000000	56.006	155.1287
5150.000000	56.418	159.3258
5220.000000	56.959	162.2402
5300.000000	57.594	163.8309
5380.000000	58.135	163.7441
5450.000000	58.482	162.6454
5520.000000	58.699	160.9898
5600.000000	58.794	158.8927
5700.000000	58.714	156.5936
5800.000000	58.474	155.0767
5900.000000	58.142	154.5209
6000.000000	57.787	154.8693
6080.000000	57.516	155.6825
6150.000000	57.292	156.7069
6220.000000	57.083	157.9788
6300.000000	56.875	159.6766
6400.000000	56.682	162.0585
6500.000000	56.568	164.6503
6600.000000	56.526	167.3460
6700.000000	56.558	170.0883
6800.000000	56.660	172.8536
6900.000000	56.833	175.5312
7000.000000	57.082	177.9477
7100.000000	57.416	179.9629
7200.000000	57.827	-178.5481
7300.000000	58.297	-177.7511
7400.000000	58.800	-177.8223
7500.000000	59.300	-178.9168
7620.000000	59.833	178.2787
7750.000000	60.224	173.4564
7880.000000	60.326	167.3215
8000.000000	60.118	161.3821
8120.000000	59.617	156.0921
8250.000000	58.797	151.9063
8380.000000	57.794	149.8297
8500.000000	56.819	149.8558
8620.000000	55.907	151.4280
8750.000000	55.102	154.1798
8850.000000	54.639	156.4949
9000.000000	54.141	159.5261
9120.000000	53.818	161.2730
9250.000000	53.444	162.6034
9380.000000	52.992	163.8230
9500.000000	52.520	165.3064
9620.000000	52.035	167.3683
9750.000000	51.540	170.2404
9880.000000	51.104	173.5921
10000.000000	50.762	176.9352
10150.000000	50.422	-178.7263
10300.000000	50.180	-174.3480
10440.000000	50.039	-170.3329
10600.000000	49.956	-165.8660
10750.000000	49.936	-161.8095
10900.000000	49.965	-157.9212
11060.000000	50.057	-153.9450
11200.000000	50.192	-150.6073
11380.000000	50.425	-146.6544
11500.000000	50.604	-144.2852
11720.000000	50.972	-140.3845
11800.000000	51.120	-139.0735
12060.000000	51.689	-135.1262
12200.000000	52.069	-133.2405
12410.000000	52.738	-130.8890
12500.000000	53.064	-130.1052
12650.000000	53.671	-129.1934
12800.000000	54.361	-128.9375
13150.000000	56.204	-132.4602
13200.000000	56.471	-133.6307
13400.000000	57.441	-140.5179
13600.000000	58.075	-151.0905
13800.000000	58.158	-164.3152
14000.000000	57.572	-177.5590
14300.000000	55.542	168.7101
14500.000000	53.671	165.7209
14750.000000	51.161	168.8277
15000.000000	49.031	177.4030
15250.000000	47.963	-172.9034
15500.000000	47.894	-166.7406
15750.000000	48.052	-165.1740
16000.000000	47.965	-165.6386
16250.000000	47.643	-165.3141
16500.000000	47.328	-163.3424
16750.000000	47.238	-160.7684
17000.000000	47.332	-159.0421
17250.000000	47.440	-158.4369
17500.000000	47.491	-158.2323
17750.000000	47.551	-157.7640
18000.000000	47.705	-156.9974
18250.000000	47.976	-156.4261
18500.000000	48.357	-156.5222
18750.000000	48.842	-157.5944
19000.000000	49.393	-159.9767
19250.000000	49.928	-163.9226
19500.000000	50.351	-169.2259
19750.000000	50.597	-174.8246
