* Measurement data measured by REW V5.19
* Source: ASIO MOTU M Series, In 1
* Format: 1M Log Swept Sine, 1 sweep at -3.0 dBFS  With no timing reference
* Dated: 7 Feb, 2023 3:26:13 PM
* REW Settings:
*  C-weighting compensation: Off
*  Target level: 75.0 dB
* Note: ; 
* Measurement: Feb 7 15:26:13
* Smoothing: 1/48 octave
* Frequency Step: 1/48 octave
* Start Frequency: 10.1 Hz
*
* Freq(Hz), SPL(dB), Phase(degrees)
10.145, 72.821, -135.200
10.293, 72.835, -135.848
10.443, 72.850, -136.716
10.595, 72.871, -137.849
10.749, 72.891, -139.024
10.905, 72.903, -139.906
11.064, 72.911, -140.678
11.225, 72.922, -141.552
11.388, 72.934, -142.462
11.554, 72.946, -143.333
11.722, 72.957, -144.177
11.892, 72.969, -145.011
12.065, 72.980, -145.838
12.241, 72.991, -146.682
12.419, 73.002, -147.533
12.599, 73.011, -148.360
12.782, 73.019, -149.177
12.968, 73.025, -150.002
13.157, 73.031, -150.821
13.348, 73.036, -151.622
13.543, 73.040, -152.419
13.740, 73.044, -153.215
13.939, 73.047, -154.010
14.142, 73.048, -154.804
14.348, 73.048, -155.595
14.557, 73.045, -156.382
14.768, 73.040, -157.162
14.983, 73.032, -157.925
15.201, 73.023, -158.670
15.422, 73.013, -159.395
15.646, 73.004, -160.102
15.874, 72.996, -160.796
16.105, 72.989, -161.485
16.339, 72.984, -162.177
16.577, 72.979, -162.876
16.818, 72.974, -163.584
17.063, 72.967, -164.300
17.311, 72.958, -165.018
17.563, 72.947, -165.733
17.818, 72.934, -166.443
18.077, 72.920, -167.144
18.340, 72.905, -167.838
18.607, 72.889, -168.527
18.877, 72.873, -169.211
19.152, 72.855, -169.890
19.431, 72.836, -170.561
19.713, 72.817, -171.222
20.000, 72.797, -171.874
20.291, 72.777, -172.520
20.586, 72.758, -173.163
20.885, 72.739, -173.806
21.189, 72.719, -174.452
21.497, 72.697, -175.095
21.810, 72.674, -175.731
22.127, 72.649, -176.357
22.449, 72.625, -176.975
22.776, 72.601, -177.591
23.107, 72.577, -178.212
23.443, 72.551, -178.839
23.784, 72.522, -179.463
24.130, 72.489, 179.924
24.481, 72.455, 179.333
24.837, 72.421, 178.761
25.198, 72.387, 178.201
25.565, 72.354, 177.644
25.937, 72.320, 177.087
26.314, 72.285, 176.538
26.697, 72.250, 176.000
27.085, 72.216, 175.470
27.479, 72.183, 174.936
27.879, 72.149, 174.386
28.284, 72.113, 173.822
28.696, 72.072, 173.260
29.113, 72.028, 172.720
29.537, 71.983, 172.207
29.966, 71.940, 171.709
30.402, 71.898, 171.210
30.844, 71.856, 170.704
31.293, 71.812, 170.196
31.748, 71.766, 169.694
32.210, 71.718, 169.207
32.678, 71.671, 168.733
33.154, 71.625, 168.263
33.636, 71.580, 167.791
34.125, 71.532, 167.319
34.621, 71.483, 166.858
35.125, 71.435, 166.417
35.636, 71.388, 165.982
36.154, 71.343, 165.533
36.680, 71.294, 165.073
37.214, 71.242, 164.626
37.755, 71.190, 164.200
38.304, 71.139, 163.772
38.861, 71.088, 163.316
39.427, 71.030, 162.844
40.000, 70.965, 162.397
40.582, 70.901, 161.992
41.172, 70.841, 161.602
41.771, 70.783, 161.197
42.379, 70.725, 160.788
42.995, 70.670, 160.383
43.620, 70.617, 159.955
44.255, 70.559, 159.521
44.898, 70.500, 159.138
45.552, 70.447, 158.754
46.214, 70.380, 158.316
46.886, 70.287, 158.067
47.568, 70.223, 158.141
48.260, 70.222, 158.048
48.962, 70.201, 157.482
49.674, 70.113, 156.910
50.397, 70.003, 156.521
51.130, 69.857, 156.280
51.874, 69.717, 156.770
52.628, 69.769, 157.399
53.394, 69.892, 156.399
54.170, 69.771, 154.642
54.958, 69.525, 154.255
55.758, 69.433, 154.485
56.569, 69.383, 154.113
57.391, 69.289, 153.830
58.226, 69.229, 153.672
59.073, 69.161, 153.353
59.932, 69.081, 153.211
60.804, 69.026, 153.045
61.688, 68.954, 152.741
62.586, 68.862, 152.536
63.496, 68.775, 152.433
64.420, 68.708, 152.366
65.357, 68.661, 152.103
66.307, 68.576, 151.634
67.272, 68.454, 151.503
68.250, 68.383, 151.629
69.243, 68.337, 151.531
70.250, 68.274, 151.444
71.272, 68.227, 151.380
72.309, 68.176, 151.167
73.360, 68.102, 150.954
74.427, 68.032, 150.838
75.510, 67.974, 150.575
76.608, 67.882, 150.255
77.723, 67.800, 150.124
78.853, 67.725, 149.844
80.000, 67.637, 149.661
81.164, 67.558, 149.435
82.344, 67.458, 149.231
83.542, 67.358, 149.115
84.757, 67.255, 149.037
85.990, 67.152, 148.980
87.241, 67.057, 148.968
88.510, 66.967, 148.845
89.797, 66.854, 148.775
91.103, 66.747, 148.830
92.428, 66.643, 148.926
93.773, 66.540, 149.028
95.137, 66.426, 149.146
96.520, 66.316, 149.372
97.924, 66.225, 149.624
99.349, 66.141, 149.637
100.794, 66.001, 150.026
102.260, 65.938, 150.660
103.747, 65.885, 151.219
105.256, 65.841, 151.759
106.787, 65.819, 152.234
108.340, 65.793, 152.560
109.916, 65.789, 152.704
111.515, 65.766, 152.738
113.137, 65.762, 152.637
114.783, 65.722, 152.359
116.452, 65.657, 152.165
118.146, 65.570, 152.042
119.865, 65.463, 152.119
121.608, 65.370, 152.380
123.377, 65.287, 152.654
125.171, 65.220, 153.003
126.992, 65.173, 153.144
128.839, 65.110, 153.584
130.713, 65.118, 153.809
132.615, 65.079, 153.895
134.543, 64.998, 153.986
136.500, 64.922, 154.324
138.486, 64.851, 154.521
140.500, 64.802, 154.802
142.544, 64.761, 155.084
144.617, 64.727, 155.708
146.721, 64.745, 156.103
148.855, 64.764, 156.299
151.020, 64.800, 156.317
153.217, 64.832, 156.120
155.445, 64.813, 155.742
157.706, 64.751, 155.485
160.000, 64.668, 155.290
162.327, 64.582, 155.147
164.688, 64.483, 155.188
167.084, 64.394, 155.409
169.514, 64.320, 155.831
171.980, 64.271, 156.269
174.481, 64.248, 156.768
177.019, 64.265, 157.121
179.594, 64.286, 157.216
182.206, 64.298, 157.187
184.856, 64.301, 157.017
187.545, 64.278, 156.697
190.273, 64.239, 156.406
193.041, 64.194, 156.156
195.849, 64.133, 155.894
198.697, 64.049, 155.672
201.587, 63.970, 155.541
204.520, 63.886, 155.432
207.494, 63.789, 155.390
210.512, 63.693, 155.404
213.574, 63.598, 155.479
216.681, 63.500, 155.623
219.833, 63.406, 155.781
223.030, 63.315, 155.978
226.274, 63.230, 156.237
229.565, 63.154, 156.526
232.905, 63.080, 156.812
236.292, 63.009, 157.115
239.729, 62.950, 157.362
243.216, 62.889, 157.578
246.754, 62.830, 157.782
250.343, 62.770, 157.984
253.984, 62.703, 158.154
257.678, 62.633, 158.288
261.426, 62.559, 158.477
265.229, 62.486, 158.683
269.087, 62.407, 158.848
273.001, 62.322, 159.036
276.972, 62.240, 159.264
281.000, 62.154, 159.500
285.088, 62.060, 159.755
289.234, 61.970, 160.053
293.441, 61.877, 160.369
297.710, 61.778, 160.700
302.040, 61.682, 161.068
306.433, 61.587, 161.509
310.890, 61.486, 161.960
315.412, 61.384, 162.429
320.000, 61.292, 162.966
324.655, 61.191, 163.544
329.377, 61.091, 164.105
334.168, 60.996, 164.737
339.028, 60.902, 165.353
343.959, 60.804, 166.007
348.962, 60.710, 166.739
354.038, 60.613, 167.503
359.188, 60.511, 168.346
364.412, 60.409, 169.239
369.713, 60.310, 170.194
375.090, 60.219, 171.306
380.546, 60.133, 172.506
386.081, 60.058, 173.852
391.697, 60.002, 175.326
397.395, 59.973, 176.879
403.175, 59.972, 178.472
409.039, 60.009, -179.915
414.989, 60.083, -178.362
421.025, 60.183, -176.948
427.149, 60.305, -175.692
433.362, 60.442, -174.653
439.665, 60.589, -173.771
446.060, 60.733, -173.107
452.548, 60.877, -172.623
459.131, 61.007, -172.255
465.809, 61.126, -172.013
472.584, 61.228, -171.918
479.458, 61.306, -171.893
486.432, 61.368, -171.802
493.507, 61.404, -171.717
500.686, 61.430, -171.590
507.968, 61.454, -171.387
515.357, 61.474, -171.118
522.853, 61.495, -170.793
530.458, 61.518, -170.407
538.174, 61.547, -169.969
546.002, 61.587, -169.563
553.943, 61.632, -169.194
562.001, 61.682, -168.816
570.175, 61.734, -168.510
578.469, 61.786, -168.233
586.883, 61.836, -167.972
595.419, 61.887, -167.772
604.080, 61.931, -167.608
612.866, 61.968, -167.466
621.780, 61.996, -167.321
630.824, 62.021, -167.186
640.000, 62.044, -167.040
649.309, 62.060, -166.873
658.753, 62.073, -166.699
668.335, 62.083, -166.508
678.056, 62.089, -166.294
687.919, 62.093, -166.056
697.925, 62.095, -165.820
708.076, 62.099, -165.539
718.376, 62.099, -165.249
728.825, 62.100, -164.936
739.426, 62.103, -164.599
750.181, 62.106, -164.233
761.093, 62.110, -163.881
772.163, 62.114, -163.526
783.394, 62.112, -163.167
794.789, 62.106, -162.842
806.349, 62.084, -162.501
818.078, 62.036, -161.889
829.977, 62.035, -160.954
842.050, 62.079, -160.237
854.297, 62.116, -159.701
866.724, 62.148, -159.161
879.330, 62.176, -158.597
892.120, 62.205, -158.018
905.097, 62.235, -157.414
918.262, 62.268, -156.809
931.618, 62.306, -156.181
945.169, 62.351, -155.584
958.917, 62.397, -154.971
972.864, 62.447, -154.373
987.015, 62.500, -153.772
1001.371, 62.555, -153.184
1015.937, 62.609, -152.600
1030.714, 62.664, -151.994
1045.706, 62.724, -151.412
1060.916, 62.785, -150.803
1076.347, 62.848, -150.195
1092.003, 62.917, -149.588
1107.887, 62.987, -148.962
1124.001, 63.060, -148.312
1140.350, 63.141, -147.664
1156.937, 63.230, -146.999
1173.765, 63.328, -146.354
1190.838, 63.432, -145.694
1208.159, 63.547, -145.099
1225.732, 63.665, -144.519
1243.561, 63.789, -144.005
1261.649, 63.919, -143.553
1280.000, 64.049, -143.163
1298.618, 64.180, -142.821
1317.507, 64.307, -142.524
1336.670, 64.431, -142.264
1356.113, 64.552, -142.031
1375.838, 64.669, -141.815
1395.850, 64.783, -141.599
1416.153, 64.896, -141.387
1436.751, 65.008, -141.169
1457.649, 65.113, -140.938
1478.851, 65.217, -140.688
1500.362, 65.325, -140.431
1522.185, 65.437, -140.157
1544.326, 65.553, -139.880
1566.789, 65.668, -139.571
1589.578, 65.793, -139.277
1612.699, 65.921, -138.967
1636.156, 66.052, -138.663
1659.955, 66.187, -138.350
1684.099, 66.333, -138.063
1708.595, 66.483, -137.775
1733.447, 66.642, -137.513
1758.661, 66.808, -137.275
1784.241, 66.982, -137.069
1810.193, 67.165, -136.910
1836.523, 67.354, -136.794
1863.236, 67.548, -136.729
1890.338, 67.748, -136.719
1917.833, 67.956, -136.781
1945.729, 68.173, -136.917
1974.030, 68.391, -137.126
2002.743, 68.614, -137.425
2031.873, 68.840, -137.822
2061.428, 69.066, -138.319
2091.412, 69.291, -138.915
2121.832, 69.521, -139.641
2152.695, 69.746, -140.472
2184.007, 69.962, -141.425
2215.774, 70.171, -142.498
2248.003, 70.377, -143.703
2280.701, 70.566, -145.021
2313.874, 70.737, -146.447
2347.530, 70.897, -147.990
2381.676, 71.034, -149.628
2416.318, 71.144, -151.350
2451.464, 71.227, -153.128
2487.122, 71.287, -154.947
2523.298, 71.320, -156.778
2560.000, 71.328, -158.600
2597.236, 71.304, -160.373
2635.014, 71.253, -162.084
2673.341, 71.175, -163.700
2712.226, 71.077, -165.208
2751.676, 70.963, -166.591
2791.700, 70.835, -167.832
2832.306, 70.697, -168.927
2873.503, 70.552, -169.871
2915.299, 70.403, -170.671
2957.703, 70.251, -171.321
3000.724, 70.098, -171.832
3044.370, 69.951, -172.214
3088.652, 69.815, -172.488
3133.577, 69.689, -172.660
3179.156, 69.572, -172.760
3225.398, 69.466, -172.807
3272.312, 69.370, -172.820
3319.909, 69.275, -172.809
3368.198, 69.183, -172.760
3417.190, 69.096, -172.635
3466.894, 69.013, -172.390
3517.321, 68.951, -172.037
3568.482, 68.916, -171.647
3620.387, 68.906, -171.311
3673.046, 68.915, -171.092
3726.472, 68.935, -171.037
3780.675, 68.952, -171.142
3835.666, 68.952, -171.355
3891.457, 68.930, -171.602
3948.060, 68.886, -171.789
4005.486, 68.828, -171.846
4063.747, 68.769, -171.729
4122.855, 68.721, -171.439
4182.824, 68.688, -170.991
4243.664, 68.685, -170.425
4305.390, 68.721, -169.817
4368.013, 68.791, -169.242
4431.547, 68.907, -168.788
4496.005, 69.054, -168.516
4561.401, 69.226, -168.494
4627.749, 69.416, -168.775
4695.061, 69.609, -169.395
4763.352, 69.789, -170.361
4832.637, 69.949, -171.664
4902.929, 70.074, -173.249
4974.244, 70.144, -175.022
5046.596, 70.158, -176.881
5120.000, 70.110, -178.693
5194.472, 70.015, 179.660
5270.027, 69.886, 178.288
5346.682, 69.746, 177.253
5424.451, 69.617, 176.561
5503.352, 69.529, 176.140
5583.399, 69.514, 175.783
5664.612, 69.590, 175.095
5747.006, 69.737, 173.482
5830.598, 69.824, 170.408
5915.406, 69.655, 166.228
6001.447, 69.126, 162.610
6088.740, 68.392, 161.109
6177.303, 67.709, 161.734
6267.154, 67.222, 163.561
6358.312, 66.941, 165.758
6450.796, 66.833, 167.804
6544.625, 66.859, 169.387
6639.818, 66.991, 170.269
6736.397, 67.187, 170.240
6834.380, 67.389, 169.115
6933.789, 67.516, 166.975
7034.643, 67.518, 164.207
7136.964, 67.405, 161.150
7240.773, 67.186, 157.782
7346.093, 66.818, 154.255
7452.944, 66.279, 150.989
7561.350, 65.580, 148.442
7671.332, 64.784, 146.924
7782.915, 63.953, 146.518
7896.120, 63.142, 147.088
8010.971, 62.380, 148.431
8127.493, 61.690, 150.337
8245.711, 61.060, 152.589
8365.647, 60.478, 155.074
8487.328, 59.922, 157.816
8610.779, 59.396, 161.024
8736.026, 58.964, 164.711
8863.095, 58.665, 168.263
8992.011, 58.404, 171.102
9122.803, 58.070, 173.753
9255.497, 57.684, 176.855
9390.121, 57.304, -179.439
9526.704, 56.972, -175.182
9665.273, 56.713, -170.434
9805.857, 56.552, -165.259
9948.487, 56.524, -159.852
10093.191, 56.642, -154.437
10240.000, 56.913, -149.226
10388.944, 57.335, -144.465
10540.055, 57.885, -140.388
10693.363, 58.567, -137.201
10848.902, 59.341, -135.317
11006.703, 60.139, -134.957
11166.799, 60.876, -136.162
11329.224, 61.466, -138.741
11494.012, 61.822, -142.140
11661.195, 61.946, -145.441
11830.812, 61.921, -147.977
12002.895, 61.869, -149.535
12177.480, 61.910, -150.482
12354.606, 62.112, -151.669
12534.309, 62.455, -154.230
12716.624, 62.787, -159.279
12901.592, 62.803, -167.013
13089.250, 62.224, -175.712
13279.637, 61.077, 177.606
13472.794, 59.626, 174.046
13668.760, 58.098, 173.918
13867.577, 56.727, 176.548
14069.285, 55.601, -179.113
14273.928, 54.715, -173.762
14481.547, 54.040, -167.613
14692.186, 53.593, -160.601
14905.889, 53.467, -152.899
15122.700, 53.766, -145.149
15342.664, 54.571, -138.378
15565.829, 55.917, -134.473
15792.239, 57.523, -136.615
16021.942, 58.410, -146.180
16254.986, 57.920, -153.660
16491.422, 57.842, -152.709
16731.295, 58.882, -155.584
16974.656, 59.408, -166.059
17221.559, 58.905, -175.214
17472.053, 58.367, -178.884
17726.189, 58.590, 179.103
17984.021, 59.606, 172.938
18245.605, 60.547, 157.221
18510.994, 59.995, 135.142
18780.242, 57.999, 119.051
19053.408, 55.858, 109.638
19330.547, 53.867, 103.707
19611.715, 52.165, 100.662
19896.975, 51.060, 98.418
