* Measurement data measured by REW V5.19
* Source: ASIO MOTU M Series, In 1
* Format: 1M Log Swept Sine, 1 sweep at -3.0 dBFS  With no timing reference
* Dated: 10 Mar, 2023 3:08:45 PM
* REW Settings:
*  C-weighting compensation: Off
*  Target level: 75.0 dB
* Note: ; 
* Measurement: Mar 10 15:08:45
* Smoothing: 1/48 octave
* Frequency Step: 1/48 octave
* Start Frequency: 10.1 Hz
*
* Freq(Hz), SPL(dB), Phase(degrees)
10.145, 62.629, -83.773
10.293, 62.699, -84.475
10.443, 62.771, -85.412
10.595, 62.883, -86.630
10.749, 63.001, -87.893
10.905, 63.093, -88.841
11.064, 63.178, -89.677
11.225, 63.273, -90.641
11.388, 63.374, -91.663
11.554, 63.472, -92.658
11.722, 63.567, -93.640
11.892, 63.661, -94.621
12.065, 63.752, -95.604
12.241, 63.842, -96.608
12.419, 63.929, -97.620
12.599, 64.012, -98.602
12.782, 64.093, -99.569
12.968, 64.172, -100.538
13.157, 64.250, -101.494
13.348, 64.327, -102.427
13.543, 64.405, -103.355
13.740, 64.483, -104.283
13.939, 64.562, -105.216
14.142, 64.641, -106.157
14.348, 64.718, -107.111
14.557, 64.794, -108.080
14.768, 64.867, -109.062
14.983, 64.935, -110.047
15.201, 65.000, -111.031
15.422, 65.061, -112.010
15.646, 65.120, -112.976
15.874, 65.176, -113.927
16.105, 65.230, -114.863
16.339, 65.283, -115.786
16.577, 65.336, -116.697
16.818, 65.388, -117.597
17.063, 65.440, -118.488
17.311, 65.491, -119.371
17.563, 65.543, -120.245
17.818, 65.595, -121.114
18.077, 65.648, -121.983
18.340, 65.701, -122.857
18.607, 65.753, -123.737
18.877, 65.802, -124.624
19.152, 65.849, -125.510
19.431, 65.891, -126.385
19.713, 65.931, -127.238
20.000, 65.970, -128.063
20.291, 66.009, -128.863
20.586, 66.051, -129.648
20.885, 66.096, -130.435
21.189, 66.142, -131.241
21.497, 66.185, -132.069
21.810, 66.224, -132.912
22.127, 66.256, -133.748
22.449, 66.282, -134.556
22.776, 66.306, -135.323
23.107, 66.331, -136.049
23.443, 66.360, -136.754
23.784, 66.393, -137.462
24.130, 66.428, -138.192
24.481, 66.461, -138.947
24.837, 66.490, -139.715
25.198, 66.514, -140.476
25.565, 66.536, -141.217
25.937, 66.558, -141.937
26.314, 66.581, -142.650
26.697, 66.604, -143.368
27.085, 66.627, -144.095
27.479, 66.646, -144.823
27.879, 66.663, -145.540
28.284, 66.679, -146.239
28.696, 66.695, -146.927
29.113, 66.712, -147.611
29.537, 66.728, -148.297
29.966, 66.743, -148.983
30.402, 66.756, -149.663
30.844, 66.768, -150.335
31.293, 66.780, -151.001
31.748, 66.790, -151.663
32.210, 66.799, -152.321
32.678, 66.808, -152.974
33.154, 66.814, -153.622
33.636, 66.820, -154.264
34.125, 66.826, -154.900
34.621, 66.831, -155.534
35.125, 66.835, -156.170
35.636, 66.837, -156.807
36.154, 66.837, -157.436
36.680, 66.836, -158.052
37.214, 66.835, -158.657
37.755, 66.835, -159.260
38.304, 66.835, -159.868
38.861, 66.833, -160.477
39.427, 66.830, -161.081
40.000, 66.825, -161.676
40.582, 66.819, -162.258
41.172, 66.812, -162.827
41.771, 66.806, -163.389
42.379, 66.800, -163.950
42.995, 66.792, -164.510
43.620, 66.784, -165.068
44.255, 66.776, -165.637
44.898, 66.763, -166.215
45.552, 66.747, -166.780
46.214, 66.731, -167.330
46.886, 66.715, -167.884
47.568, 66.698, -168.427
48.260, 66.684, -168.963
48.962, 66.669, -169.547
49.674, 66.641, -170.118
50.397, 66.614, -170.572
51.130, 66.603, -171.053
51.874, 66.579, -171.637
52.628, 66.540, -172.113
53.394, 66.515, -172.572
54.170, 66.471, -173.137
54.958, 66.409, -173.464
55.758, 66.397, -173.758
56.569, 66.372, -174.452
57.391, 66.286, -174.944
58.226, 66.249, -175.108
59.073, 66.246, -175.643
59.932, 66.193, -176.259
60.804, 66.140, -176.643
61.688, 66.099, -177.070
62.586, 66.042, -177.457
63.496, 65.986, -177.760
64.420, 65.927, -178.021
65.357, 65.868, -178.228
66.307, 65.810, -178.410
67.272, 65.752, -178.565
68.250, 65.691, -178.707
69.243, 65.626, -178.761
70.250, 65.567, -178.704
71.272, 65.517, -178.516
72.309, 65.491, -178.194
73.360, 65.499, -177.839
74.427, 65.544, -177.566
75.510, 65.614, -177.532
76.608, 65.684, -177.733
77.723, 65.747, -178.153
78.853, 65.788, -178.701
80.000, 65.818, -179.331
81.164, 65.822, 179.963
82.344, 65.805, 179.304
83.542, 65.776, 178.669
84.757, 65.735, 178.063
85.990, 65.681, 177.472
87.241, 65.617, 176.891
88.510, 65.531, 176.357
89.797, 65.436, 175.964
91.103, 65.335, 175.665
92.428, 65.230, 175.486
93.773, 65.118, 175.420
95.137, 64.998, 175.542
96.520, 64.881, 175.940
97.924, 64.791, 176.617
99.349, 64.742, 177.516
100.794, 64.755, 178.498
102.260, 64.831, 179.397
103.747, 64.974, 179.985
105.256, 65.132, 179.981
106.787, 65.266, 179.637
108.340, 65.375, 178.986
109.916, 65.434, 178.220
111.515, 65.488, 177.490
113.137, 65.516, 176.583
114.783, 65.512, 175.773
116.452, 65.493, 175.073
118.146, 65.459, 174.457
119.865, 65.425, 173.939
121.608, 65.379, 173.293
123.377, 65.314, 172.750
125.171, 65.250, 172.278
126.992, 65.187, 171.888
128.839, 65.127, 171.560
130.713, 65.070, 171.265
132.615, 65.013, 171.019
134.543, 64.964, 170.802
136.500, 64.918, 170.587
138.486, 64.871, 170.385
140.500, 64.827, 170.171
142.544, 64.781, 169.895
144.617, 64.730, 169.612
146.721, 64.680, 169.339
148.855, 64.621, 169.091
151.020, 64.564, 168.866
153.217, 64.497, 168.663
155.445, 64.432, 168.508
157.706, 64.371, 168.404
160.000, 64.315, 168.348
162.327, 64.262, 168.335
164.688, 64.218, 168.342
167.084, 64.185, 168.292
169.514, 64.159, 168.215
171.980, 64.140, 168.054
174.481, 64.109, 167.813
177.019, 64.076, 167.539
179.594, 64.037, 167.214
182.206, 63.986, 166.899
184.856, 63.926, 166.589
187.545, 63.863, 166.317
190.273, 63.795, 166.081
193.041, 63.722, 165.877
195.849, 63.648, 165.683
198.697, 63.570, 165.506
201.587, 63.487, 165.365
204.520, 63.408, 165.219
207.494, 63.324, 165.081
210.512, 63.246, 165.021
213.574, 63.167, 164.940
216.681, 63.088, 164.861
219.833, 63.001, 164.754
223.030, 62.899, 164.698
226.274, 62.826, 164.738
229.565, 62.746, 164.722
232.905, 62.662, 164.728
236.292, 62.569, 164.740
239.729, 62.478, 164.792
243.216, 62.387, 164.841
246.754, 62.293, 164.917
250.343, 62.199, 164.996
253.984, 62.109, 165.091
257.678, 62.015, 165.208
261.426, 61.917, 165.323
265.229, 61.823, 165.451
269.087, 61.729, 165.618
273.001, 61.629, 165.789
276.972, 61.529, 165.954
281.000, 61.427, 166.151
285.088, 61.321, 166.364
289.234, 61.210, 166.600
293.441, 61.100, 166.881
297.710, 60.988, 167.164
302.040, 60.868, 167.498
306.433, 60.752, 167.854
310.890, 60.634, 168.248
315.412, 60.512, 168.677
320.000, 60.390, 169.160
324.655, 60.261, 169.716
329.377, 60.127, 170.280
334.168, 60.005, 170.924
339.028, 59.879, 171.644
343.959, 59.750, 172.402
348.962, 59.622, 173.267
354.038, 59.496, 174.169
359.188, 59.370, 175.185
364.412, 59.248, 176.269
369.713, 59.135, 177.432
375.090, 59.033, 178.675
380.546, 58.933, 179.998
386.081, 58.849, -178.599
391.697, 58.770, -177.115
397.395, 58.700, -175.516
403.175, 58.646, -173.768
409.039, 58.618, -171.839
414.989, 58.629, -169.792
421.025, 58.685, -167.664
427.149, 58.793, -165.563
433.362, 58.959, -163.662
439.665, 59.172, -161.989
446.060, 59.416, -160.633
452.548, 59.684, -159.703
459.131, 59.948, -159.181
465.809, 60.184, -159.028
472.584, 60.386, -159.204
479.458, 60.554, -159.579
486.432, 60.668, -160.032
493.507, 60.748, -160.460
500.686, 60.784, -161.007
507.968, 60.788, -161.394
515.357, 60.755, -161.561
522.853, 60.684, -161.547
530.458, 60.604, -161.304
538.174, 60.514, -160.704
546.002, 60.443, -159.683
553.943, 60.439, -158.437
562.001, 60.500, -157.149
570.175, 60.615, -156.086
578.469, 60.768, -155.433
586.883, 60.910, -155.232
595.419, 60.989, -155.252
604.080, 61.032, -155.020
612.866, 61.109, -154.808
621.780, 61.182, -154.944
630.824, 61.185, -155.402
640.000, 61.049, -155.500
649.309, 60.944, -154.358
658.753, 60.979, -153.323
668.335, 61.036, -152.644
678.056, 61.071, -152.097
687.919, 61.094, -151.570
697.925, 61.112, -151.005
708.076, 61.128, -150.378
718.376, 61.148, -149.714
728.825, 61.167, -148.987
739.426, 61.188, -148.220
750.181, 61.221, -147.431
761.093, 61.261, -146.603
772.163, 61.306, -145.752
783.394, 61.357, -144.906
794.789, 61.415, -144.048
806.349, 61.479, -143.175
818.078, 61.549, -142.304
829.977, 61.625, -141.433
842.050, 61.708, -140.561
854.297, 61.796, -139.694
866.724, 61.890, -138.828
879.330, 61.993, -137.995
892.120, 62.105, -137.179
905.097, 62.224, -136.392
918.262, 62.346, -135.632
931.618, 62.471, -134.900
945.169, 62.598, -134.194
958.917, 62.728, -133.511
972.864, 62.860, -132.850
987.015, 62.994, -132.205
1001.371, 63.131, -131.580
1015.937, 63.270, -130.967
1030.714, 63.412, -130.365
1045.706, 63.558, -129.780
1060.916, 63.707, -129.208
1076.347, 63.857, -128.651
1092.003, 64.011, -128.113
1107.887, 64.173, -127.606
1124.001, 64.340, -127.125
1140.350, 64.507, -126.659
1156.937, 64.676, -126.219
1173.765, 64.845, -125.791
1190.838, 65.018, -125.388
1208.159, 65.198, -125.013
1225.732, 65.382, -124.656
1243.561, 65.571, -124.328
1261.649, 65.768, -124.043
1280.000, 65.967, -123.805
1298.618, 66.165, -123.600
1317.507, 66.366, -123.458
1336.670, 66.569, -123.363
1356.113, 66.776, -123.309
1375.838, 66.983, -123.296
1395.850, 67.188, -123.311
1416.153, 67.392, -123.358
1436.751, 67.599, -123.436
1457.649, 67.804, -123.546
1478.851, 68.014, -123.685
1500.362, 68.231, -123.885
1522.185, 68.449, -124.120
1544.326, 68.669, -124.413
1566.789, 68.889, -124.762
1589.578, 69.112, -125.174
1612.699, 69.335, -125.651
1636.156, 69.558, -126.193
1659.955, 69.781, -126.807
1684.099, 70.002, -127.499
1708.595, 70.220, -128.261
1733.447, 70.438, -129.118
1758.661, 70.654, -130.063
1784.241, 70.865, -131.101
1810.193, 71.070, -132.232
1836.523, 71.268, -133.468
1863.236, 71.450, -134.783
1890.338, 71.623, -136.198
1917.833, 71.781, -137.694
1945.729, 71.926, -139.262
1974.030, 72.056, -140.902
2002.743, 72.163, -142.592
2031.873, 72.250, -144.328
2061.428, 72.316, -146.092
2091.412, 72.360, -147.872
2121.832, 72.382, -149.652
2152.695, 72.380, -151.412
2184.007, 72.355, -153.133
2215.774, 72.309, -154.797
2248.003, 72.242, -156.387
2280.701, 72.152, -157.878
2313.874, 72.050, -159.274
2347.530, 71.935, -160.557
2381.676, 71.808, -161.723
2416.318, 71.672, -162.770
2451.464, 71.529, -163.701
2487.122, 71.380, -164.515
2523.298, 71.228, -165.213
2560.000, 71.074, -165.798
2597.236, 70.918, -166.279
2635.014, 70.762, -166.653
2673.341, 70.610, -166.922
2712.226, 70.461, -167.093
2751.676, 70.309, -167.184
2791.700, 70.160, -167.197
2832.306, 70.018, -167.130
2873.503, 69.876, -166.970
2915.299, 69.734, -166.722
2957.703, 69.595, -166.376
3000.724, 69.460, -165.923
3044.370, 69.331, -165.356
3088.652, 69.211, -164.675
3133.577, 69.102, -163.887
3179.156, 69.005, -162.995
3225.398, 68.924, -161.999
3272.312, 68.860, -160.912
3319.909, 68.815, -159.747
3368.198, 68.790, -158.510
3417.190, 68.788, -157.206
3466.894, 68.811, -155.851
3517.321, 68.860, -154.457
3568.482, 68.940, -153.039
3620.387, 69.052, -151.633
3673.046, 69.199, -150.299
3726.472, 69.371, -149.082
3780.675, 69.558, -147.929
3835.666, 69.770, -146.768
3891.457, 70.017, -145.657
3948.060, 70.306, -144.654
4005.486, 70.638, -143.762
4063.747, 71.023, -143.047
4122.855, 71.470, -142.634
4182.824, 71.978, -142.738
4243.664, 72.517, -143.562
4305.390, 73.053, -145.161
4368.013, 73.551, -147.532
4431.547, 73.983, -150.515
4496.005, 74.348, -154.040
4561.401, 74.621, -158.095
4627.749, 74.779, -162.558
4695.061, 74.805, -167.228
4763.352, 74.685, -171.848
4832.637, 74.426, -176.161
4902.929, 74.044, -179.921
4974.244, 73.571, 177.061
5046.596, 73.046, 174.843
5120.000, 72.502, 173.423
5194.472, 71.963, 172.765
5270.027, 71.452, 172.786
5346.682, 70.986, 173.385
5424.451, 70.575, 174.476
5503.352, 70.230, 175.983
5583.399, 69.956, 177.833
5664.612, 69.765, 179.913
5747.006, 69.659, -177.871
5830.598, 69.644, -175.615
5915.406, 69.731, -173.498
6001.447, 69.909, -171.676
6088.740, 70.169, -170.229
6177.303, 70.511, -169.330
6267.154, 70.913, -169.213
6358.312, 71.333, -170.048
6450.796, 71.718, -171.887
6544.625, 72.009, -174.582
6639.818, 72.165, -177.784
6736.397, 72.185, 178.991
6834.380, 72.118, 176.078
6933.789, 72.021, 173.460
7034.643, 71.925, 170.902
7136.964, 71.831, 168.149
7240.773, 71.707, 164.998
7346.093, 71.504, 161.352
7452.944, 71.175, 157.350
7561.350, 70.679, 153.367
7671.332, 70.011, 149.887
7782.915, 69.204, 147.339
7896.120, 68.317, 145.954
8010.971, 67.411, 145.766
8127.493, 66.527, 146.691
8245.711, 65.700, 148.572
8365.647, 64.958, 151.205
8487.328, 64.312, 154.425
8610.779, 63.765, 158.121
8736.026, 63.323, 162.186
8863.095, 62.993, 166.512
8992.011, 62.781, 170.992
9122.803, 62.695, 175.517
9255.497, 62.740, 179.967
9390.121, 62.924, -175.808
9526.704, 63.257, -172.016
9665.273, 63.744, -168.931
9805.857, 64.379, -166.917
9948.487, 65.130, -166.423
10093.191, 65.936, -167.945
10240.000, 66.680, -171.866
10388.944, 67.201, -178.166
10540.055, 67.340, 173.901
10693.363, 67.073, 165.609
10848.902, 66.423, 157.327
11006.703, 65.337, 149.665
11166.799, 63.734, 143.769
11329.224, 61.583, 142.186
11494.012, 59.241, 148.361
11661.195, 57.844, 161.534
11830.812, 57.903, 172.322
12002.895, 58.062, 177.796
12177.480, 58.155, -176.799
12354.606, 58.531, -172.773
12534.309, 58.839, -171.177
12716.624, 58.943, -170.047
12901.592, 59.019, -168.205
13089.250, 59.284, -165.979
13279.637, 59.857, -164.611
13472.794, 60.738, -165.812
13668.760, 61.701, -171.960
13867.577, 62.102, 175.564
14069.285, 61.248, 160.830
14273.928, 59.248, 150.946
14481.547, 56.832, 147.994
14692.186, 54.543, 150.154
14905.889, 52.556, 155.480
15122.700, 50.889, 162.785
15342.664, 49.528, 171.368
15565.829, 48.443, -179.227
15792.239, 47.611, -169.266
16021.942, 47.015, -158.766
16254.986, 46.726, -147.305
16491.422, 46.942, -136.478
16731.295, 47.325, -126.850
16974.656, 48.022, -117.184
17221.559, 49.195, -108.377
17472.053, 50.976, -101.824
17726.189, 53.438, -100.465
17984.021, 56.005, -110.224
18245.605, 56.931, -133.055
18510.994, 55.366, -153.274
18780.242, 52.825, -160.823
19053.408, 50.761, -161.472
19330.547, 49.273, -162.267
19611.715, 47.328, -166.001
19896.975, 43.722, -160.609
