* Measurement data measured by REW V5.19
* Source: ASIO MOTU M Series, In 1
* Format: 1M Log Swept Sine, 1 sweep at -3.0 dBFS  With no timing reference
* Dated: 21 Mar, 2023 2:05:03 PM
* REW Settings:
*  C-weighting compensation: Off
*  Target level: 75.0 dB
* Note: ; 
* Measurement: Mar 21 14:05:03
* Smoothing: 1/48 octave
* Frequency Step: 1/48 octave
* Start Frequency: 10.1 Hz
*
* Freq(Hz), SPL(dB), Phase(degrees)
10.145, 63.470, -115.721
10.293, 63.506, -116.252
10.443, 63.543, -116.966
10.595, 63.600, -117.902
10.749, 63.659, -118.877
10.905, 63.703, -119.620
11.064, 63.741, -120.279
11.225, 63.784, -121.026
11.388, 63.828, -121.807
11.554, 63.870, -122.554
11.722, 63.910, -123.277
11.892, 63.951, -123.985
12.065, 63.990, -124.681
12.241, 64.031, -125.385
12.419, 64.071, -126.090
12.599, 64.111, -126.774
12.782, 64.151, -127.451
12.968, 64.191, -128.139
13.157, 64.230, -128.826
13.348, 64.269, -129.505
13.543, 64.306, -130.183
13.740, 64.342, -130.861
13.939, 64.378, -131.535
14.142, 64.411, -132.205
14.348, 64.444, -132.867
14.557, 64.475, -133.522
14.768, 64.505, -134.170
14.983, 64.534, -134.807
15.201, 64.563, -135.435
15.422, 64.591, -136.055
15.646, 64.618, -136.667
15.874, 64.646, -137.272
16.105, 64.673, -137.872
16.339, 64.700, -138.467
16.577, 64.726, -139.058
16.818, 64.752, -139.647
17.063, 64.778, -140.232
17.311, 64.802, -140.815
17.563, 64.826, -141.393
17.818, 64.849, -141.967
18.077, 64.871, -142.535
18.340, 64.892, -143.097
18.607, 64.912, -143.652
18.877, 64.932, -144.200
19.152, 64.952, -144.741
19.431, 64.971, -145.277
19.713, 64.990, -145.810
20.000, 65.009, -146.339
20.291, 65.028, -146.866
20.586, 65.045, -147.391
20.885, 65.062, -147.912
21.189, 65.078, -148.429
21.497, 65.093, -148.941
21.810, 65.108, -149.447
22.127, 65.122, -149.949
22.449, 65.135, -150.448
22.776, 65.148, -150.943
23.107, 65.160, -151.436
23.443, 65.170, -151.924
23.784, 65.180, -152.406
24.130, 65.188, -152.882
24.481, 65.196, -153.349
24.837, 65.202, -153.810
25.198, 65.209, -154.266
25.565, 65.214, -154.716
25.937, 65.219, -155.161
26.314, 65.222, -155.601
26.697, 65.225, -156.035
27.085, 65.227, -156.463
27.479, 65.227, -156.885
27.879, 65.227, -157.298
28.284, 65.225, -157.704
28.696, 65.223, -158.100
29.113, 65.220, -158.486
29.537, 65.216, -158.858
29.966, 65.211, -159.214
30.402, 65.207, -159.550
30.844, 65.205, -159.870
31.293, 65.206, -160.180
31.748, 65.209, -160.491
32.210, 65.215, -160.811
32.678, 65.222, -161.148
33.154, 65.229, -161.509
33.636, 65.234, -161.895
34.125, 65.235, -162.301
34.621, 65.231, -162.712
35.125, 65.220, -163.113
35.636, 65.205, -163.495
36.154, 65.187, -163.858
36.680, 65.164, -164.200
37.214, 65.136, -164.510
37.755, 65.106, -164.773
38.304, 65.074, -164.987
38.861, 65.041, -165.153
39.427, 65.008, -165.267
40.000, 64.976, -165.311
40.582, 64.947, -165.269
41.172, 64.927, -165.142
41.771, 64.919, -164.936
42.379, 64.929, -164.654
42.995, 64.967, -164.331
43.620, 65.038, -164.065
44.255, 65.136, -163.968
44.898, 65.246, -164.107
45.552, 65.353, -164.485
46.214, 65.442, -165.054
46.886, 65.507, -165.727
47.568, 65.551, -166.433
48.260, 65.578, -167.144
48.962, 65.593, -167.840
49.674, 65.598, -168.521
50.397, 65.591, -169.200
51.130, 65.569, -169.823
51.874, 65.542, -170.361
52.628, 65.510, -170.881
53.394, 65.460, -171.288
54.170, 65.427, -171.491
54.958, 65.425, -171.824
55.758, 65.392, -172.393
56.569, 65.315, -172.730
57.391, 65.263, -172.791
58.226, 65.238, -172.923
59.073, 65.213, -173.110
59.932, 65.192, -173.310
60.804, 65.169, -173.550
61.688, 65.143, -173.764
62.586, 65.118, -173.955
63.496, 65.094, -174.112
64.420, 65.076, -174.242
65.357, 65.064, -174.367
66.307, 65.062, -174.526
67.272, 65.060, -174.764
68.250, 65.054, -175.059
69.243, 65.042, -175.401
70.250, 65.021, -175.759
71.272, 64.993, -176.127
72.309, 64.956, -176.477
73.360, 64.916, -176.810
74.427, 64.867, -177.129
75.510, 64.816, -177.399
76.608, 64.763, -177.648
77.723, 64.710, -177.862
78.853, 64.653, -178.101
80.000, 64.587, -178.263
81.164, 64.527, -178.411
82.344, 64.459, -178.544
83.542, 64.391, -178.634
84.757, 64.322, -178.716
85.990, 64.250, -178.767
87.241, 64.178, -178.800
88.510, 64.103, -178.808
89.797, 64.028, -178.778
91.103, 63.951, -178.727
92.428, 63.873, -178.639
93.773, 63.795, -178.540
95.137, 63.715, -178.428
96.520, 63.631, -178.305
97.924, 63.539, -178.165
99.349, 63.440, -177.971
100.794, 63.334, -177.719
102.260, 63.220, -177.408
103.747, 63.096, -177.028
105.256, 62.958, -176.527
106.787, 62.817, -175.877
108.340, 62.670, -175.078
109.916, 62.522, -174.087
111.515, 62.374, -172.919
113.137, 62.219, -171.447
114.783, 62.078, -169.636
116.452, 61.962, -167.437
118.146, 61.892, -164.820
119.865, 61.889, -161.771
121.608, 62.012, -158.232
123.377, 62.291, -154.643
125.171, 62.740, -151.313
126.992, 63.358, -148.757
128.839, 64.083, -147.503
130.713, 64.823, -147.725
132.615, 65.494, -149.334
134.543, 66.018, -151.987
136.500, 66.372, -155.087
138.486, 66.583, -158.222
140.500, 66.674, -161.171
142.544, 66.676, -163.764
144.617, 66.619, -165.971
146.721, 66.521, -167.822
148.855, 66.395, -169.328
151.020, 66.253, -170.496
153.217, 66.103, -171.364
155.445, 65.952, -171.942
157.706, 65.810, -172.238
160.000, 65.686, -172.270
162.327, 65.590, -172.066
164.688, 65.532, -171.696
167.084, 65.531, -171.267
169.514, 65.584, -170.999
171.980, 65.669, -171.025
174.481, 65.755, -171.428
177.019, 65.811, -172.140
179.594, 65.826, -172.997
182.206, 65.800, -173.860
184.856, 65.740, -174.623
187.545, 65.661, -175.245
190.273, 65.570, -175.723
193.041, 65.476, -176.084
195.849, 65.380, -176.328
198.697, 65.285, -176.463
201.587, 65.191, -176.508
204.520, 65.101, -176.501
207.494, 65.020, -176.391
210.512, 64.944, -176.203
213.574, 64.874, -175.971
216.681, 64.822, -175.689
219.833, 64.773, -175.307
223.030, 64.725, -174.837
226.274, 64.729, -174.681
229.565, 64.730, -174.593
232.905, 64.726, -174.470
236.292, 64.714, -174.409
239.729, 64.698, -174.398
243.216, 64.671, -174.390
246.754, 64.639, -174.358
250.343, 64.603, -174.263
253.984, 64.568, -174.128
257.678, 64.539, -173.954
261.426, 64.515, -173.751
265.229, 64.498, -173.571
269.087, 64.486, -173.425
273.001, 64.478, -173.328
276.972, 64.465, -173.266
281.000, 64.449, -173.279
285.088, 64.423, -173.315
289.234, 64.385, -173.320
293.441, 64.340, -173.311
297.710, 64.289, -173.261
302.040, 64.233, -173.178
306.433, 64.177, -173.038
310.890, 64.117, -172.870
315.412, 64.055, -172.655
320.000, 63.995, -172.401
324.655, 63.935, -172.135
329.377, 63.872, -171.820
334.168, 63.812, -171.470
339.028, 63.751, -171.091
343.959, 63.688, -170.689
348.962, 63.627, -170.233
354.038, 63.566, -169.775
359.188, 63.501, -169.265
364.412, 63.438, -168.676
369.713, 63.372, -168.017
375.090, 63.310, -167.332
380.546, 63.253, -166.556
386.081, 63.199, -165.723
391.697, 63.153, -164.809
397.395, 63.119, -163.831
403.175, 63.095, -162.788
409.039, 63.080, -161.688
414.989, 63.083, -160.518
421.025, 63.111, -159.318
427.149, 63.160, -158.153
433.362, 63.230, -157.054
439.665, 63.314, -155.999
446.060, 63.417, -155.047
452.548, 63.524, -154.250
459.131, 63.625, -153.551
465.809, 63.722, -152.912
472.584, 63.828, -152.301
479.458, 63.938, -151.781
486.432, 64.052, -151.329
493.507, 64.141, -150.958
500.686, 64.227, -150.529
507.968, 64.303, -150.169
515.357, 64.383, -149.738
522.853, 64.470, -149.258
530.458, 64.563, -148.797
538.174, 64.668, -148.378
546.002, 64.777, -148.040
553.943, 64.883, -147.782
562.001, 64.982, -147.565
570.175, 65.083, -147.376
578.469, 65.181, -147.238
586.883, 65.280, -147.155
595.419, 65.366, -147.158
604.080, 65.441, -147.189
612.866, 65.506, -147.211
621.780, 65.559, -147.209
630.824, 65.605, -147.180
640.000, 65.647, -147.105
649.309, 65.688, -147.006
658.753, 65.728, -146.877
668.335, 65.765, -146.742
678.056, 65.798, -146.588
687.919, 65.828, -146.404
697.925, 65.857, -146.175
708.076, 65.888, -145.899
718.376, 65.922, -145.607
728.825, 65.958, -145.294
739.426, 65.998, -144.980
750.181, 66.038, -144.668
761.093, 66.079, -144.346
772.163, 66.118, -144.010
783.394, 66.157, -143.652
794.789, 66.196, -143.269
806.349, 66.238, -142.854
818.078, 66.284, -142.413
829.977, 66.334, -141.955
842.050, 66.388, -141.490
854.297, 66.447, -141.026
866.724, 66.509, -140.561
879.330, 66.573, -140.090
892.120, 66.641, -139.613
905.097, 66.712, -139.141
918.262, 66.786, -138.660
931.618, 66.864, -138.171
945.169, 66.946, -137.677
958.917, 67.034, -137.184
972.864, 67.128, -136.700
987.015, 67.228, -136.234
1001.371, 67.332, -135.789
1015.937, 67.441, -135.379
1030.714, 67.554, -135.006
1045.706, 67.669, -134.668
1060.916, 67.784, -134.367
1076.347, 67.898, -134.100
1092.003, 68.011, -133.852
1107.887, 68.122, -133.621
1124.001, 68.235, -133.403
1140.350, 68.347, -133.202
1156.937, 68.459, -133.019
1173.765, 68.570, -132.852
1190.838, 68.681, -132.704
1208.159, 68.790, -132.573
1225.732, 68.899, -132.458
1243.561, 69.005, -132.353
1261.649, 69.109, -132.253
1280.000, 69.212, -132.156
1298.618, 69.314, -132.061
1317.507, 69.414, -131.960
1336.670, 69.514, -131.858
1356.113, 69.614, -131.755
1375.838, 69.713, -131.649
1395.850, 69.813, -131.541
1416.153, 69.913, -131.427
1436.751, 70.014, -131.314
1457.649, 70.115, -131.199
1478.851, 70.218, -131.079
1500.362, 70.322, -130.960
1522.185, 70.427, -130.840
1544.326, 70.533, -130.721
1566.789, 70.640, -130.600
1589.578, 70.749, -130.478
1612.699, 70.859, -130.352
1636.156, 70.970, -130.220
1659.955, 71.084, -130.084
1684.099, 71.202, -129.946
1708.595, 71.322, -129.807
1733.447, 71.446, -129.670
1758.661, 71.574, -129.540
1784.241, 71.706, -129.418
1810.193, 71.842, -129.305
1836.523, 71.983, -129.201
1863.236, 72.129, -129.113
1890.338, 72.279, -129.043
1917.833, 72.435, -128.997
1945.729, 72.596, -128.982
1974.030, 72.761, -129.000
2002.743, 72.932, -129.054
2031.873, 73.106, -129.150
2061.428, 73.285, -129.290
2091.412, 73.467, -129.480
2121.832, 73.653, -129.724
2152.695, 73.841, -130.027
2184.007, 74.032, -130.393
2215.774, 74.224, -130.828
2248.003, 74.417, -131.334
2280.701, 74.609, -131.915
2313.874, 74.800, -132.573
2347.530, 74.987, -133.310
2381.676, 75.171, -134.127
2416.318, 75.350, -135.026
2451.464, 75.522, -136.005
2487.122, 75.686, -137.066
2523.298, 75.840, -138.203
2560.000, 75.983, -139.414
2597.236, 76.113, -140.691
2635.014, 76.229, -142.026
2673.341, 76.329, -143.411
2712.226, 76.413, -144.838
2751.676, 76.478, -146.291
2791.700, 76.526, -147.757
2832.306, 76.557, -149.229
2873.503, 76.570, -150.690
2915.299, 76.564, -152.127
2957.703, 76.543, -153.531
3000.724, 76.504, -154.893
3044.370, 76.449, -156.196
3088.652, 76.381, -157.412
3133.577, 76.302, -158.547
3179.156, 76.213, -159.597
3225.398, 76.117, -160.554
3272.312, 76.016, -161.415
3319.909, 75.912, -162.179
3368.198, 75.806, -162.847
3417.190, 75.702, -163.423
3466.894, 75.601, -163.913
3517.321, 75.505, -164.330
3568.482, 75.415, -164.683
3620.387, 75.332, -164.980
3673.046, 75.255, -165.234
3726.472, 75.186, -165.456
3780.675, 75.125, -165.657
3835.666, 75.071, -165.851
3891.457, 75.023, -166.048
3948.060, 74.981, -166.259
4005.486, 74.942, -166.492
4063.747, 74.903, -166.748
4122.855, 74.863, -167.012
4182.824, 74.822, -167.287
4243.664, 74.779, -167.573
4305.390, 74.731, -167.856
4368.013, 74.677, -168.112
4431.547, 74.620, -168.306
4496.005, 74.565, -168.441
4561.401, 74.513, -168.525
4627.749, 74.466, -168.561
4695.061, 74.424, -168.542
4763.352, 74.390, -168.467
4832.637, 74.365, -168.327
4902.929, 74.356, -168.122
4974.244, 74.366, -167.857
5046.596, 74.402, -167.546
5120.000, 74.472, -167.216
5194.472, 74.586, -166.923
5270.027, 74.754, -166.762
5346.682, 74.984, -166.898
5424.451, 75.274, -167.607
5503.352, 75.590, -169.235
5583.399, 75.848, -172.020
5664.612, 75.929, -175.741
5747.006, 75.761, -179.520
5830.598, 75.388, 177.648
5915.406, 74.936, 176.193
6001.447, 74.523, 175.916
6088.740, 74.211, 176.374
6177.303, 74.021, 177.144
6267.154, 73.944, 177.883
6358.312, 73.965, 178.370
6450.796, 74.064, 178.415
6544.625, 74.220, 177.852
6639.818, 74.404, 176.535
6736.397, 74.579, 174.352
6834.380, 74.696, 171.258
6933.789, 74.701, 167.343
7034.643, 74.544, 162.878
7136.964, 74.198, 158.277
7240.773, 73.663, 153.978
7346.093, 72.964, 150.387
7452.944, 72.144, 147.806
7561.350, 71.269, 146.376
7671.332, 70.390, 145.958
7782.915, 69.533, 146.460
7896.120, 68.727, 147.722
8010.971, 67.975, 149.586
8127.493, 67.271, 152.024
8245.711, 66.611, 155.221
8365.647, 66.078, 159.628
8487.328, 65.910, 164.318
8610.779, 65.936, 166.874
8736.026, 65.804, 168.376
8863.095, 65.606, 170.195
8992.011, 65.442, 172.213
9122.803, 65.331, 174.100
9255.497, 65.256, 175.655
9390.121, 65.194, 176.772
9526.704, 65.109, 177.428
9665.273, 64.970, 177.721
9805.857, 64.753, 177.852
9948.487, 64.449, 178.109
10093.191, 64.072, 178.790
10240.000, 63.657, -179.877
10388.944, 63.251, -177.790
10540.055, 62.898, -174.966
10693.363, 62.642, -171.419
10848.902, 62.546, -167.416
11006.703, 62.626, -163.307
11166.799, 62.900, -159.403
11329.224, 63.378, -156.082
11494.012, 64.062, -153.800
11661.195, 64.936, -153.167
11830.812, 65.934, -155.024
12002.895, 66.894, -160.096
12177.480, 67.607, -168.809
12354.606, 67.706, 179.263
12534.309, 66.962, 167.353
12716.624, 65.573, 158.651
12901.592, 63.914, 153.978
13089.250, 62.265, 152.664
13279.637, 60.778, 153.748
13472.794, 59.498, 156.264
13668.760, 58.397, 159.743
13867.577, 57.473, 163.923
14069.285, 56.714, 168.486
14273.928, 56.066, 173.358
14481.547, 55.533, 179.155
14692.186, 55.306, -174.414
14905.889, 55.371, -168.731
15122.700, 55.615, -163.916
15342.664, 56.036, -159.949
15565.829, 56.639, -157.139
15792.239, 57.400, -155.904
16021.942, 58.253, -156.696
16254.986, 59.076, -159.617
16491.422, 59.793, -164.112
16731.295, 60.375, -169.549
16974.656, 60.966, -174.814
17221.559, 61.937, 179.320
17472.053, 63.451, 169.132
17726.189, 64.965, 148.416
17984.021, 64.702, 115.421
18245.605, 61.627, 88.197
18510.994, 57.367, 77.325
18780.242, 53.641, 78.037
19053.408, 51.121, 83.706
19330.547, 50.596, 89.478
19611.715, 50.467, 79.128
19896.975, 48.825, 70.138
