* Measurement data measured by REW V5.19
* Source: ASIO MOTU M Series, In 1
* Format: 1M Log Swept Sine, 1 sweep at -3.0 dBFS  With no timing reference
* Dated: 14 Mar, 2023 3:08:52 PM
* REW Settings:
*  C-weighting compensation: Off
*  Target level: 75.0 dB
* Note: ; 
* Measurement: Mar 14 15:08:52
* Smoothing: 1/48 octave
* Frequency Step: 1/48 octave
* Start Frequency: 10.1 Hz
*
* Freq(Hz), SPL(dB), Phase(degrees)
10.145, 69.671, -126.929
10.293, 69.685, -127.677
10.443, 69.700, -128.675
10.595, 69.722, -129.975
10.749, 69.744, -131.323
10.905, 69.759, -132.332
11.064, 69.770, -133.217
11.225, 69.784, -134.228
11.388, 69.799, -135.289
11.554, 69.812, -136.309
11.722, 69.825, -137.304
11.892, 69.836, -138.289
12.065, 69.846, -139.265
12.241, 69.855, -140.261
12.419, 69.863, -141.263
12.599, 69.868, -142.235
12.782, 69.870, -143.193
12.968, 69.870, -144.158
13.157, 69.869, -145.110
13.348, 69.866, -146.036
13.543, 69.861, -146.948
13.740, 69.856, -147.849
13.939, 69.851, -148.738
14.142, 69.846, -149.617
14.348, 69.840, -150.489
14.557, 69.834, -151.358
14.768, 69.827, -152.227
14.983, 69.818, -153.090
15.201, 69.808, -153.948
15.422, 69.796, -154.800
15.646, 69.782, -155.641
15.874, 69.767, -156.469
16.105, 69.751, -157.287
16.339, 69.735, -158.094
16.577, 69.717, -158.894
16.818, 69.700, -159.687
17.063, 69.681, -160.476
17.311, 69.661, -161.259
17.563, 69.639, -162.032
17.818, 69.616, -162.795
18.077, 69.592, -163.545
18.340, 69.567, -164.282
18.607, 69.542, -165.010
18.877, 69.516, -165.730
19.152, 69.490, -166.446
19.431, 69.463, -167.158
19.713, 69.433, -167.862
20.000, 69.402, -168.553
20.291, 69.369, -169.228
20.586, 69.336, -169.883
20.885, 69.304, -170.524
21.189, 69.272, -171.156
21.497, 69.241, -171.790
21.810, 69.210, -172.429
22.127, 69.176, -173.073
22.449, 69.140, -173.714
22.776, 69.100, -174.342
23.107, 69.059, -174.952
23.443, 69.017, -175.543
23.784, 68.976, -176.120
24.130, 68.934, -176.692
24.481, 68.892, -177.263
24.837, 68.849, -177.832
25.198, 68.804, -178.392
25.565, 68.757, -178.937
25.937, 68.710, -179.466
26.314, 68.664, -179.985
26.697, 68.618, 179.498
27.085, 68.571, 178.983
27.479, 68.523, 178.472
27.879, 68.474, 177.973
28.284, 68.424, 177.486
28.696, 68.374, 177.009
29.113, 68.323, 176.538
29.537, 68.272, 176.073
29.966, 68.220, 175.617
30.402, 68.167, 175.171
30.844, 68.113, 174.737
31.293, 68.058, 174.314
31.748, 68.002, 173.905
32.210, 67.947, 173.511
32.678, 67.892, 173.125
33.154, 67.837, 172.743
33.636, 67.780, 172.367
34.125, 67.723, 172.008
34.621, 67.667, 171.670
35.125, 67.613, 171.337
35.636, 67.561, 170.988
36.154, 67.506, 170.629
36.680, 67.447, 170.287
37.214, 67.387, 169.984
37.755, 67.332, 169.704
38.304, 67.281, 169.410
38.861, 67.230, 169.086
39.427, 67.174, 168.749
40.000, 67.113, 168.426
40.582, 67.051, 168.133
41.172, 66.989, 167.859
41.771, 66.930, 167.584
42.379, 66.868, 167.300
42.995, 66.803, 167.027
43.620, 66.738, 166.787
44.255, 66.676, 166.564
44.898, 66.616, 166.331
45.552, 66.554, 166.092
46.214, 66.490, 165.869
46.886, 66.425, 165.664
47.568, 66.360, 165.480
48.260, 66.297, 165.318
48.962, 66.237, 165.150
49.674, 66.176, 164.958
50.397, 66.109, 164.773
51.130, 66.041, 164.618
51.874, 65.974, 164.473
52.628, 65.907, 164.325
53.394, 65.839, 164.192
54.170, 65.772, 164.068
54.958, 65.704, 163.935
55.758, 65.629, 163.843
56.569, 65.561, 163.830
57.391, 65.505, 163.774
58.226, 65.437, 163.638
59.073, 65.354, 163.586
59.932, 65.279, 163.621
60.804, 65.211, 163.631
61.688, 65.142, 163.640
62.586, 65.077, 163.642
63.496, 65.012, 163.634
64.420, 64.949, 163.647
65.357, 64.889, 163.648
66.307, 64.827, 163.656
67.272, 64.763, 163.687
68.250, 64.700, 163.756
69.243, 64.640, 163.812
70.250, 64.571, 163.871
71.272, 64.507, 163.985
72.309, 64.446, 164.015
73.360, 64.372, 164.080
74.427, 64.306, 164.220
75.510, 64.245, 164.367
76.608, 64.190, 164.537
77.723, 64.141, 164.719
78.853, 64.098, 164.883
80.000, 64.054, 165.034
81.164, 64.017, 165.154
82.344, 63.977, 165.210
83.542, 63.935, 165.218
84.757, 63.882, 165.166
85.990, 63.817, 165.147
87.241, 63.751, 165.187
88.510, 63.684, 165.234
89.797, 63.610, 165.291
91.103, 63.533, 165.401
92.428, 63.453, 165.531
93.773, 63.370, 165.697
95.137, 63.284, 165.882
96.520, 63.195, 166.101
97.924, 63.101, 166.384
99.349, 63.016, 166.727
100.794, 62.925, 167.091
102.260, 62.837, 167.559
103.747, 62.752, 168.102
105.256, 62.677, 168.718
106.787, 62.612, 169.347
108.340, 62.557, 169.976
109.916, 62.506, 170.573
111.515, 62.451, 171.174
113.137, 62.386, 171.843
114.783, 62.320, 172.646
116.452, 62.258, 173.548
118.146, 62.202, 174.616
119.865, 62.168, 175.888
121.608, 62.176, 177.356
123.377, 62.239, 178.910
125.171, 62.367, -179.578
126.992, 62.562, -178.302
128.839, 62.810, -177.468
130.713, 63.078, -177.216
132.615, 63.323, -177.500
134.543, 63.518, -178.175
136.500, 63.653, -179.060
138.486, 63.733, -179.982
140.500, 63.771, 179.176
142.544, 63.783, 178.456
144.617, 63.779, 177.866
146.721, 63.768, 177.349
148.855, 63.750, 176.895
151.020, 63.731, 176.467
153.217, 63.705, 176.029
155.445, 63.668, 175.610
157.706, 63.618, 175.231
160.000, 63.559, 174.915
162.327, 63.491, 174.657
164.688, 63.417, 174.481
167.084, 63.343, 174.377
169.514, 63.268, 174.337
171.980, 63.190, 174.364
174.481, 63.114, 174.454
177.019, 63.041, 174.596
179.594, 62.971, 174.806
182.206, 62.906, 175.082
184.856, 62.846, 175.408
187.545, 62.794, 175.780
190.273, 62.752, 176.189
193.041, 62.725, 176.619
195.849, 62.714, 177.034
198.697, 62.714, 177.389
201.587, 62.722, 177.654
204.520, 62.732, 177.819
207.494, 62.736, 177.910
210.512, 62.732, 177.947
213.574, 62.718, 177.956
216.681, 62.696, 177.962
219.833, 62.665, 177.986
223.030, 62.627, 178.029
226.274, 62.587, 178.104
229.565, 62.544, 178.212
232.905, 62.497, 178.348
236.292, 62.450, 178.510
239.729, 62.404, 178.706
243.216, 62.357, 178.916
246.754, 62.310, 179.148
250.343, 62.265, 179.408
253.984, 62.222, 179.685
257.678, 62.180, 179.972
261.426, 62.137, -179.741
265.229, 62.094, -179.454
269.087, 62.052, -179.156
273.001, 62.009, -178.854
276.972, 61.964, -178.525
281.000, 61.917, -178.192
285.088, 61.870, -177.833
289.234, 61.824, -177.446
293.441, 61.779, -177.046
297.710, 61.732, -176.645
302.040, 61.685, -176.227
306.433, 61.635, -175.791
310.890, 61.585, -175.320
315.412, 61.535, -174.831
320.000, 61.484, -174.319
324.655, 61.432, -173.771
329.377, 61.379, -173.189
334.168, 61.325, -172.572
339.028, 61.269, -171.931
343.959, 61.213, -171.246
348.962, 61.154, -170.484
354.038, 61.097, -169.655
359.188, 61.039, -168.744
364.412, 60.983, -167.736
369.713, 60.933, -166.610
375.090, 60.896, -165.356
380.546, 60.873, -163.994
386.081, 60.871, -162.499
391.697, 60.899, -160.904
397.395, 60.965, -159.250
403.175, 61.075, -157.620
409.039, 61.229, -156.101
414.989, 61.418, -154.797
421.025, 61.634, -153.774
427.149, 61.860, -153.058
433.362, 62.078, -152.657
439.665, 62.277, -152.495
446.060, 62.451, -152.500
452.548, 62.596, -152.608
459.131, 62.715, -152.760
465.809, 62.811, -152.916
472.584, 62.885, -153.041
479.458, 62.945, -153.097
486.432, 62.993, -153.091
493.507, 63.033, -152.989
500.686, 63.072, -152.798
507.968, 63.115, -152.521
515.357, 63.166, -152.223
522.853, 63.224, -151.869
530.458, 63.295, -151.555
538.174, 63.375, -151.262
546.002, 63.451, -151.010
553.943, 63.528, -150.803
562.001, 63.602, -150.626
570.175, 63.673, -150.466
578.469, 63.741, -150.323
586.883, 63.807, -150.185
595.419, 63.871, -150.058
604.080, 63.932, -149.922
612.866, 63.989, -149.786
621.780, 64.044, -149.639
630.824, 64.101, -149.481
640.000, 64.156, -149.321
649.309, 64.212, -149.163
658.753, 64.267, -149.005
668.335, 64.321, -148.852
678.056, 64.374, -148.699
687.919, 64.425, -148.547
697.925, 64.473, -148.382
708.076, 64.520, -148.208
718.376, 64.566, -148.020
728.825, 64.612, -147.818
739.426, 64.657, -147.601
750.181, 64.703, -147.369
761.093, 64.749, -147.122
772.163, 64.797, -146.864
783.394, 64.845, -146.592
794.789, 64.894, -146.304
806.349, 64.946, -146.000
818.078, 65.000, -145.680
829.977, 65.057, -145.351
842.050, 65.117, -145.013
854.297, 65.181, -144.674
866.724, 65.249, -144.340
879.330, 65.319, -144.014
892.120, 65.391, -143.694
905.097, 65.465, -143.375
918.262, 65.541, -143.054
931.618, 65.619, -142.735
945.169, 65.701, -142.414
958.917, 65.786, -142.097
972.864, 65.876, -141.788
987.015, 65.969, -141.496
1001.371, 66.066, -141.222
1015.937, 66.166, -140.973
1030.714, 66.269, -140.753
1045.706, 66.373, -140.564
1060.916, 66.477, -140.407
1076.347, 66.580, -140.276
1092.003, 66.682, -140.165
1107.887, 66.782, -140.069
1124.001, 66.881, -139.982
1140.350, 66.979, -139.898
1156.937, 67.077, -139.818
1173.765, 67.175, -139.742
1190.838, 67.275, -139.673
1208.159, 67.376, -139.611
1225.732, 67.478, -139.561
1243.561, 67.581, -139.530
1261.649, 67.685, -139.514
1280.000, 67.789, -139.517
1298.618, 67.894, -139.540
1317.507, 67.997, -139.584
1336.670, 68.100, -139.645
1356.113, 68.202, -139.720
1375.838, 68.301, -139.806
1395.850, 68.400, -139.904
1416.153, 68.497, -140.005
1436.751, 68.594, -140.114
1457.649, 68.690, -140.233
1478.851, 68.785, -140.357
1500.362, 68.879, -140.483
1522.185, 68.972, -140.613
1544.326, 69.065, -140.747
1566.789, 69.156, -140.883
1589.578, 69.247, -141.018
1612.699, 69.336, -141.148
1636.156, 69.425, -141.262
1659.955, 69.512, -141.346
1684.099, 69.602, -141.384
1708.595, 69.700, -141.362
1733.447, 69.815, -141.291
1758.661, 69.956, -141.242
1784.241, 70.123, -141.344
1810.193, 70.298, -141.691
1836.523, 70.458, -142.247
1863.236, 70.595, -142.904
1890.338, 70.712, -143.575
1917.833, 70.817, -144.229
1945.729, 70.914, -144.864
1974.030, 71.007, -145.493
2002.743, 71.098, -146.120
2031.873, 71.187, -146.752
2061.428, 71.275, -147.395
2091.412, 71.361, -148.055
2121.832, 71.447, -148.738
2152.695, 71.532, -149.452
2184.007, 71.617, -150.205
2215.774, 71.702, -151.006
2248.003, 71.788, -151.871
2280.701, 71.876, -152.823
2313.874, 71.965, -153.898
2347.530, 72.058, -155.166
2381.676, 72.148, -156.748
2416.318, 72.218, -158.862
2451.464, 72.200, -161.790
2487.122, 71.927, -165.385
2523.298, 71.228, -167.555
2560.000, 70.454, -165.360
2597.236, 70.236, -161.169
2635.014, 70.407, -158.469
2673.341, 70.642, -157.399
2712.226, 70.832, -157.223
2751.676, 70.966, -157.442
2791.700, 71.056, -157.814
2832.306, 71.117, -158.234
2873.503, 71.155, -158.658
2915.299, 71.177, -159.065
2957.703, 71.188, -159.445
3000.724, 71.190, -159.791
3044.370, 71.183, -160.095
3088.652, 71.170, -160.345
3133.577, 71.148, -160.505
3179.156, 71.127, -160.488
3225.398, 71.145, -160.288
3272.312, 71.215, -160.331
3319.909, 71.258, -160.662
3368.198, 71.275, -160.892
3417.190, 71.306, -161.006
3466.894, 71.356, -161.132
3517.321, 71.424, -161.284
3568.482, 71.515, -161.479
3620.387, 71.642, -161.772
3673.046, 71.814, -162.254
3726.472, 72.047, -163.082
3780.675, 72.352, -164.545
3835.666, 72.719, -167.159
3891.457, 73.034, -171.504
3948.060, 73.139, -177.245
4005.486, 73.216, 175.176
4063.747, 72.862, 162.739
4122.855, 70.559, 149.880
4182.824, 65.486, 164.459
4243.664, 64.046, -166.953
4305.390, 65.725, -155.150
4368.013, 66.814, -155.050
4431.547, 67.263, -153.101
4496.005, 67.717, -150.632
4561.401, 68.096, -149.386
4627.749, 68.283, -148.513
4695.061, 68.469, -146.189
4763.352, 68.901, -144.328
4832.637, 69.324, -143.683
4902.929, 69.692, -143.606
4974.244, 70.012, -143.881
5046.596, 70.283, -144.411
5120.000, 70.521, -145.126
5194.472, 70.733, -146.152
5270.027, 70.901, -147.857
5346.682, 70.836, -150.778
5424.451, 70.199, -151.849
5503.352, 69.643, -147.425
5583.399, 69.951, -141.786
5664.612, 70.581, -140.095
5747.006, 71.025, -140.653
5830.598, 71.194, -142.323
5915.406, 70.887, -142.517
6001.447, 70.805, -137.588
6088.740, 71.446, -133.645
6177.303, 72.250, -132.324
6267.154, 73.016, -133.170
6358.312, 73.640, -135.470
6450.796, 74.005, -138.880
6544.625, 74.004, -140.761
6639.818, 74.389, -139.967
6736.397, 75.113, -142.867
6834.380, 75.123, -148.845
6933.789, 74.641, -147.919
7034.643, 75.365, -145.225
7136.964, 76.280, -148.174
7240.773, 76.914, -153.838
7346.093, 77.251, -160.771
7452.944, 77.330, -168.229
7561.350, 77.175, -176.245
7671.332, 76.681, 174.970
7782.915, 75.607, 166.656
7896.120, 74.009, 162.648
8010.971, 72.598, 161.149
8127.493, 70.414, 163.707
8245.711, 69.149, -179.269
8365.647, 69.861, -170.966
8487.328, 70.257, -168.172
8610.779, 70.558, -167.094
8736.026, 70.410, -166.799
8863.095, 70.266, -163.016
8992.011, 70.588, -160.053
9122.803, 70.753, -158.833
9255.497, 71.015, -156.398
9390.121, 71.416, -156.108
9526.704, 71.485, -156.865
9665.273, 71.311, -155.865
9805.857, 71.238, -152.766
9948.487, 71.433, -148.178
10093.191, 72.080, -143.888
10240.000, 72.937, -141.077
10388.944, 73.931, -139.924
10540.055, 74.900, -139.872
10693.363, 76.014, -140.093
10848.902, 77.391, -141.581
11006.703, 79.007, -145.778
11166.799, 80.664, -154.378
11329.224, 81.879, -168.290
11494.012, 82.221, 174.774
11661.195, 81.801, 158.927
11830.812, 80.836, 145.517
12002.895, 79.493, 134.891
12177.480, 77.929, 127.780
12354.606, 76.510, 123.971
12534.309, 75.417, 120.018
12716.624, 74.075, 115.369
12901.592, 72.476, 114.311
13089.250, 71.263, 115.130
13279.637, 70.216, 115.112
13472.794, 68.970, 115.383
13668.760, 67.576, 119.103
13867.577, 66.693, 127.214
14069.285, 66.963, 134.578
14273.928, 67.717, 135.443
14481.547, 68.058, 130.987
14692.186, 67.800, 124.993
14905.889, 67.010, 119.855
15122.700, 65.943, 117.388
15342.664, 64.906, 116.741
15565.829, 63.872, 117.405
15792.239, 62.927, 119.831
16021.942, 62.227, 123.944
16254.986, 62.045, 129.036
16491.422, 62.557, 132.333
16731.295, 63.385, 130.192
16974.656, 63.921, 123.183
17221.559, 63.967, 113.005
17472.053, 63.375, 101.411
17726.189, 62.176, 90.991
17984.021, 60.679, 82.582
18245.605, 59.132, 75.762
18510.994, 57.935, 68.015
18780.242, 56.945, 51.112
19053.408, 54.204, 22.692
19330.547, 48.131, 4.578
19611.715, 39.790, 10.781
19896.975, 30.875, 35.898
