* Measurement data measured by REW V5.19
* Source: ASIO MOTU M Series, In 1
* Format: 1M Log Swept Sine, 1 sweep at -3.0 dBFS  With no timing reference
* Dated: 14 Mar, 2023 3:07:20 PM
* REW Settings:
*  C-weighting compensation: Off
*  Target level: 75.0 dB
* Note: ; 
* Measurement: Mar 14 15:07:20
* Smoothing: 1/48 octave
* Frequency Step: 1/48 octave
* Start Frequency: 10.1 Hz
*
* Freq(Hz), SPL(dB), Phase(degrees)
10.145, 69.447, -122.783
10.293, 69.467, -123.551
10.443, 69.488, -124.580
10.595, 69.520, -125.923
10.749, 69.551, -127.317
10.905, 69.572, -128.368
11.064, 69.589, -129.294
11.225, 69.608, -130.349
11.388, 69.628, -131.455
11.554, 69.646, -132.515
11.722, 69.663, -133.544
11.892, 69.678, -134.558
12.065, 69.693, -135.558
12.241, 69.707, -136.573
12.419, 69.720, -137.590
12.599, 69.732, -138.578
12.782, 69.742, -139.553
12.968, 69.752, -140.542
13.157, 69.760, -141.524
13.348, 69.767, -142.491
13.543, 69.772, -143.453
13.740, 69.775, -144.412
13.939, 69.776, -145.364
14.142, 69.776, -146.307
14.348, 69.774, -147.240
14.557, 69.770, -148.163
14.768, 69.764, -149.076
14.983, 69.757, -149.974
15.201, 69.749, -150.858
15.422, 69.739, -151.730
15.646, 69.730, -152.590
15.874, 69.719, -153.440
16.105, 69.709, -154.282
16.339, 69.698, -155.120
16.577, 69.686, -155.953
16.818, 69.673, -156.783
17.063, 69.659, -157.608
17.311, 69.643, -158.427
17.563, 69.626, -159.238
17.818, 69.608, -160.040
18.077, 69.588, -160.833
18.340, 69.567, -161.618
18.607, 69.545, -162.394
18.877, 69.521, -163.162
19.152, 69.497, -163.919
19.431, 69.471, -164.663
19.713, 69.444, -165.393
20.000, 69.418, -166.111
20.291, 69.392, -166.821
20.586, 69.366, -167.529
20.885, 69.339, -168.240
21.189, 69.311, -168.957
21.497, 69.280, -169.674
21.810, 69.244, -170.378
22.127, 69.205, -171.057
22.449, 69.165, -171.700
22.776, 69.126, -172.310
23.107, 69.090, -172.900
23.443, 69.058, -173.489
23.784, 69.029, -174.094
24.130, 68.998, -174.722
24.481, 68.964, -175.367
24.837, 68.924, -176.011
25.198, 68.880, -176.639
25.565, 68.834, -177.242
25.937, 68.786, -177.822
26.314, 68.739, -178.384
26.697, 68.691, -178.933
27.085, 68.644, -179.471
27.479, 68.597, 179.998
27.879, 68.551, 179.469
28.284, 68.504, 178.935
28.696, 68.455, 178.401
29.113, 68.403, 177.877
29.537, 68.351, 177.373
29.966, 68.299, 176.885
30.402, 68.250, 176.396
30.844, 68.200, 175.892
31.293, 68.145, 175.385
31.748, 68.086, 174.908
32.210, 68.026, 174.479
32.678, 67.970, 174.085
33.154, 67.920, 173.689
33.636, 67.872, 173.267
34.125, 67.819, 172.831
34.621, 67.763, 172.407
35.125, 67.705, 172.006
35.636, 67.647, 171.619
36.154, 67.588, 171.241
36.680, 67.528, 170.879
37.214, 67.468, 170.535
37.755, 67.410, 170.198
38.304, 67.352, 169.858
38.861, 67.293, 169.516
39.427, 67.234, 169.178
40.000, 67.173, 168.840
40.582, 67.111, 168.504
41.172, 67.047, 168.180
41.771, 66.982, 167.873
42.379, 66.917, 167.573
42.995, 66.851, 167.274
43.620, 66.781, 166.989
44.255, 66.710, 166.735
44.898, 66.640, 166.508
45.552, 66.571, 166.292
46.214, 66.502, 166.086
46.886, 66.435, 165.894
47.568, 66.368, 165.711
48.260, 66.302, 165.529
48.962, 66.234, 165.363
49.674, 66.168, 165.227
50.397, 66.107, 165.097
51.130, 66.047, 164.951
51.874, 65.985, 164.806
52.628, 65.925, 164.685
53.394, 65.869, 164.549
54.170, 65.811, 164.375
54.958, 65.750, 164.210
55.758, 65.693, 164.023
56.569, 65.626, 163.759
57.391, 65.541, 163.578
58.226, 65.468, 163.524
59.073, 65.410, 163.373
59.932, 65.334, 163.171
60.804, 65.254, 163.082
61.688, 65.181, 163.005
62.586, 65.102, 162.940
63.496, 65.028, 162.951
64.420, 64.962, 162.916
65.357, 64.885, 162.848
66.307, 64.802, 162.884
67.272, 64.733, 162.952
68.250, 64.668, 162.971
69.243, 64.606, 162.966
70.250, 64.539, 162.865
71.272, 64.454, 162.795
72.309, 64.374, 162.796
73.360, 64.291, 162.741
74.427, 64.195, 162.742
75.510, 64.102, 162.811
76.608, 64.008, 162.891
77.723, 63.910, 163.019
78.853, 63.819, 163.187
80.000, 63.726, 163.324
81.164, 63.626, 163.536
82.344, 63.532, 163.780
83.542, 63.432, 164.052
84.757, 63.334, 164.390
85.990, 63.236, 164.737
87.241, 63.128, 165.130
88.510, 63.017, 165.663
89.797, 62.919, 166.254
91.103, 62.808, 166.908
92.428, 62.711, 167.798
93.773, 62.633, 168.741
95.137, 62.573, 169.803
96.520, 62.540, 170.935
97.924, 62.543, 172.107
99.349, 62.600, 173.195
100.794, 62.686, 173.918
102.260, 62.767, 174.436
103.747, 62.843, 174.732
105.256, 62.891, 174.929
106.787, 62.908, 175.069
108.340, 62.902, 175.405
109.916, 62.895, 175.828
111.515, 62.896, 176.445
113.137, 62.926, 177.127
114.783, 62.983, 177.890
116.452, 63.090, 178.582
118.146, 63.219, 179.041
119.865, 63.368, 179.191
121.608, 63.504, 178.991
123.377, 63.616, 178.517
125.171, 63.688, 177.921
126.992, 63.719, 177.339
128.839, 63.720, 176.882
130.713, 63.708, 176.587
132.615, 63.703, 176.368
134.543, 63.709, 176.198
136.500, 63.727, 175.996
138.486, 63.748, 175.741
140.500, 63.761, 175.365
142.544, 63.756, 174.901
144.617, 63.732, 174.420
146.721, 63.693, 173.981
148.855, 63.641, 173.599
151.020, 63.577, 173.312
153.217, 63.507, 173.089
155.445, 63.430, 172.932
157.706, 63.355, 172.837
160.000, 63.280, 172.800
162.327, 63.204, 172.808
164.688, 63.128, 172.873
167.084, 63.054, 172.983
169.514, 62.979, 173.141
171.980, 62.906, 173.367
174.481, 62.836, 173.655
177.019, 62.774, 173.989
179.594, 62.718, 174.369
182.206, 62.670, 174.788
184.856, 62.635, 175.185
187.545, 62.609, 175.586
190.273, 62.593, 175.984
193.041, 62.582, 176.350
195.849, 62.575, 176.678
198.697, 62.576, 176.974
201.587, 62.581, 177.225
204.520, 62.588, 177.438
207.494, 62.597, 177.576
210.512, 62.604, 177.641
213.574, 62.602, 177.646
216.681, 62.589, 177.606
219.833, 62.565, 177.551
223.030, 62.529, 177.526
226.274, 62.487, 177.545
229.565, 62.440, 177.592
232.905, 62.388, 177.685
236.292, 62.336, 177.827
239.729, 62.284, 178.001
243.216, 62.231, 178.198
246.754, 62.181, 178.418
250.343, 62.131, 178.668
253.984, 62.083, 178.920
257.678, 62.036, 179.190
261.426, 61.989, 179.458
265.229, 61.940, 179.732
269.087, 61.890, -179.964
273.001, 61.840, -179.661
276.972, 61.787, -179.346
281.000, 61.733, -178.990
285.088, 61.679, -178.612
289.234, 61.627, -178.221
293.441, 61.574, -177.804
297.710, 61.523, -177.363
302.040, 61.472, -176.916
306.433, 61.419, -176.454
310.890, 61.364, -175.962
315.412, 61.310, -175.445
320.000, 61.255, -174.906
324.655, 61.199, -174.339
329.377, 61.144, -173.751
334.168, 61.087, -173.129
339.028, 61.027, -172.473
343.959, 60.967, -171.778
348.962, 60.904, -171.028
354.038, 60.840, -170.207
359.188, 60.775, -169.314
364.412, 60.712, -168.335
369.713, 60.647, -167.259
375.090, 60.585, -166.059
380.546, 60.530, -164.705
386.081, 60.488, -163.184
391.697, 60.466, -161.465
397.395, 60.477, -159.540
403.175, 60.539, -157.470
409.039, 60.663, -155.345
414.989, 60.859, -153.300
421.025, 61.118, -151.564
427.149, 61.433, -150.157
433.362, 61.779, -149.403
439.665, 62.097, -149.181
446.060, 62.382, -149.377
452.548, 62.634, -149.844
459.131, 62.813, -150.489
465.809, 62.950, -151.178
472.584, 63.046, -151.804
479.458, 63.108, -152.344
486.432, 63.147, -152.773
493.507, 63.168, -153.059
500.686, 63.178, -153.204
507.968, 63.183, -153.208
515.357, 63.190, -153.068
522.853, 63.205, -152.819
530.458, 63.233, -152.495
538.174, 63.275, -152.140
546.002, 63.330, -151.796
553.943, 63.397, -151.499
562.001, 63.468, -151.267
570.175, 63.540, -151.102
578.469, 63.609, -150.988
586.883, 63.670, -150.921
595.419, 63.724, -150.874
604.080, 63.770, -150.832
612.866, 63.809, -150.770
621.780, 63.841, -150.689
630.824, 63.869, -150.570
640.000, 63.894, -150.416
649.309, 63.918, -150.229
658.753, 63.941, -150.010
668.335, 63.964, -149.754
678.056, 63.987, -149.467
687.919, 64.012, -149.145
697.925, 64.037, -148.789
708.076, 64.065, -148.401
718.376, 64.096, -147.980
728.825, 64.132, -147.525
739.426, 64.175, -147.043
750.181, 64.224, -146.549
761.093, 64.282, -146.054
772.163, 64.345, -145.578
783.394, 64.413, -145.122
794.789, 64.483, -144.689
806.349, 64.555, -144.275
818.078, 64.627, -143.866
829.977, 64.699, -143.457
842.050, 64.773, -143.036
854.297, 64.850, -142.610
866.724, 64.931, -142.176
879.330, 65.017, -141.743
892.120, 65.108, -141.313
905.097, 65.204, -140.901
918.262, 65.305, -140.512
931.618, 65.408, -140.155
945.169, 65.515, -139.803
958.917, 65.626, -139.494
972.864, 65.735, -139.222
987.015, 65.845, -138.968
1001.371, 65.956, -138.740
1015.937, 66.067, -138.529
1030.714, 66.177, -138.330
1045.706, 66.288, -138.145
1060.916, 66.399, -137.969
1076.347, 66.511, -137.807
1092.003, 66.625, -137.661
1107.887, 66.739, -137.532
1124.001, 66.854, -137.425
1140.350, 66.969, -137.339
1156.937, 67.084, -137.270
1173.765, 67.197, -137.214
1190.838, 67.310, -137.168
1208.159, 67.423, -137.131
1225.732, 67.536, -137.099
1243.561, 67.649, -137.077
1261.649, 67.764, -137.065
1280.000, 67.879, -137.064
1298.618, 67.996, -137.079
1317.507, 68.112, -137.111
1336.670, 68.229, -137.161
1356.113, 68.346, -137.226
1375.838, 68.463, -137.305
1395.850, 68.580, -137.396
1416.153, 68.696, -137.499
1436.751, 68.813, -137.611
1457.649, 68.930, -137.732
1478.851, 69.048, -137.865
1500.362, 69.168, -138.010
1522.185, 69.289, -138.173
1544.326, 69.411, -138.356
1566.789, 69.535, -138.563
1589.578, 69.660, -138.801
1612.699, 69.784, -139.074
1636.156, 69.907, -139.383
1659.955, 70.025, -139.720
1684.099, 70.139, -140.064
1708.595, 70.251, -140.393
1733.447, 70.364, -140.708
1758.661, 70.482, -141.027
1784.241, 70.603, -141.368
1810.193, 70.728, -141.742
1836.523, 70.854, -142.154
1863.236, 70.981, -142.602
1890.338, 71.108, -143.087
1917.833, 71.236, -143.608
1945.729, 71.364, -144.167
1974.030, 71.493, -144.768
2002.743, 71.622, -145.412
2031.873, 71.752, -146.105
2061.428, 71.884, -146.853
2091.412, 72.017, -147.666
2121.832, 72.152, -148.556
2152.695, 72.291, -149.550
2184.007, 72.434, -150.691
2215.774, 72.576, -152.054
2248.003, 72.702, -153.735
2280.701, 72.774, -155.763
2313.874, 72.749, -157.845
2347.530, 72.656, -159.429
2381.676, 72.607, -160.579
2416.318, 72.628, -162.033
2451.464, 72.634, -164.353
2487.122, 72.469, -167.600
2523.298, 71.935, -170.496
2560.000, 71.129, -169.985
2597.236, 70.694, -166.114
2635.014, 70.771, -162.887
2673.341, 70.986, -161.483
2712.226, 71.171, -161.145
2751.676, 71.302, -161.281
2791.700, 71.387, -161.606
2832.306, 71.436, -161.965
2873.503, 71.458, -162.226
2915.299, 71.480, -162.224
2957.703, 71.570, -162.077
3000.724, 71.715, -162.511
3044.370, 71.796, -163.378
3088.652, 71.827, -164.108
3133.577, 71.859, -164.681
3179.156, 71.909, -165.217
3225.398, 71.987, -165.877
3272.312, 72.073, -166.927
3319.909, 72.080, -168.357
3368.198, 72.020, -169.139
3417.190, 72.126, -169.517
3466.894, 72.366, -170.877
3517.321, 72.605, -173.770
3568.482, 72.653, -178.509
3620.387, 72.087, 175.742
3673.046, 70.572, 177.429
3726.472, 70.272, -174.170
3780.675, 70.978, -172.519
3835.666, 71.695, -175.587
3891.457, 72.156, 177.093
3948.060, 71.752, 165.032
4005.486, 68.975, 158.924
4063.747, 65.538, 177.989
4122.855, 65.776, -165.474
4182.824, 67.189, -158.689
4243.664, 68.193, -160.518
4305.390, 68.250, -163.305
4368.013, 67.877, -161.791
4431.547, 68.032, -157.852
4496.005, 68.442, -156.134
4561.401, 68.743, -155.932
4627.749, 68.879, -155.642
4695.061, 69.164, -154.808
4763.352, 69.499, -156.187
4832.637, 69.363, -158.742
4902.929, 68.967, -157.521
4974.244, 69.059, -156.086
5046.596, 68.880, -156.235
5120.000, 68.658, -152.745
5194.472, 68.949, -149.599
5270.027, 69.258, -148.145
5346.682, 69.515, -147.120
5424.451, 69.762, -146.062
5503.352, 70.098, -145.205
5583.399, 70.390, -145.449
5664.612, 70.543, -145.484
5747.006, 70.683, -145.664
5830.598, 70.569, -144.726
5915.406, 70.822, -140.515
6001.447, 71.571, -138.463
6088.740, 72.301, -138.470
6177.303, 73.007, -139.853
6267.154, 73.622, -142.335
6358.312, 74.158, -145.732
6450.796, 74.530, -150.835
6544.625, 74.265, -155.794
6639.818, 74.044, -154.223
6736.397, 74.875, -155.055
6834.380, 75.440, -162.667
6933.789, 74.874, -172.224
7034.643, 73.418, -170.229
7136.964, 74.026, -163.070
7240.773, 75.225, -166.324
7346.093, 75.895, -175.211
7452.944, 75.924, 172.528
7561.350, 74.891, 158.138
7671.332, 72.101, 151.177
7782.915, 69.418, 161.590
7896.120, 68.608, 170.886
8010.971, 68.584, -179.682
8127.493, 69.233, -176.727
8245.711, 69.155, -178.764
8365.647, 68.364, -176.611
8487.328, 68.217, -170.574
8610.779, 68.475, -168.143
8736.026, 68.224, -166.919
8863.095, 68.046, -161.215
8992.011, 68.542, -156.566
9122.803, 69.047, -154.663
9255.497, 69.435, -153.719
9390.121, 69.756, -153.222
9526.704, 69.957, -153.517
9665.273, 69.816, -152.602
9805.857, 70.022, -148.171
9948.487, 70.708, -146.311
10093.191, 71.202, -146.252
10240.000, 71.561, -146.364
10388.944, 71.783, -144.957
10540.055, 72.436, -141.412
10693.363, 73.645, -140.162
10848.902, 74.722, -142.675
11006.703, 75.598, -144.758
11166.799, 76.947, -147.123
11329.224, 78.421, -153.956
11494.012, 79.689, -164.942
11661.195, 80.408, 179.262
11830.812, 80.021, 161.755
12002.895, 78.673, 148.784
12177.480, 77.163, 141.575
12354.606, 75.877, 137.045
12534.309, 74.775, 133.433
12716.624, 73.642, 129.710
12901.592, 72.300, 128.556
13089.250, 71.286, 129.892
13279.637, 70.651, 131.091
13472.794, 70.224, 131.028
13668.760, 69.730, 130.075
13867.577, 69.212, 129.941
14069.285, 69.014, 130.066
14273.928, 69.087, 126.713
14481.547, 68.672, 119.458
14692.186, 67.487, 113.134
14905.889, 65.890, 111.115
15122.700, 64.441, 113.137
15342.664, 63.390, 116.785
15565.829, 62.658, 120.811
15792.239, 62.258, 125.113
16021.942, 62.367, 128.407
16254.986, 62.804, 127.748
16491.422, 63.050, 122.635
16731.295, 62.730, 115.018
16974.656, 61.872, 108.501
17221.559, 60.838, 103.264
17472.053, 59.589, 99.157
17726.189, 58.337, 97.383
17984.021, 57.459, 96.160
18245.605, 57.106, 92.699
18510.994, 57.320, 80.644
18780.242, 56.574, 50.076
19053.408, 52.179, 14.220
19330.547, 43.919, 1.049
19611.715, 32.673, 36.125
19896.975, 21.277, 126.383
