* Measurement data measured by REW V5.19
* Source: ASIO MOTU M Series, In 1
* Format: 1M Log Swept Sine, 1 sweep at -3.0 dBFS  With no timing reference
* Dated: 6 Mar, 2023 1:25:04 PM
* REW Settings:
*  C-weighting compensation: Off
*  Target level: 75.0 dB
* Note: ; 
* Measurement: Mar 6 13:25:04
* Smoothing: 1/48 octave
* Frequency Step: 1/48 octave
* Start Frequency: 10.1 Hz
*
* Freq(Hz), SPL(dB), Phase(degrees)
10.145, 60.365, -120.970
10.293, 60.392, -121.471
10.443, 60.419, -122.143
10.595, 60.462, -123.020
10.749, 60.506, -123.931
10.905, 60.539, -124.617
11.064, 60.568, -125.223
11.225, 60.601, -125.915
11.388, 60.635, -126.642
11.554, 60.668, -127.341
11.722, 60.699, -128.022
11.892, 60.728, -128.691
12.065, 60.756, -129.347
12.241, 60.783, -130.004
12.419, 60.809, -130.651
12.599, 60.833, -131.261
12.782, 60.858, -131.847
12.968, 60.884, -132.423
13.157, 60.912, -132.984
13.348, 60.942, -133.527
13.543, 60.974, -134.071
13.740, 61.008, -134.621
13.939, 61.043, -135.182
14.142, 61.076, -135.753
14.348, 61.108, -136.332
14.557, 61.136, -136.908
14.768, 61.161, -137.476
14.983, 61.184, -138.019
15.201, 61.206, -138.541
15.422, 61.229, -139.038
15.646, 61.254, -139.526
15.874, 61.282, -140.015
16.105, 61.310, -140.519
16.339, 61.337, -141.045
16.577, 61.359, -141.582
16.818, 61.375, -142.115
17.063, 61.383, -142.613
17.311, 61.390, -143.049
17.563, 61.400, -143.421
17.818, 61.418, -143.736
18.077, 61.452, -144.044
18.340, 61.500, -144.416
18.607, 61.555, -144.902
18.877, 61.608, -145.535
19.152, 61.644, -146.305
19.431, 61.651, -147.134
19.713, 61.628, -147.909
20.000, 61.580, -148.524
20.291, 61.522, -148.903
20.586, 61.477, -149.036
20.885, 61.461, -148.997
21.189, 61.487, -148.925
21.497, 61.546, -148.971
21.810, 61.622, -149.219
22.127, 61.695, -149.672
22.449, 61.750, -150.262
22.776, 61.783, -150.891
23.107, 61.797, -151.476
23.443, 61.801, -151.971
23.784, 61.804, -152.373
24.130, 61.812, -152.705
24.481, 61.827, -152.998
24.837, 61.852, -153.286
25.198, 61.883, -153.603
25.565, 61.918, -153.981
25.937, 61.946, -154.426
26.314, 61.962, -154.905
26.697, 61.962, -155.346
27.085, 61.953, -155.685
27.479, 61.949, -155.908
27.879, 61.960, -156.074
28.284, 61.986, -156.273
28.696, 62.018, -156.557
29.113, 62.046, -156.917
29.537, 62.065, -157.307
29.966, 62.077, -157.693
30.402, 62.085, -158.065
30.844, 62.087, -158.408
31.293, 62.087, -158.691
31.748, 62.093, -158.903
32.210, 62.115, -159.102
32.678, 62.147, -159.390
33.154, 62.173, -159.799
33.636, 62.179, -160.240
34.125, 62.168, -160.577
34.621, 62.161, -160.770
35.125, 62.173, -160.922
35.636, 62.198, -161.153
36.154, 62.217, -161.482
36.680, 62.223, -161.823
37.214, 62.221, -162.096
37.755, 62.224, -162.305
38.304, 62.238, -162.513
38.861, 62.257, -162.774
39.427, 62.272, -163.088
40.000, 62.279, -163.411
40.582, 62.282, -163.694
41.172, 62.286, -163.940
41.771, 62.294, -164.176
42.379, 62.303, -164.412
42.995, 62.312, -164.643
43.620, 62.323, -164.885
44.255, 62.332, -165.140
44.898, 62.337, -165.384
45.552, 62.344, -165.621
46.214, 62.350, -165.879
46.886, 62.352, -166.139
47.568, 62.354, -166.367
48.260, 62.363, -166.610
48.962, 62.368, -166.912
49.674, 62.361, -167.195
50.397, 62.355, -167.377
51.130, 62.366, -167.542
51.874, 62.381, -167.820
52.628, 62.379, -168.135
53.394, 62.371, -168.358
54.170, 62.370, -168.555
54.958, 62.370, -168.726
55.758, 62.390, -168.844
56.569, 62.431, -169.205
57.391, 62.429, -169.769
58.226, 62.395, -170.067
59.073, 62.390, -170.224
59.932, 62.389, -170.472
60.804, 62.387, -170.662
61.688, 62.395, -170.960
62.586, 62.371, -171.328
63.496, 62.341, -171.457
64.420, 62.344, -171.613
65.357, 62.336, -171.959
66.307, 62.310, -172.252
67.272, 62.287, -172.506
68.250, 62.257, -172.710
69.243, 62.244, -172.858
70.250, 62.226, -173.124
71.272, 62.190, -173.242
72.309, 62.179, -173.320
73.360, 62.158, -173.492
74.427, 62.138, -173.576
75.510, 62.125, -173.738
76.608, 62.106, -173.944
77.723, 62.071, -174.214
78.853, 62.019, -174.308
80.000, 61.989, -174.362
81.164, 61.953, -174.435
82.344, 61.923, -174.489
83.542, 61.885, -174.544
84.757, 61.845, -174.565
85.990, 61.800, -174.459
87.241, 61.775, -174.337
88.510, 61.745, -174.184
89.797, 61.729, -174.099
91.103, 61.680, -173.952
92.428, 61.673, -173.653
93.773, 61.653, -173.696
95.137, 61.582, -173.486
96.520, 61.544, -172.867
97.924, 61.565, -172.297
99.349, 61.601, -171.880
100.794, 61.638, -171.550
102.260, 61.693, -171.095
103.747, 61.762, -170.860
105.256, 61.832, -170.502
106.787, 61.899, -170.372
108.340, 61.980, -170.070
109.916, 62.103, -170.170
111.515, 62.223, -170.511
113.137, 62.336, -171.122
114.783, 62.392, -171.721
116.452, 62.422, -172.118
118.146, 62.436, -172.628
119.865, 62.431, -172.959
121.608, 62.482, -173.881
123.377, 62.462, -174.745
125.171, 62.453, -175.341
126.992, 62.431, -175.759
128.839, 62.392, -176.075
130.713, 62.342, -176.390
132.615, 62.296, -176.736
134.543, 62.253, -177.071
136.500, 62.210, -177.325
138.486, 62.161, -177.515
140.500, 62.110, -177.673
142.544, 62.060, -177.815
144.617, 62.011, -177.927
146.721, 61.964, -177.979
148.855, 61.920, -178.001
151.020, 61.880, -178.021
153.217, 61.842, -178.051
155.445, 61.806, -178.081
157.706, 61.770, -178.112
160.000, 61.731, -178.155
162.327, 61.688, -178.177
164.688, 61.642, -178.186
167.084, 61.595, -178.163
169.514, 61.546, -178.104
171.980, 61.496, -178.008
174.481, 61.446, -177.886
177.019, 61.395, -177.738
179.594, 61.347, -177.521
182.206, 61.303, -177.259
184.856, 61.261, -176.951
187.545, 61.228, -176.601
190.273, 61.203, -176.222
193.041, 61.188, -175.808
195.849, 61.188, -175.364
198.697, 61.206, -174.920
201.587, 61.238, -174.553
204.520, 61.286, -174.307
207.494, 61.339, -174.200
210.512, 61.383, -174.227
213.574, 61.422, -174.405
216.681, 61.457, -174.675
219.833, 61.448, -174.837
223.030, 61.431, -174.960
226.274, 61.411, -175.151
229.565, 61.387, -175.311
232.905, 61.351, -175.400
236.292, 61.317, -175.434
239.729, 61.277, -175.441
243.216, 61.239, -175.423
246.754, 61.199, -175.395
250.343, 61.159, -175.330
253.984, 61.119, -175.255
257.678, 61.077, -175.151
261.426, 61.036, -175.023
265.229, 60.994, -174.891
269.087, 60.954, -174.737
273.001, 60.911, -174.575
276.972, 60.866, -174.405
281.000, 60.823, -174.208
285.088, 60.779, -173.990
289.234, 60.736, -173.759
293.441, 60.695, -173.473
297.710, 60.653, -173.192
302.040, 60.607, -172.927
306.433, 60.560, -172.623
310.890, 60.515, -172.298
315.412, 60.473, -171.948
320.000, 60.429, -171.598
324.655, 60.386, -171.242
329.377, 60.340, -170.869
334.168, 60.287, -170.459
339.028, 60.237, -169.990
343.959, 60.193, -169.544
348.962, 60.143, -169.051
354.038, 60.091, -168.459
359.188, 60.032, -167.826
364.412, 59.986, -167.158
369.713, 59.940, -166.400
375.090, 59.899, -165.570
380.546, 59.869, -164.665
386.081, 59.855, -163.692
391.697, 59.862, -162.689
397.395, 59.878, -161.728
403.175, 59.916, -160.730
409.039, 59.976, -159.855
414.989, 60.038, -159.056
421.025, 60.104, -158.347
427.149, 60.165, -157.713
433.362, 60.227, -157.130
439.665, 60.289, -156.575
446.060, 60.347, -156.065
452.548, 60.404, -155.590
459.131, 60.459, -155.141
465.809, 60.513, -154.710
472.584, 60.559, -154.352
479.458, 60.597, -153.980
486.432, 60.631, -153.584
493.507, 60.650, -153.160
500.686, 60.667, -152.664
507.968, 60.683, -152.144
515.357, 60.701, -151.556
522.853, 60.723, -150.944
530.458, 60.748, -150.311
538.174, 60.775, -149.628
546.002, 60.801, -148.871
553.943, 60.834, -148.188
562.001, 60.874, -147.404
570.175, 60.913, -146.564
578.469, 60.960, -145.702
586.883, 61.014, -144.796
595.419, 61.078, -143.827
604.080, 61.157, -142.805
612.866, 61.257, -141.770
621.780, 61.381, -140.744
630.824, 61.526, -139.782
640.000, 61.690, -138.944
649.309, 61.867, -138.249
658.753, 62.047, -137.720
668.335, 62.222, -137.338
678.056, 62.387, -137.069
687.919, 62.543, -136.873
697.925, 62.690, -136.713
708.076, 62.829, -136.592
718.376, 62.962, -136.521
728.825, 63.089, -136.469
739.426, 63.205, -136.417
750.181, 63.313, -136.390
761.093, 63.415, -136.363
772.163, 63.507, -136.318
783.394, 63.594, -136.244
794.789, 63.677, -136.148
806.349, 63.757, -136.007
818.078, 63.836, -135.830
829.977, 63.917, -135.617
842.050, 63.998, -135.387
854.297, 64.082, -135.137
866.724, 64.169, -134.866
879.330, 64.260, -134.595
892.120, 64.353, -134.307
905.097, 64.449, -134.020
918.262, 64.548, -133.732
931.618, 64.651, -133.449
945.169, 64.756, -133.170
958.917, 64.863, -132.901
972.864, 64.975, -132.633
987.015, 65.090, -132.380
1001.371, 65.208, -132.132
1015.937, 65.329, -131.900
1030.714, 65.453, -131.697
1045.706, 65.580, -131.523
1060.916, 65.708, -131.392
1076.347, 65.839, -131.297
1092.003, 65.971, -131.245
1107.887, 66.102, -131.281
1124.001, 66.219, -131.361
1140.350, 66.309, -131.457
1156.937, 66.374, -131.437
1173.765, 66.437, -131.165
1190.838, 66.535, -130.725
1208.159, 66.670, -130.319
1225.732, 66.827, -130.044
1243.561, 66.987, -129.894
1261.649, 67.146, -129.834
1280.000, 67.302, -129.835
1298.618, 67.454, -129.882
1317.507, 67.603, -129.966
1336.670, 67.749, -130.067
1356.113, 67.892, -130.187
1375.838, 68.035, -130.329
1395.850, 68.177, -130.488
1416.153, 68.320, -130.674
1436.751, 68.462, -130.895
1457.649, 68.604, -131.146
1478.851, 68.745, -131.442
1500.362, 68.882, -131.790
1522.185, 69.013, -132.200
1544.326, 69.134, -132.666
1566.789, 69.239, -133.177
1589.578, 69.321, -133.690
1612.699, 69.375, -134.108
1636.156, 69.409, -134.282
1659.955, 69.453, -134.107
1684.099, 69.549, -133.703
1708.595, 69.702, -133.359
1733.447, 69.888, -133.271
1758.661, 70.076, -133.458
1784.241, 70.246, -133.827
1810.193, 70.389, -134.233
1836.523, 70.521, -134.538
1863.236, 70.664, -134.745
1890.338, 70.828, -134.986
1917.833, 71.002, -135.339
1945.729, 71.177, -135.802
1974.030, 71.347, -136.357
2002.743, 71.509, -136.981
2031.873, 71.664, -137.653
2061.428, 71.812, -138.351
2091.412, 71.955, -139.063
2121.832, 72.095, -139.783
2152.695, 72.235, -140.524
2184.007, 72.378, -141.307
2215.774, 72.519, -142.147
2248.003, 72.655, -143.050
2280.701, 72.782, -143.972
2313.874, 72.919, -144.873
2347.530, 73.059, -145.939
2381.676, 73.185, -147.094
2416.318, 73.302, -148.317
2451.464, 73.407, -149.615
2487.122, 73.496, -150.974
2523.298, 73.568, -152.361
2560.000, 73.624, -153.766
2597.236, 73.665, -155.176
2635.014, 73.692, -156.547
2673.341, 73.713, -157.932
2712.226, 73.719, -159.317
2751.676, 73.712, -160.697
2791.700, 73.692, -162.068
2832.306, 73.661, -163.414
2873.503, 73.618, -164.717
2915.299, 73.568, -165.987
2957.703, 73.509, -167.240
3000.724, 73.440, -168.474
3044.370, 73.359, -169.683
3088.652, 73.266, -170.847
3133.577, 73.165, -171.959
3179.156, 73.054, -173.024
3225.398, 72.934, -174.037
3272.312, 72.805, -174.988
3319.909, 72.666, -175.855
3368.198, 72.521, -176.614
3417.190, 72.374, -177.261
3466.894, 72.232, -177.812
3517.321, 72.093, -178.287
3568.482, 71.960, -178.699
3620.387, 71.832, -179.058
3673.046, 71.711, -179.386
3726.472, 71.594, -179.710
3780.675, 71.474, 179.976
3835.666, 71.351, 179.713
3891.457, 71.227, 179.547
3948.060, 71.113, 179.481
4005.486, 71.015, 179.471
4063.747, 70.938, 179.461
4122.855, 70.876, 179.367
4182.824, 70.819, 179.156
4243.664, 70.757, 178.861
4305.390, 70.687, 178.524
4368.013, 70.613, 178.159
4431.547, 70.532, 177.765
4496.005, 70.446, 177.334
4561.401, 70.351, 176.861
4627.749, 70.242, 176.347
4695.061, 70.111, 175.821
4763.352, 69.955, 175.364
4832.637, 69.780, 175.030
4902.929, 69.591, 174.867
4974.244, 69.400, 174.903
5046.596, 69.217, 175.099
5120.000, 69.045, 175.409
5194.472, 68.884, 175.803
5270.027, 68.731, 176.268
5346.682, 68.589, 176.785
5424.451, 68.455, 177.329
5503.352, 68.323, 177.888
5583.399, 68.189, 178.490
5664.612, 68.051, 179.178
5747.006, 67.913, 179.991
5830.598, 67.782, -179.059
5915.406, 67.662, -177.975
6001.447, 67.558, -176.764
6088.740, 67.472, -175.431
6177.303, 67.409, -173.973
6267.154, 67.376, -172.410
6358.312, 67.381, -170.774
6450.796, 67.425, -169.109
6544.625, 67.512, -167.465
6639.818, 67.643, -165.886
6736.397, 67.817, -164.409
6834.380, 68.038, -163.086
6933.789, 68.302, -161.982
7034.643, 68.603, -161.148
7136.964, 68.935, -160.568
7240.773, 69.307, -160.213
7346.093, 69.736, -160.177
7452.944, 70.225, -160.650
7561.350, 70.764, -161.839
7671.332, 71.328, -163.923
7782.915, 71.884, -167.052
7896.120, 72.385, -171.322
8010.971, 72.775, -176.728
8127.493, 72.992, 176.898
8245.711, 72.983, 169.948
8365.647, 72.729, 162.974
8487.328, 72.251, 156.513
8610.779, 71.602, 150.923
8736.026, 70.842, 146.327
8863.095, 70.023, 142.665
8992.011, 69.178, 139.789
9122.803, 68.321, 137.536
9255.497, 67.454, 135.788
9390.121, 66.573, 134.491
9526.704, 65.673, 133.655
9665.273, 64.759, 133.320
9805.857, 63.840, 133.499
9948.487, 62.928, 134.123
10093.191, 62.014, 135.162
10240.000, 61.096, 136.710
10388.944, 60.186, 138.835
10540.055, 59.296, 141.603
10693.363, 58.467, 145.003
10848.902, 57.693, 148.727
11006.703, 56.958, 152.961
11166.799, 56.287, 157.678
11329.224, 55.690, 162.813
11494.012, 55.172, 168.304
11661.195, 54.735, 174.101
11830.812, 54.387, -179.816
12002.895, 54.136, -173.487
12177.480, 53.990, -166.956
12354.606, 53.960, -160.285
12534.309, 54.058, -153.528
12716.624, 54.299, -146.739
12901.592, 54.702, -139.997
13089.250, 55.293, -133.358
13279.637, 56.129, -126.890
13472.794, 57.276, -121.175
13668.760, 58.705, -116.716
13867.577, 60.472, -113.793
14069.285, 62.638, -113.417
14273.928, 65.167, -117.323
14481.547, 67.778, -127.838
14692.186, 69.881, -146.199
14905.889, 70.994, -169.902
15122.700, 71.158, 164.465
15342.664, 70.390, 137.405
15565.829, 68.414, 111.693
15792.239, 65.490, 92.077
16021.942, 62.379, 77.909
16254.986, 59.386, 65.241
16491.422, 56.328, 51.370
16731.295, 52.487, 35.763
16974.656, 47.330, 26.884
17221.559, 41.569, 26.627
17472.053, 35.676, 33.261
17726.189, 29.672, 46.334
17984.021, 23.379, 69.087
18245.605, 16.977, 109.134
18510.994, 13.253, 163.655
18780.242, 13.581, -151.199
19053.408, 14.506, -117.867
19330.547, 15.422, -86.895
19611.715, 17.188, -55.035
19896.975, 19.694, -28.555
