* Measurement data measured by REW V5.19
* Source: ASIO MOTU M Series, In 1
* Format: 1M Log Swept Sine, 1 sweep at -3.0 dBFS  With no timing reference
* Dated: 21 Feb, 2023 6:57:14 PM
* REW Settings:
*  C-weighting compensation: Off
*  Target level: 75.0 dB
* Note: ; 
* Measurement: Feb 21 18:57:14
* Smoothing: 1/48 octave
* Frequency Step: 1/48 octave
* Start Frequency: 10.1 Hz
*
* Freq(Hz), SPL(dB), Phase(degrees)
10.145, 68.910, -133.158
10.293, 68.919, -133.756
10.443, 68.928, -134.548
10.595, 68.938, -135.576
10.749, 68.946, -136.625
10.905, 68.945, -137.375
11.064, 68.941, -137.998
11.225, 68.941, -138.683
11.388, 68.944, -139.373
11.554, 68.953, -140.008
11.722, 68.968, -140.605
11.892, 68.990, -141.208
12.065, 69.019, -141.821
12.241, 69.052, -142.500
12.419, 69.088, -143.234
12.599, 69.122, -144.009
12.782, 69.151, -144.829
12.968, 69.171, -145.703
13.157, 69.183, -146.590
13.348, 69.184, -147.465
13.543, 69.176, -148.305
13.740, 69.161, -149.100
13.939, 69.144, -149.832
14.142, 69.128, -150.506
14.348, 69.116, -151.129
14.557, 69.110, -151.732
14.768, 69.110, -152.328
14.983, 69.115, -152.946
15.201, 69.122, -153.589
15.422, 69.128, -154.266
15.646, 69.130, -154.957
15.874, 69.127, -155.646
16.105, 69.119, -156.315
16.339, 69.110, -156.946
16.577, 69.101, -157.541
16.818, 69.096, -158.105
17.063, 69.097, -158.660
17.311, 69.101, -159.227
17.563, 69.108, -159.819
17.818, 69.115, -160.442
18.077, 69.117, -161.088
18.340, 69.113, -161.737
18.607, 69.104, -162.373
18.877, 69.091, -162.981
19.152, 69.076, -163.555
19.431, 69.060, -164.098
19.713, 69.045, -164.617
20.000, 69.031, -165.116
20.291, 69.018, -165.595
20.586, 69.007, -166.056
20.885, 68.999, -166.505
21.189, 68.995, -166.957
21.497, 68.994, -167.432
21.810, 68.994, -167.945
22.127, 68.991, -168.495
22.449, 68.981, -169.065
22.776, 68.963, -169.624
23.107, 68.941, -170.150
23.443, 68.919, -170.637
23.784, 68.899, -171.103
24.130, 68.883, -171.573
24.481, 68.867, -172.062
24.837, 68.849, -172.559
25.198, 68.827, -173.043
25.565, 68.805, -173.500
25.937, 68.787, -173.942
26.314, 68.774, -174.401
26.697, 68.761, -174.902
27.085, 68.741, -175.435
27.479, 68.711, -175.949
27.879, 68.676, -176.393
28.284, 68.647, -176.758
28.696, 68.631, -177.098
29.113, 68.626, -177.492
29.537, 68.622, -177.983
29.966, 68.607, -178.539
30.402, 68.577, -179.085
30.844, 68.538, -179.562
31.293, 68.499, -179.963
31.748, 68.465, 179.681
32.210, 68.435, 179.346
32.678, 68.409, 179.034
33.154, 68.389, 178.732
33.636, 68.377, 178.401
34.125, 68.366, 178.001
34.621, 68.346, 177.551
35.125, 68.314, 177.110
35.636, 68.276, 176.719
36.154, 68.238, 176.368
36.680, 68.200, 176.032
37.214, 68.162, 175.706
37.755, 68.125, 175.397
38.304, 68.090, 175.093
38.861, 68.057, 174.771
39.427, 68.023, 174.429
40.000, 67.985, 174.080
40.582, 67.945, 173.747
41.172, 67.906, 173.447
41.771, 67.874, 173.166
42.379, 67.849, 172.848
42.995, 67.822, 172.462
43.620, 67.785, 172.052
44.255, 67.738, 171.671
44.898, 67.684, 171.357
45.552, 67.629, 171.154
46.214, 67.592, 171.039
46.886, 67.581, 170.840
47.568, 67.567, 170.432
48.260, 67.522, 169.951
48.962, 67.458, 169.602
49.674, 67.401, 169.374
50.397, 67.354, 169.171
51.130, 67.315, 168.966
51.874, 67.284, 168.698
52.628, 67.241, 168.340
53.394, 67.179, 168.075
54.170, 67.132, 167.961
54.958, 67.108, 167.715
55.758, 67.059, 167.307
56.569, 66.984, 167.060
57.391, 66.929, 166.960
58.226, 66.891, 166.764
59.073, 66.845, 166.482
59.932, 66.789, 166.211
60.804, 66.731, 165.982
61.688, 66.678, 165.779
62.586, 66.628, 165.564
63.496, 66.578, 165.334
64.420, 66.531, 165.120
65.357, 66.487, 164.814
66.307, 66.412, 164.491
67.272, 66.341, 164.471
68.250, 66.313, 164.278
69.243, 66.239, 163.932
70.250, 66.173, 163.821
71.272, 66.107, 163.456
72.309, 65.995, 163.361
73.360, 65.948, 163.429
74.427, 65.894, 163.102
75.510, 65.800, 163.005
76.608, 65.740, 163.120
77.723, 65.715, 163.186
78.853, 65.708, 162.977
80.000, 65.653, 162.554
81.164, 65.563, 162.337
82.344, 65.475, 162.265
83.542, 65.392, 162.225
84.757, 65.303, 162.146
85.990, 65.205, 162.109
87.241, 65.109, 162.076
88.510, 65.012, 162.035
89.797, 64.921, 162.012
91.103, 64.833, 161.962
92.428, 64.735, 162.001
93.773, 64.641, 162.130
95.137, 64.540, 162.277
96.520, 64.429, 162.368
97.924, 64.296, 162.370
99.349, 64.122, 162.518
100.794, 64.036, 163.085
102.260, 63.982, 163.127
103.747, 63.899, 163.276
105.256, 63.777, 163.615
106.787, 63.663, 164.383
108.340, 63.556, 164.708
109.916, 63.400, 165.376
111.515, 63.267, 166.075
113.137, 63.159, 166.513
114.783, 62.918, 168.025
116.452, 62.969, 169.570
118.146, 62.797, 169.764
119.865, 62.536, 172.377
121.608, 62.618, 175.691
123.377, 62.815, 177.979
125.171, 63.027, 179.827
126.992, 63.225, -178.712
128.839, 63.522, -177.665
130.713, 63.852, -177.384
132.615, 64.211, -177.503
134.543, 64.540, -178.147
136.500, 64.784, -179.181
138.486, 64.958, 179.561
140.500, 65.064, 178.156
142.544, 65.121, 176.901
144.617, 65.136, 175.799
146.721, 65.112, 174.701
148.855, 65.061, 173.651
151.020, 65.015, 172.744
153.217, 64.967, 171.996
155.445, 64.908, 171.380
157.706, 64.812, 170.849
160.000, 64.730, 170.452
162.327, 64.647, 170.028
164.688, 64.562, 169.715
167.084, 64.470, 169.514
169.514, 64.382, 169.294
171.980, 64.286, 169.149
174.481, 64.206, 169.121
177.019, 64.138, 169.156
179.594, 64.065, 169.153
182.206, 63.988, 169.194
184.856, 63.912, 169.223
187.545, 63.841, 169.326
190.273, 63.773, 169.419
193.041, 63.703, 169.588
195.849, 63.649, 169.780
198.697, 63.589, 169.827
201.587, 63.533, 169.885
204.520, 63.476, 170.021
207.494, 63.409, 170.344
210.512, 63.344, 170.691
213.574, 63.315, 170.978
216.681, 63.272, 171.215
219.833, 63.203, 171.326
223.030, 63.168, 171.437
226.274, 63.152, 171.585
229.565, 63.097, 171.749
232.905, 63.027, 171.767
236.292, 62.980, 171.882
239.729, 62.937, 172.181
243.216, 62.873, 172.456
246.754, 62.811, 172.695
250.343, 62.752, 172.965
253.984, 62.697, 173.228
257.678, 62.642, 173.481
261.426, 62.603, 173.875
265.229, 62.542, 174.207
269.087, 62.501, 174.526
273.001, 62.454, 174.868
276.972, 62.423, 175.196
281.000, 62.402, 175.342
285.088, 62.350, 175.643
289.234, 62.290, 175.832
293.441, 62.234, 176.073
297.710, 62.194, 176.401
302.040, 62.132, 176.717
306.433, 62.065, 177.039
310.890, 62.003, 177.400
315.412, 61.919, 177.942
320.000, 61.854, 178.260
324.655, 61.795, 178.622
329.377, 61.721, 179.101
334.168, 61.643, 179.577
339.028, 61.562, 179.995
343.959, 61.470, -179.513
348.962, 61.411, -178.723
354.038, 61.353, -178.084
359.188, 61.254, -177.398
364.412, 61.177, -176.527
369.713, 61.111, -175.541
375.090, 61.028, -174.407
380.546, 60.964, -173.289
386.081, 60.930, -172.019
391.697, 60.897, -170.612
397.395, 60.894, -169.087
403.175, 60.938, -167.546
409.039, 60.988, -166.101
414.989, 61.093, -164.817
421.025, 61.213, -163.633
427.149, 61.371, -162.631
433.362, 61.527, -161.900
439.665, 61.675, -161.285
446.060, 61.814, -160.875
452.548, 61.944, -160.593
459.131, 62.052, -160.542
465.809, 62.151, -160.476
472.584, 62.215, -160.294
479.458, 62.274, -160.161
486.432, 62.310, -160.151
493.507, 62.339, -159.960
500.686, 62.360, -159.706
507.968, 62.374, -159.342
515.357, 62.394, -158.949
522.853, 62.426, -158.502
530.458, 62.462, -158.066
538.174, 62.509, -157.603
546.002, 62.565, -157.156
553.943, 62.614, -156.755
562.001, 62.667, -156.373
570.175, 62.722, -156.024
578.469, 62.774, -155.709
586.883, 62.824, -155.435
595.419, 62.867, -155.182
604.080, 62.905, -154.905
612.866, 62.938, -154.646
621.780, 62.965, -154.339
630.824, 62.996, -153.974
640.000, 63.023, -153.634
649.309, 63.049, -153.231
658.753, 63.076, -152.799
668.335, 63.113, -152.375
678.056, 63.163, -151.821
687.919, 63.227, -151.390
697.925, 63.258, -151.105
708.076, 63.286, -150.680
718.376, 63.324, -150.249
728.825, 63.370, -149.851
739.426, 63.401, -149.400
750.181, 63.436, -148.977
761.093, 63.473, -148.525
772.163, 63.512, -148.026
783.394, 63.558, -147.536
794.789, 63.598, -147.040
806.349, 63.643, -146.535
818.078, 63.692, -145.997
829.977, 63.742, -145.457
842.050, 63.793, -144.918
854.297, 63.849, -144.369
866.724, 63.908, -143.799
879.330, 63.969, -143.234
892.120, 64.031, -142.661
905.097, 64.098, -142.063
918.262, 64.168, -141.468
931.618, 64.242, -140.875
945.169, 64.321, -140.272
958.917, 64.406, -139.669
972.864, 64.495, -139.067
987.015, 64.590, -138.481
1001.371, 64.689, -137.917
1015.937, 64.793, -137.367
1030.714, 64.899, -136.850
1045.706, 65.008, -136.352
1060.916, 65.118, -135.873
1076.347, 65.228, -135.418
1092.003, 65.339, -134.984
1107.887, 65.451, -134.556
1124.001, 65.564, -134.140
1140.350, 65.677, -133.729
1156.937, 65.791, -133.324
1173.765, 65.908, -132.924
1190.838, 66.026, -132.533
1208.159, 66.146, -132.144
1225.732, 66.269, -131.761
1243.561, 66.394, -131.390
1261.649, 66.521, -131.031
1280.000, 66.650, -130.679
1298.618, 66.781, -130.338
1317.507, 66.916, -130.004
1336.670, 67.052, -129.680
1356.113, 67.192, -129.357
1375.838, 67.331, -129.060
1395.850, 67.473, -128.765
1416.153, 67.620, -128.478
1436.751, 67.773, -128.211
1457.649, 67.925, -127.943
1478.851, 68.081, -127.686
1500.362, 68.243, -127.448
1522.185, 68.408, -127.231
1544.326, 68.579, -127.030
1566.789, 68.753, -126.850
1589.578, 68.934, -126.694
1612.699, 69.119, -126.574
1636.156, 69.310, -126.484
1659.955, 69.506, -126.434
1684.099, 69.706, -126.428
1708.595, 69.912, -126.466
1733.447, 70.122, -126.560
1758.661, 70.336, -126.708
1784.241, 70.554, -126.916
1810.193, 70.776, -127.186
1836.523, 71.001, -127.521
1863.236, 71.230, -127.930
1890.338, 71.462, -128.418
1917.833, 71.697, -128.995
1945.729, 71.933, -129.672
1974.030, 72.171, -130.458
2002.743, 72.407, -131.364
2031.873, 72.640, -132.398
2061.428, 72.867, -133.567
2091.412, 73.083, -134.870
2121.832, 73.287, -136.307
2152.695, 73.475, -137.871
2184.007, 73.644, -139.551
2215.774, 73.790, -141.334
2248.003, 73.912, -143.203
2280.701, 74.007, -145.135
2313.874, 74.072, -147.109
2347.530, 74.107, -149.098
2381.676, 74.111, -151.067
2416.318, 74.088, -152.987
2451.464, 74.036, -154.832
2487.122, 73.959, -156.583
2523.298, 73.856, -158.223
2560.000, 73.732, -159.735
2597.236, 73.590, -161.103
2635.014, 73.433, -162.316
2673.341, 73.263, -163.364
2712.226, 73.080, -164.230
2751.676, 72.888, -164.862
2791.700, 72.706, -165.229
2832.306, 72.553, -165.477
2873.503, 72.406, -165.746
2915.299, 72.250, -165.953
2957.703, 72.091, -166.024
3000.724, 71.936, -165.951
3044.370, 71.789, -165.744
3088.652, 71.650, -165.416
3133.577, 71.522, -164.976
3179.156, 71.406, -164.430
3225.398, 71.305, -163.787
3272.312, 71.219, -163.056
3319.909, 71.150, -162.243
3368.198, 71.098, -161.355
3417.190, 71.064, -160.398
3466.894, 71.051, -159.381
3517.321, 71.060, -158.317
3568.482, 71.092, -157.212
3620.387, 71.150, -156.078
3673.046, 71.235, -154.927
3726.472, 71.348, -153.771
3780.675, 71.493, -152.626
3835.666, 71.672, -151.515
3891.457, 71.887, -150.457
3948.060, 72.141, -149.475
4005.486, 72.438, -148.607
4063.747, 72.780, -147.892
4122.855, 73.173, -147.383
4182.824, 73.618, -147.167
4243.664, 74.118, -147.328
4305.390, 74.673, -147.986
4368.013, 75.282, -149.291
4431.547, 75.930, -151.484
4496.005, 76.581, -154.766
4561.401, 77.189, -159.336
4627.749, 77.672, -165.220
4695.061, 77.962, -172.202
4763.352, 77.987, -179.793
4832.637, 77.730, 172.696
4902.929, 77.220, 165.955
4974.244, 76.529, 160.401
5046.596, 75.731, 156.175
5120.000, 74.893, 153.208
5194.472, 74.059, 151.333
5270.027, 73.259, 150.361
5346.682, 72.506, 150.120
5424.451, 71.808, 150.478
5503.352, 71.168, 151.317
5583.399, 70.589, 152.548
5664.612, 70.073, 154.090
5747.006, 69.618, 155.873
5830.598, 69.223, 157.843
5915.406, 68.891, 159.947
6001.447, 68.619, 162.139
6088.740, 68.408, 164.382
6177.303, 68.263, 166.629
6267.154, 68.185, 168.807
6358.312, 68.174, 170.850
6450.796, 68.231, 172.679
6544.625, 68.358, 174.197
6639.818, 68.551, 175.281
6736.397, 68.805, 175.769
6834.380, 69.102, 175.476
6933.789, 69.412, 174.226
7034.643, 69.690, 171.887
7136.964, 69.877, 168.421
7240.773, 69.903, 163.970
7346.093, 69.703, 158.947
7452.944, 69.252, 153.977
7561.350, 68.572, 149.686
7671.332, 67.721, 146.501
7782.915, 66.768, 144.607
7896.120, 65.775, 144.034
8010.971, 64.798, 144.651
8127.493, 63.874, 146.237
8245.711, 63.015, 148.566
8365.647, 62.226, 151.487
8487.328, 61.507, 154.927
8610.779, 60.861, 158.823
8736.026, 60.291, 163.101
8863.095, 59.804, 167.693
8992.011, 59.400, 172.541
9122.803, 59.082, 177.600
9255.497, 58.855, -177.180
9390.121, 58.724, -171.860
9526.704, 58.697, -166.481
9665.273, 58.783, -161.120
9805.857, 58.995, -155.860
9948.487, 59.348, -150.805
10093.191, 59.861, -146.105
10240.000, 60.558, -141.988
10388.944, 61.470, -138.864
10540.055, 62.594, -137.400
10693.363, 63.914, -138.289
10848.902, 65.330, -143.214
11006.703, 66.397, -153.492
11166.799, 66.576, -167.397
11329.224, 65.716, -179.924
11494.012, 64.242, 172.495
11661.195, 62.686, 169.665
11830.812, 61.335, 169.896
12002.895, 60.261, 171.660
12177.480, 59.426, 173.962
12354.606, 58.773, 176.302
12534.309, 58.255, 178.391
12716.624, 57.829, 179.993
12901.592, 57.439, -179.041
13089.250, 57.015, -178.568
13279.637, 56.529, -178.047
13472.794, 56.061, -176.926
13668.760, 55.798, -175.540
13867.577, 55.857, -176.055
14069.285, 55.851, 178.226
14273.928, 54.834, 168.824
14481.547, 52.542, 164.608
14692.186, 49.897, 170.243
14905.889, 47.960, -176.453
15122.700, 47.446, -159.904
15342.664, 48.557, -146.661
15565.829, 50.373, -143.652
15792.239, 51.390, -150.849
16021.942, 51.153, -159.217
16254.986, 50.481, -162.491
16491.422, 50.493, -165.167
16731.295, 50.512, -172.617
16974.656, 50.276, 176.436
17221.559, 49.523, 161.456
17472.053, 47.952, 143.886
17726.189, 45.487, 125.840
17984.021, 42.305, 108.749
18245.605, 38.911, 91.720
18510.994, 36.286, 70.956
18780.242, 35.828, 41.682
19053.408, 36.953, -2.255
19330.547, 35.595, -54.034
19611.715, 30.391, -79.653
19896.975, 23.836, -74.616
