* Measurement data measured by REW V5.19
* Source: ASIO MOTU M Series, In 1
* Format: 1M Log Swept Sine, 1 sweep at -3.0 dBFS  With no timing reference
* Dated: 20 Mar, 2023 11:18:53 AM
* REW Settings:
*  C-weighting compensation: Off
*  Target level: 75.0 dB
* Note: ; 
* Measurement: Mar 20 11:18:53
* Smoothing: 1/48 octave
* Frequency Step: 1/48 octave
* Start Frequency: 10.1 Hz
*
* Freq(Hz), SPL(dB), Phase(degrees)
10.145, 73.809, -144.301
10.293, 73.815, -144.909
10.443, 73.821, -145.727
10.595, 73.830, -146.802
10.749, 73.837, -147.924
10.905, 73.838, -148.783
11.064, 73.836, -149.547
11.225, 73.833, -150.407
11.388, 73.829, -151.303
11.554, 73.823, -152.154
11.722, 73.817, -152.975
11.892, 73.810, -153.776
12.065, 73.803, -154.560
12.241, 73.796, -155.353
12.419, 73.790, -156.145
12.599, 73.784, -156.916
12.782, 73.777, -157.681
12.968, 73.771, -158.459
13.157, 73.763, -159.238
13.348, 73.755, -160.010
13.543, 73.744, -160.782
13.740, 73.732, -161.554
13.939, 73.718, -162.318
14.142, 73.701, -163.073
14.348, 73.683, -163.814
14.557, 73.664, -164.542
14.768, 73.644, -165.256
14.983, 73.624, -165.954
15.201, 73.604, -166.642
15.422, 73.584, -167.323
15.646, 73.565, -168.002
15.874, 73.546, -168.681
16.105, 73.526, -169.364
16.339, 73.504, -170.047
16.577, 73.481, -170.728
16.818, 73.455, -171.403
17.063, 73.428, -172.065
17.311, 73.399, -172.714
17.563, 73.370, -173.348
17.818, 73.341, -173.972
18.077, 73.313, -174.590
18.340, 73.285, -175.207
18.607, 73.256, -175.825
18.877, 73.226, -176.445
19.152, 73.194, -177.061
19.431, 73.160, -177.670
19.713, 73.125, -178.268
20.000, 73.089, -178.854
20.291, 73.053, -179.428
20.586, 73.017, -179.993
20.885, 72.981, 179.446
21.189, 72.945, 178.886
21.497, 72.909, 178.327
21.810, 72.871, 177.769
22.127, 72.832, 177.215
22.449, 72.792, 176.668
22.776, 72.751, 176.130
23.107, 72.709, 175.601
23.443, 72.667, 175.080
23.784, 72.624, 174.567
24.130, 72.580, 174.059
24.481, 72.536, 173.559
24.837, 72.492, 173.064
25.198, 72.447, 172.576
25.565, 72.402, 172.092
25.937, 72.356, 171.610
26.314, 72.309, 171.132
26.697, 72.261, 170.660
27.085, 72.211, 170.197
27.479, 72.162, 169.745
27.879, 72.112, 169.300
28.284, 72.062, 168.859
28.696, 72.011, 168.418
29.113, 71.960, 167.981
29.537, 71.907, 167.550
29.966, 71.854, 167.128
30.402, 71.800, 166.713
30.844, 71.746, 166.301
31.293, 71.692, 165.890
31.748, 71.635, 165.482
32.210, 71.577, 165.084
32.678, 71.518, 164.700
33.154, 71.459, 164.330
33.636, 71.400, 163.968
34.125, 71.341, 163.607
34.621, 71.282, 163.247
35.125, 71.220, 162.891
35.636, 71.158, 162.543
36.154, 71.095, 162.201
36.680, 71.030, 161.863
37.214, 70.964, 161.534
37.755, 70.897, 161.217
38.304, 70.830, 160.913
38.861, 70.763, 160.619
39.427, 70.696, 160.330
40.000, 70.630, 160.049
40.582, 70.564, 159.771
41.172, 70.498, 159.492
41.771, 70.431, 159.210
42.379, 70.361, 158.932
42.995, 70.289, 158.665
43.620, 70.214, 158.412
44.255, 70.138, 158.179
44.898, 70.061, 157.961
45.552, 69.982, 157.743
46.214, 69.898, 157.535
46.886, 69.810, 157.374
47.568, 69.724, 157.251
48.260, 69.637, 157.130
48.962, 69.544, 157.060
49.674, 69.457, 157.096
50.397, 69.385, 157.164
51.130, 69.321, 157.203
51.874, 69.260, 157.257
52.628, 69.211, 157.306
53.394, 69.167, 157.298
54.170, 69.124, 157.232
54.958, 69.073, 157.088
55.758, 69.003, 156.995
56.569, 68.945, 157.038
57.391, 68.908, 156.902
58.226, 68.828, 156.626
59.073, 68.725, 156.684
59.932, 68.660, 156.869
60.804, 68.595, 156.970
61.688, 68.535, 157.312
62.586, 68.535, 157.645
63.496, 68.548, 157.676
64.420, 68.556, 157.599
65.357, 68.565, 157.347
66.307, 68.549, 156.933
67.272, 68.510, 156.531
68.250, 68.458, 156.119
69.243, 68.389, 155.733
70.250, 68.310, 155.417
71.272, 68.225, 155.162
72.309, 68.138, 154.986
73.360, 68.055, 154.850
74.427, 67.973, 154.733
75.510, 67.892, 154.610
76.608, 67.807, 154.497
77.723, 67.723, 154.406
78.853, 67.636, 154.320
80.000, 67.546, 154.265
81.164, 67.453, 154.235
82.344, 67.356, 154.252
83.542, 67.260, 154.317
84.757, 67.163, 154.412
85.990, 67.070, 154.581
87.241, 66.991, 154.760
88.510, 66.920, 154.932
89.797, 66.859, 155.059
91.103, 66.799, 155.102
92.428, 66.730, 155.078
93.773, 66.648, 155.028
95.137, 66.554, 154.964
96.520, 66.450, 154.938
97.924, 66.337, 154.964
99.349, 66.220, 154.994
100.794, 66.070, 155.183
102.260, 65.936, 155.578
103.747, 65.797, 155.988
105.256, 65.653, 156.495
106.787, 65.505, 157.143
108.340, 65.364, 157.958
109.916, 65.236, 158.977
111.515, 65.134, 160.192
113.137, 65.071, 161.562
114.783, 65.054, 162.981
116.452, 65.092, 164.318
118.146, 65.176, 165.390
119.865, 65.280, 166.146
121.608, 65.391, 166.557
123.377, 65.465, 166.640
125.171, 65.486, 166.643
126.992, 65.461, 166.777
128.839, 65.410, 167.177
130.713, 65.359, 167.935
132.615, 65.345, 169.055
134.543, 65.400, 170.385
136.500, 65.544, 171.713
138.486, 65.777, 172.677
140.500, 66.060, 173.004
142.544, 66.341, 172.600
144.617, 66.569, 171.565
146.721, 66.716, 170.187
148.855, 66.785, 168.744
151.020, 66.792, 167.369
153.217, 66.751, 166.160
155.445, 66.684, 165.132
157.706, 66.598, 164.263
160.000, 66.501, 163.565
162.327, 66.396, 163.007
164.688, 66.287, 162.564
167.084, 66.175, 162.214
169.514, 66.063, 161.967
171.980, 65.953, 161.806
174.481, 65.846, 161.699
177.019, 65.741, 161.660
179.594, 65.640, 161.652
182.206, 65.539, 161.691
184.856, 65.441, 161.750
187.545, 65.339, 161.845
190.273, 65.240, 162.007
193.041, 65.140, 162.178
195.849, 65.042, 162.403
198.697, 64.949, 162.686
201.587, 64.850, 163.037
204.520, 64.758, 163.480
207.494, 64.679, 164.013
210.512, 64.610, 164.632
213.574, 64.564, 165.237
216.681, 64.549, 165.826
219.833, 64.540, 166.377
223.030, 64.519, 166.884
226.274, 64.560, 167.016
229.565, 64.579, 167.009
232.905, 64.574, 167.023
236.292, 64.545, 166.992
239.729, 64.507, 166.965
243.216, 64.460, 166.937
246.754, 64.407, 166.971
250.343, 64.349, 167.042
253.984, 64.285, 167.140
257.678, 64.226, 167.289
261.426, 64.166, 167.459
265.229, 64.104, 167.633
269.087, 64.043, 167.794
273.001, 63.984, 167.977
276.972, 63.917, 168.169
281.000, 63.847, 168.354
285.088, 63.776, 168.565
289.234, 63.701, 168.805
293.441, 63.624, 169.078
297.710, 63.548, 169.380
302.040, 63.470, 169.691
306.433, 63.390, 170.030
310.890, 63.311, 170.425
315.412, 63.233, 170.807
320.000, 63.156, 171.219
324.655, 63.078, 171.663
329.377, 62.989, 172.120
334.168, 62.909, 172.602
339.028, 62.830, 173.144
343.959, 62.744, 173.696
348.962, 62.656, 174.284
354.038, 62.575, 174.880
359.188, 62.494, 175.541
364.412, 62.409, 176.236
369.713, 62.325, 176.993
375.090, 62.237, 177.824
380.546, 62.155, 178.704
386.081, 62.075, 179.616
391.697, 61.991, -179.384
397.395, 61.912, -178.280
403.175, 61.838, -177.105
409.039, 61.774, -175.806
414.989, 61.724, -174.360
421.025, 61.692, -172.790
427.149, 61.693, -171.137
433.362, 61.734, -169.410
439.665, 61.817, -167.689
446.060, 61.939, -166.098
452.548, 62.096, -164.703
459.131, 62.277, -163.612
465.809, 62.468, -162.835
472.584, 62.652, -162.334
479.458, 62.817, -162.089
486.432, 62.945, -162.057
493.507, 63.049, -162.075
500.686, 63.111, -162.111
507.968, 63.138, -162.130
515.357, 63.156, -162.030
522.853, 63.151, -161.669
530.458, 63.146, -161.175
538.174, 63.153, -160.561
546.002, 63.180, -159.860
553.943, 63.225, -159.111
562.001, 63.286, -158.389
570.175, 63.359, -157.739
578.469, 63.437, -157.175
586.883, 63.517, -156.693
595.419, 63.588, -156.280
604.080, 63.655, -155.891
612.866, 63.718, -155.530
621.780, 63.778, -155.184
630.824, 63.832, -154.812
640.000, 63.882, -154.424
649.309, 63.930, -154.038
658.753, 63.974, -153.632
668.335, 64.016, -153.214
678.056, 64.056, -152.769
687.919, 64.093, -152.289
697.925, 64.131, -151.769
708.076, 64.169, -151.197
718.376, 64.210, -150.572
728.825, 64.263, -149.932
739.426, 64.324, -149.270
750.181, 64.390, -148.588
761.093, 64.462, -147.905
772.163, 64.541, -147.248
783.394, 64.628, -146.610
794.789, 64.719, -145.988
806.349, 64.814, -145.383
818.078, 64.912, -144.788
829.977, 65.014, -144.199
842.050, 65.119, -143.620
854.297, 65.229, -143.048
866.724, 65.345, -142.488
879.330, 65.467, -141.940
892.120, 65.596, -141.421
905.097, 65.731, -140.912
918.262, 65.872, -140.437
931.618, 66.019, -139.987
945.169, 66.172, -139.590
958.917, 66.331, -139.247
972.864, 66.495, -138.970
987.015, 66.660, -138.769
1001.371, 66.823, -138.630
1015.937, 66.989, -138.574
1030.714, 67.154, -138.582
1045.706, 67.315, -138.647
1060.916, 67.475, -138.766
1076.347, 67.632, -138.943
1092.003, 67.782, -139.155
1107.887, 67.927, -139.411
1124.001, 68.068, -139.709
1140.350, 68.204, -140.047
1156.937, 68.335, -140.423
1173.765, 68.461, -140.841
1190.838, 68.580, -141.299
1208.159, 68.690, -141.795
1225.732, 68.790, -142.314
1243.561, 68.887, -142.867
1261.649, 68.977, -143.451
1280.000, 69.056, -144.040
1298.618, 69.121, -144.640
1317.507, 69.174, -145.237
1336.670, 69.219, -145.838
1356.113, 69.255, -146.426
1375.838, 69.279, -146.991
1395.850, 69.293, -147.529
1416.153, 69.294, -148.009
1436.751, 69.287, -148.436
1457.649, 69.273, -148.791
1478.851, 69.248, -149.049
1500.362, 69.219, -149.212
1522.185, 69.188, -149.271
1544.326, 69.158, -149.224
1566.789, 69.132, -149.076
1589.578, 69.110, -148.826
1612.699, 69.098, -148.487
1636.156, 69.099, -148.070
1659.955, 69.114, -147.584
1684.099, 69.145, -147.041
1708.595, 69.192, -146.459
1733.447, 69.257, -145.853
1758.661, 69.341, -145.240
1784.241, 69.444, -144.638
1810.193, 69.567, -144.070
1836.523, 69.709, -143.551
1863.236, 69.872, -143.103
1890.338, 70.055, -142.754
1917.833, 70.250, -142.510
1945.729, 70.460, -142.400
1974.030, 70.685, -142.450
2002.743, 70.918, -142.667
2031.873, 71.158, -143.080
2061.428, 71.400, -143.702
2091.412, 71.640, -144.545
2121.832, 71.871, -145.626
2152.695, 72.085, -146.938
2184.007, 72.283, -148.491
2215.774, 72.454, -150.266
2248.003, 72.593, -152.244
2280.701, 72.691, -154.395
2313.874, 72.747, -156.680
2347.530, 72.755, -159.047
2381.676, 72.708, -161.432
2416.318, 72.606, -163.773
2451.464, 72.454, -165.999
2487.122, 72.261, -168.049
2523.298, 72.033, -169.873
2560.000, 71.770, -171.423
2597.236, 71.485, -172.682
2635.014, 71.185, -173.635
2673.341, 70.880, -174.286
2712.226, 70.576, -174.644
2751.676, 70.280, -174.726
2791.700, 69.995, -174.554
2832.306, 69.725, -174.153
2873.503, 69.474, -173.537
2915.299, 69.252, -172.746
2957.703, 69.051, -171.788
3000.724, 68.878, -170.694
3044.370, 68.734, -169.495
3088.652, 68.617, -168.208
3133.577, 68.536, -166.875
3179.156, 68.490, -165.523
3225.398, 68.478, -164.187
3272.312, 68.499, -162.896
3319.909, 68.556, -161.687
3368.198, 68.645, -160.597
3417.190, 68.760, -159.687
3466.894, 68.898, -159.011
3517.321, 69.058, -158.624
3568.482, 69.223, -158.551
3620.387, 69.375, -158.811
3673.046, 69.500, -159.382
3726.472, 69.586, -160.214
3780.675, 69.614, -161.190
3835.666, 69.581, -162.163
3891.457, 69.492, -162.978
3948.060, 69.359, -163.502
4005.486, 69.200, -163.660
4063.747, 69.037, -163.407
4122.855, 68.900, -162.767
4182.824, 68.812, -161.826
4243.664, 68.790, -160.771
4305.390, 68.835, -159.868
4368.013, 68.920, -159.392
4431.547, 68.985, -159.492
4496.005, 68.946, -159.989
4561.401, 68.743, -160.187
4627.749, 68.400, -158.992
4695.061, 68.086, -155.593
4763.352, 68.059, -150.250
4832.637, 68.485, -144.334
4902.929, 69.352, -139.472
4974.244, 70.531, -136.791
5046.596, 71.859, -136.896
5120.000, 73.168, -140.115
5194.472, 74.249, -146.395
5270.027, 74.902, -154.904
5346.682, 75.045, -163.926
5424.451, 74.757, -171.677
5503.352, 74.239, -177.298
5583.399, 73.680, 179.101
5664.612, 73.206, 176.913
5747.006, 72.863, 175.414
5830.598, 72.644, 173.891
5915.406, 72.484, 171.780
6001.447, 72.267, 168.904
6088.740, 71.877, 165.756
6177.303, 71.288, 163.350
6267.154, 70.591, 162.506
6358.312, 69.938, 163.356
6450.796, 69.454, 165.428
6544.625, 69.187, 168.061
6639.818, 69.129, 170.663
6736.397, 69.260, 172.747
6834.380, 69.536, 173.940
6933.789, 69.898, 173.933
7034.643, 70.271, 172.521
7136.964, 70.563, 169.698
7240.773, 70.679, 165.755
7346.093, 70.552, 161.316
7452.944, 70.173, 157.182
7561.350, 69.590, 154.056
7671.332, 68.880, 152.389
7782.915, 68.162, 152.240
7896.120, 67.519, 153.252
8010.971, 66.967, 155.012
8127.493, 66.503, 157.384
8245.711, 66.141, 160.259
8365.647, 65.889, 163.499
8487.328, 65.755, 166.939
8610.779, 65.746, 170.429
8736.026, 65.865, 173.799
8863.095, 66.122, 176.828
8992.011, 66.521, 179.227
9122.803, 67.050, -179.408
9255.497, 67.665, -179.605
9390.121, 68.268, 177.957
9526.704, 68.649, 172.995
9665.273, 68.559, 166.290
9805.857, 67.845, 160.050
9948.487, 66.618, 156.860
10093.191, 65.200, 158.104
10240.000, 63.958, 163.587
10388.944, 63.204, 171.929
10540.055, 63.094, -178.910
10693.363, 63.580, -171.096
10848.902, 64.409, -166.276
11006.703, 65.277, -165.044
11166.799, 65.853, -167.048
11329.224, 65.853, -170.147
11494.012, 65.343, -170.589
11661.195, 64.891, -166.775
11830.812, 64.984, -160.977
12002.895, 65.647, -156.130
12177.480, 66.685, -153.956
12354.606, 67.905, -155.623
12534.309, 68.999, -162.402
12716.624, 69.443, -174.295
12901.592, 68.788, 172.483
13089.250, 67.177, 163.358
13279.637, 65.216, 160.193
13472.794, 63.377, 161.351
13668.760, 61.791, 165.313
13867.577, 60.510, 171.169
14069.285, 59.564, 178.163
14273.928, 58.970, -174.323
14481.547, 58.770, -166.954
14692.186, 59.009, -160.722
14905.889, 59.701, -157.420
15122.700, 60.595, -160.153
15342.664, 60.812, -170.936
15565.829, 59.410, 176.943
15792.239, 56.873, 173.872
16021.942, 54.731, 178.318
16254.986, 53.244, -177.887
16491.422, 51.578, -174.518
16731.295, 49.627, -166.396
16974.656, 48.544, -154.426
17221.559, 48.454, -147.467
17472.053, 47.797, -148.373
17726.189, 45.717, -146.297
17984.021, 43.149, -134.656
18245.605, 40.968, -112.467
18510.994, 41.646, -78.611
18780.242, 46.133, -58.716
19053.408, 49.603, -63.259
19330.547, 52.318, -76.282
19611.715, 53.929, -103.786
19896.975, 52.453, -136.090
