* Measurement data measured by REW V5.19
* Source: ASIO MOTU M Series, In 1
* Format: 1M Log Swept Sine, 1 sweep at -3.0 dBFS  With no timing reference
* Dated: 10 Mar, 2023 2:36:00 PM
* REW Settings:
*  C-weighting compensation: Off
*  Target level: 75.0 dB
* Note: ; 
* Measurement: Mar 10 14:36:00
* Smoothing: 1/48 octave
* Frequency Step: 1/48 octave
* Start Frequency: 10.1 Hz
*
* Freq(Hz), SPL(dB), Phase(degrees)
10.145, 67.892, 73.120
10.293, 67.933, 72.460
10.443, 67.976, 71.572
10.595, 68.041, 70.409
10.749, 68.107, 69.197
10.905, 68.155, 68.276
11.064, 68.195, 67.463
11.225, 68.241, 66.549
11.388, 68.290, 65.598
11.554, 68.337, 64.693
11.722, 68.384, 63.819
11.892, 68.432, 62.955
12.065, 68.480, 62.101
12.241, 68.530, 61.220
12.419, 68.581, 60.325
12.599, 68.629, 59.440
12.782, 68.675, 58.554
12.968, 68.718, 57.650
13.157, 68.758, 56.751
13.348, 68.794, 55.873
13.543, 68.828, 55.015
13.740, 68.860, 54.177
13.939, 68.892, 53.365
14.142, 68.924, 52.573
14.348, 68.958, 51.798
14.557, 68.994, 51.028
14.768, 69.030, 50.258
14.983, 69.067, 49.483
15.201, 69.103, 48.704
15.422, 69.138, 47.920
15.646, 69.171, 47.140
15.874, 69.201, 46.367
16.105, 69.230, 45.604
16.339, 69.258, 44.856
16.577, 69.285, 44.119
16.818, 69.312, 43.392
17.063, 69.339, 42.671
17.311, 69.366, 41.955
17.563, 69.392, 41.244
17.818, 69.417, 40.539
18.077, 69.440, 39.841
18.340, 69.464, 39.152
18.607, 69.487, 38.469
18.877, 69.510, 37.792
19.152, 69.532, 37.117
19.431, 69.552, 36.447
19.713, 69.572, 35.783
20.000, 69.590, 35.131
20.291, 69.609, 34.493
20.586, 69.627, 33.866
20.885, 69.648, 33.246
21.189, 69.669, 32.623
21.497, 69.691, 31.987
21.810, 69.712, 31.336
22.127, 69.730, 30.676
22.449, 69.745, 30.015
22.776, 69.755, 29.365
23.107, 69.764, 28.734
23.443, 69.771, 28.123
23.784, 69.778, 27.529
24.130, 69.786, 26.948
24.481, 69.794, 26.378
24.837, 69.802, 25.816
25.198, 69.812, 25.261
25.565, 69.822, 24.707
25.937, 69.834, 24.149
26.314, 69.845, 23.582
26.697, 69.855, 23.010
27.085, 69.864, 22.435
27.479, 69.871, 21.861
27.879, 69.877, 21.290
28.284, 69.881, 20.726
28.696, 69.884, 20.179
29.113, 69.887, 19.653
29.537, 69.893, 19.136
29.966, 69.902, 18.604
30.402, 69.910, 18.045
30.844, 69.913, 17.479
31.293, 69.911, 16.944
31.748, 69.911, 16.450
32.210, 69.917, 15.956
32.678, 69.923, 15.424
33.154, 69.922, 14.878
33.636, 69.916, 14.387
34.125, 69.917, 13.950
34.621, 69.929, 13.474
35.125, 69.938, 12.893
35.636, 69.927, 12.292
36.154, 69.906, 11.812
36.680, 69.898, 11.422
37.214, 69.904, 10.959
37.755, 69.898, 10.398
38.304, 69.872, 9.931
38.861, 69.861, 9.653
39.427, 69.888, 9.328
40.000, 69.921, 8.720
40.582, 69.915, 7.988
41.172, 69.883, 7.438
41.771, 69.867, 7.060
42.379, 69.869, 6.621
42.995, 69.861, 6.107
43.620, 69.843, 5.683
44.255, 69.838, 5.321
44.898, 69.838, 4.887
45.552, 69.826, 4.426
46.214, 69.810, 4.058
46.886, 69.807, 3.740
47.568, 69.819, 3.340
48.260, 69.828, 2.799
48.962, 69.818, 2.168
49.674, 69.786, 1.580
50.397, 69.748, 1.120
51.130, 69.721, 0.739
51.874, 69.704, 0.351
52.628, 69.690, -0.068
53.394, 69.676, -0.497
54.170, 69.664, -0.929
54.958, 69.652, -1.409
55.758, 69.630, -1.931
56.569, 69.597, -2.422
57.391, 69.558, -2.868
58.226, 69.518, -3.251
59.073, 69.485, -3.646
59.932, 69.439, -4.073
60.804, 69.389, -4.342
61.688, 69.362, -4.654
62.586, 69.308, -5.036
63.496, 69.257, -5.111
64.420, 69.249, -5.332
65.357, 69.194, -5.677
66.307, 69.141, -5.586
67.272, 69.149, -5.606
68.250, 69.133, -5.829
69.243, 69.119, -5.885
70.250, 69.123, -6.027
71.272, 69.119, -6.158
72.309, 69.136, -6.237
73.360, 69.166, -6.419
74.427, 69.200, -6.733
75.510, 69.207, -7.089
76.608, 69.228, -7.284
77.723, 69.259, -7.663
78.853, 69.289, -7.997
80.000, 69.338, -8.617
81.164, 69.341, -9.361
82.344, 69.331, -10.057
83.542, 69.306, -10.619
84.757, 69.296, -11.134
85.990, 69.288, -11.586
87.241, 69.300, -12.174
88.510, 69.279, -12.891
89.797, 69.233, -13.563
91.103, 69.171, -14.061
92.428, 69.127, -14.504
93.773, 69.087, -14.980
95.137, 69.046, -15.467
96.520, 69.008, -15.939
97.924, 68.965, -16.449
99.349, 68.913, -16.903
100.794, 68.865, -17.313
102.260, 68.819, -17.758
103.747, 68.759, -18.182
105.256, 68.695, -18.550
106.787, 68.625, -18.852
108.340, 68.549, -19.097
109.916, 68.481, -19.217
111.515, 68.426, -19.300
113.137, 68.391, -19.330
114.783, 68.382, -19.355
116.452, 68.399, -19.477
118.146, 68.427, -19.757
119.865, 68.447, -20.230
121.608, 68.435, -20.777
123.377, 68.408, -21.320
125.171, 68.368, -21.874
126.992, 68.320, -22.436
128.839, 68.266, -22.962
130.713, 68.208, -23.394
132.615, 68.151, -23.787
134.543, 68.084, -24.144
136.500, 68.014, -24.453
138.486, 67.947, -24.675
140.500, 67.879, -24.867
142.544, 67.827, -24.945
144.617, 67.788, -25.078
146.721, 67.765, -25.140
148.855, 67.774, -25.278
151.020, 67.787, -25.590
153.217, 67.795, -26.025
155.445, 67.795, -26.576
157.706, 67.779, -27.182
160.000, 67.747, -27.781
162.327, 67.707, -28.376
164.688, 67.657, -28.983
167.084, 67.601, -29.581
169.514, 67.540, -30.109
171.980, 67.473, -30.655
174.481, 67.404, -31.165
177.019, 67.336, -31.669
179.594, 67.265, -32.171
182.206, 67.189, -32.646
184.856, 67.112, -33.117
187.545, 67.034, -33.551
190.273, 66.952, -33.951
193.041, 66.865, -34.375
195.849, 66.778, -34.769
198.697, 66.693, -35.176
201.587, 66.600, -35.548
204.520, 66.510, -35.937
207.494, 66.427, -36.305
210.512, 66.338, -36.649
213.574, 66.242, -36.989
216.681, 66.144, -37.332
219.833, 66.047, -37.671
223.030, 65.943, -37.997
226.274, 65.838, -38.314
229.565, 65.726, -38.640
232.905, 65.611, -38.930
236.292, 65.501, -39.177
239.729, 65.388, -39.407
243.216, 65.261, -39.625
246.754, 65.124, -39.798
250.343, 64.989, -39.972
253.984, 64.852, -40.108
257.678, 64.707, -40.139
261.426, 64.561, -40.090
265.229, 64.414, -39.984
269.087, 64.265, -39.836
273.001, 64.116, -39.573
276.972, 63.987, -39.289
281.000, 63.852, -38.876
285.088, 63.732, -38.379
289.234, 63.638, -37.838
293.441, 63.546, -37.248
297.710, 63.477, -36.754
302.040, 63.417, -36.158
306.433, 63.376, -35.802
310.890, 63.306, -35.288
315.412, 63.292, -35.054
320.000, 63.240, -35.029
324.655, 63.146, -35.089
329.377, 63.069, -34.831
334.168, 62.902, -34.841
339.028, 62.707, -34.815
343.959, 62.585, -34.156
348.962, 62.402, -33.005
354.038, 62.279, -31.907
359.188, 62.180, -30.173
364.412, 62.130, -28.366
369.713, 62.148, -26.833
375.090, 62.234, -25.306
380.546, 62.367, -23.713
386.081, 62.578, -22.485
391.697, 62.798, -21.949
397.395, 62.969, -21.543
403.175, 63.164, -21.570
409.039, 63.314, -21.782
414.989, 63.449, -22.162
421.025, 63.563, -22.625
427.149, 63.640, -23.156
433.362, 63.691, -23.690
439.665, 63.715, -24.154
446.060, 63.732, -24.528
452.548, 63.745, -24.819
459.131, 63.752, -25.085
465.809, 63.751, -25.304
472.584, 63.762, -25.428
479.458, 63.775, -25.710
486.432, 63.781, -25.899
493.507, 63.782, -25.964
500.686, 63.772, -26.151
507.968, 63.778, -26.213
515.357, 63.787, -26.269
522.853, 63.798, -26.310
530.458, 63.814, -26.386
538.174, 63.838, -26.466
546.002, 63.858, -26.591
553.943, 63.874, -26.645
562.001, 63.864, -26.880
570.175, 63.887, -27.076
578.469, 63.889, -27.219
586.883, 63.894, -27.396
595.419, 63.902, -27.593
604.080, 63.897, -27.809
612.866, 63.883, -27.996
621.780, 63.863, -28.147
630.824, 63.837, -28.242
640.000, 63.808, -28.222
649.309, 63.784, -28.124
658.753, 63.774, -27.985
668.335, 63.773, -27.837
678.056, 63.778, -27.684
687.919, 63.784, -27.552
697.925, 63.791, -27.437
708.076, 63.796, -27.302
718.376, 63.803, -27.143
728.825, 63.812, -26.951
739.426, 63.828, -26.742
750.181, 63.849, -26.487
761.093, 63.875, -26.235
772.163, 63.908, -26.014
783.394, 63.947, -25.822
794.789, 63.987, -25.641
806.349, 64.029, -25.472
818.078, 64.071, -25.316
829.977, 64.114, -25.150
842.050, 64.161, -25.011
854.297, 64.207, -24.867
866.724, 64.252, -24.720
879.330, 64.298, -24.529
892.120, 64.344, -24.258
905.097, 64.380, -24.028
918.262, 64.429, -23.776
931.618, 64.499, -23.567
945.169, 64.566, -23.331
958.917, 64.634, -23.138
972.864, 64.703, -22.956
987.015, 64.772, -22.784
1001.371, 64.841, -22.612
1015.937, 64.909, -22.427
1030.714, 64.977, -22.233
1045.706, 65.048, -22.007
1060.916, 65.118, -21.774
1076.347, 65.193, -21.560
1092.003, 65.269, -21.335
1107.887, 65.346, -21.088
1124.001, 65.425, -20.820
1140.350, 65.509, -20.524
1156.937, 65.600, -20.211
1173.765, 65.699, -19.902
1190.838, 65.806, -19.613
1208.159, 65.919, -19.368
1225.732, 66.035, -19.174
1243.561, 66.151, -19.028
1261.649, 66.263, -18.921
1280.000, 66.374, -18.847
1298.618, 66.478, -18.774
1317.507, 66.575, -18.694
1336.670, 66.667, -18.596
1356.113, 66.756, -18.477
1375.838, 66.844, -18.337
1395.850, 66.929, -18.178
1416.153, 67.009, -17.987
1436.751, 67.089, -17.776
1457.649, 67.170, -17.532
1478.851, 67.249, -17.227
1500.362, 67.329, -16.880
1522.185, 67.409, -16.460
1544.326, 67.493, -15.977
1566.789, 67.584, -15.438
1589.578, 67.685, -14.859
1612.699, 67.795, -14.254
1636.156, 67.914, -13.642
1659.955, 68.040, -13.029
1684.099, 68.172, -12.420
1708.595, 68.308, -11.807
1733.447, 68.448, -11.185
1758.661, 68.592, -10.545
1784.241, 68.742, -9.882
1810.193, 68.897, -9.195
1836.523, 69.060, -8.482
1863.236, 69.231, -7.746
1890.338, 69.412, -6.990
1917.833, 69.605, -6.220
1945.729, 69.810, -5.445
1974.030, 70.025, -4.672
2002.743, 70.255, -3.916
2031.873, 70.502, -3.196
2061.428, 70.763, -2.522
2091.412, 71.037, -1.903
2121.832, 71.325, -1.351
2152.695, 71.624, -0.875
2184.007, 71.936, -0.482
2215.774, 72.261, -0.191
2248.003, 72.597, -0.007
2280.701, 72.939, 0.057
2313.874, 73.288, -0.018
2347.530, 73.644, -0.245
2381.676, 74.004, -0.640
2416.318, 74.364, -1.220
2451.464, 74.722, -1.999
2487.122, 75.071, -2.987
2523.298, 75.405, -4.183
2560.000, 75.718, -5.557
2597.236, 76.014, -7.078
2635.014, 76.292, -8.835
2673.341, 76.530, -10.837
2712.226, 76.718, -12.966
2751.676, 76.857, -15.159
2791.700, 76.948, -17.373
2832.306, 76.989, -19.563
2873.503, 76.982, -21.685
2915.299, 76.927, -23.694
2957.703, 76.829, -25.546
3000.724, 76.692, -27.199
3044.370, 76.523, -28.617
3088.652, 76.331, -29.775
3133.577, 76.124, -30.658
3179.156, 75.911, -31.266
3225.398, 75.701, -31.606
3272.312, 75.499, -31.700
3319.909, 75.313, -31.575
3368.198, 75.146, -31.265
3417.190, 75.003, -30.809
3466.894, 74.887, -30.252
3517.321, 74.798, -29.642
3568.482, 74.736, -29.034
3620.387, 74.697, -28.477
3673.046, 74.685, -28.038
3726.472, 74.690, -27.772
3780.675, 74.704, -27.724
3835.666, 74.716, -27.943
3891.457, 74.711, -28.460
3948.060, 74.671, -29.278
4005.486, 74.575, -30.358
4063.747, 74.404, -31.616
4122.855, 74.133, -32.886
4182.824, 73.751, -33.937
4243.664, 73.259, -34.463
4305.390, 72.677, -34.112
4368.013, 72.059, -32.564
4431.547, 71.484, -29.663
4496.005, 71.057, -25.549
4561.401, 70.870, -20.782
4627.749, 70.953, -16.245
4695.061, 71.245, -12.814
4763.352, 71.620, -10.979
4832.637, 71.940, -10.684
4902.929, 72.110, -11.431
4974.244, 72.098, -12.554
5046.596, 71.921, -13.484
5120.000, 71.625, -13.863
5194.472, 71.262, -13.543
5270.027, 70.873, -12.520
5346.682, 70.497, -10.876
5424.451, 70.155, -8.702
5503.352, 69.859, -6.103
5583.399, 69.619, -3.168
5664.612, 69.445, 0.011
5747.006, 69.343, 3.343
5830.598, 69.312, 6.746
5915.406, 69.362, 10.106
6001.447, 69.496, 13.318
6088.740, 69.708, 16.281
6177.303, 69.995, 18.893
6267.154, 70.357, 20.980
6358.312, 70.779, 22.392
6450.796, 71.241, 22.970
6544.625, 71.714, 22.555
6639.818, 72.152, 21.042
6736.397, 72.498, 18.448
6834.380, 72.695, 14.970
6933.789, 72.702, 11.003
7034.643, 72.515, 7.023
7136.964, 72.166, 3.395
7240.773, 71.699, 0.316
7346.093, 71.159, -2.209
7452.944, 70.570, -4.351
7561.350, 69.931, -6.328
7671.332, 69.207, -8.262
7782.915, 68.341, -10.027
7896.120, 67.276, -11.102
8010.971, 66.032, -10.725
8127.493, 64.702, -8.506
8245.711, 63.332, -4.315
8365.647, 62.034, 2.421
8487.328, 61.013, 11.251
8610.779, 60.363, 21.063
8736.026, 60.078, 30.716
8863.095, 60.062, 39.452
8992.011, 60.198, 46.992
9122.803, 60.382, 53.442
9255.497, 60.559, 59.073
9390.121, 60.704, 64.185
9526.704, 60.813, 69.030
9665.273, 60.898, 73.770
9805.857, 60.978, 78.462
9948.487, 61.069, 83.082
10093.191, 61.177, 87.518
10240.000, 61.287, 91.621
10388.944, 61.372, 95.225
10540.055, 61.368, 98.258
10693.363, 61.212, 101.137
10848.902, 60.878, 104.125
11006.703, 60.296, 108.037
11166.799, 59.525, 114.179
11329.224, 58.769, 123.426
11494.012, 58.346, 135.542
11661.195, 58.513, 148.836
11830.812, 59.276, 160.831
12002.895, 60.358, 169.727
12177.480, 61.446, 175.372
12354.606, 62.343, 178.526
12534.309, 62.983, -179.594
12716.624, 63.424, -178.165
12901.592, 63.755, -177.142
13089.250, 63.982, -177.028
13279.637, 63.995, -178.213
13472.794, 63.625, 179.717
13668.760, 62.726, 178.473
13867.577, 61.440, -179.486
14069.285, 60.226, -173.824
14273.928, 59.393, -167.389
14481.547, 58.630, -162.785
14692.186, 57.488, -158.291
14905.889, 56.087, -151.347
15122.700, 54.733, -141.932
15342.664, 53.567, -131.094
15565.829, 52.608, -119.754
15792.239, 51.821, -108.599
16021.942, 51.129, -98.191
16254.986, 50.388, -88.729
16491.422, 49.456, -79.599
16731.295, 48.203, -69.292
16974.656, 46.992, -54.690
17221.559, 46.829, -41.803
17472.053, 46.040, -41.557
17726.189, 42.062, -29.373
17984.021, 38.926, 12.693
18245.605, 40.662, 48.137
18510.994, 42.874, 66.929
18780.242, 44.493, 77.776
19053.408, 45.616, 84.900
19330.547, 46.285, 89.172
19611.715, 46.345, 90.918
19896.975, 45.682, 91.382
