* Measurement data measured by REW V5.19
* Source: ASIO MOTU M Series, In 1
* Format: 1M Log Swept Sine, 1 sweep at -3.0 dBFS  With no timing reference
* Dated: 20 Mar, 2023 11:38:13 AM
* REW Settings:
*  C-weighting compensation: Off
*  Target level: 75.0 dB
* Note: ; 
* Measurement: Mar 20 11:38:13
* Smoothing: 1/48 octave
* Frequency Step: 1/48 octave
* Start Frequency: 10.1 Hz
*
* Freq(Hz), SPL(dB), Phase(degrees)
10.145, 63.632, -71.896
10.293, 63.721, -72.490
10.443, 63.814, -73.292
10.595, 63.958, -74.341
10.749, 64.109, -75.440
10.905, 64.229, -76.289
11.064, 64.339, -77.055
11.225, 64.460, -77.937
11.388, 64.587, -78.874
11.554, 64.708, -79.787
11.722, 64.827, -80.690
11.892, 64.942, -81.587
12.065, 65.056, -82.481
12.241, 65.169, -83.388
12.419, 65.281, -84.300
12.599, 65.389, -85.187
12.782, 65.495, -86.065
12.968, 65.601, -86.951
13.157, 65.705, -87.831
13.348, 65.807, -88.695
13.543, 65.908, -89.551
13.740, 66.007, -90.402
13.939, 66.106, -91.241
14.142, 66.204, -92.070
14.348, 66.302, -92.888
14.557, 66.400, -93.701
14.768, 66.498, -94.510
14.983, 66.596, -95.317
15.201, 66.695, -96.127
15.422, 66.793, -96.942
15.646, 66.889, -97.761
15.874, 66.985, -98.582
16.105, 67.078, -99.404
16.339, 67.169, -100.219
16.577, 67.259, -101.027
16.818, 67.348, -101.825
17.063, 67.437, -102.616
17.311, 67.526, -103.401
17.563, 67.614, -104.186
17.818, 67.703, -104.972
18.077, 67.790, -105.763
18.340, 67.876, -106.554
18.607, 67.960, -107.343
18.877, 68.042, -108.126
19.152, 68.124, -108.899
19.431, 68.205, -109.664
19.713, 68.286, -110.424
20.000, 68.367, -111.183
20.291, 68.447, -111.945
20.586, 68.527, -112.712
20.885, 68.605, -113.482
21.189, 68.682, -114.251
21.497, 68.756, -115.017
21.810, 68.829, -115.776
22.127, 68.902, -116.529
22.449, 68.973, -117.278
22.776, 69.044, -118.023
23.107, 69.114, -118.767
23.443, 69.184, -119.509
23.784, 69.252, -120.249
24.130, 69.320, -120.988
24.481, 69.387, -121.726
24.837, 69.453, -122.464
25.198, 69.518, -123.200
25.565, 69.582, -123.935
25.937, 69.645, -124.667
26.314, 69.707, -125.398
26.697, 69.768, -126.127
27.085, 69.827, -126.854
27.479, 69.886, -127.576
27.879, 69.944, -128.295
28.284, 70.001, -129.012
28.696, 70.057, -129.730
29.113, 70.112, -130.448
29.537, 70.165, -131.161
29.966, 70.216, -131.866
30.402, 70.268, -132.562
30.844, 70.319, -133.256
31.293, 70.371, -133.954
31.748, 70.421, -134.656
32.210, 70.470, -135.359
32.678, 70.517, -136.057
33.154, 70.564, -136.752
33.636, 70.610, -137.447
34.125, 70.656, -138.144
34.621, 70.699, -138.841
35.125, 70.742, -139.534
35.636, 70.783, -140.219
36.154, 70.823, -140.898
36.680, 70.863, -141.574
37.214, 70.903, -142.251
37.755, 70.941, -142.930
38.304, 70.978, -143.606
38.861, 71.012, -144.271
39.427, 71.048, -144.927
40.000, 71.083, -145.591
40.582, 71.117, -146.266
41.172, 71.147, -146.941
41.771, 71.176, -147.601
42.379, 71.204, -148.248
42.995, 71.233, -148.896
43.620, 71.261, -149.548
44.255, 71.288, -150.199
44.898, 71.315, -150.848
45.552, 71.341, -151.500
46.214, 71.366, -152.157
46.886, 71.389, -152.815
47.568, 71.410, -153.468
48.260, 71.429, -154.115
48.962, 71.448, -154.754
49.674, 71.466, -155.385
50.397, 71.485, -156.012
51.130, 71.503, -156.644
51.874, 71.520, -157.284
52.628, 71.535, -157.922
53.394, 71.548, -158.553
54.170, 71.559, -159.173
54.958, 71.571, -159.786
55.758, 71.582, -160.409
56.569, 71.589, -161.019
57.391, 71.597, -161.585
58.226, 71.613, -162.167
59.073, 71.626, -162.803
59.932, 71.632, -163.430
60.804, 71.638, -164.029
61.688, 71.646, -164.639
62.586, 71.652, -165.262
63.496, 71.655, -165.881
64.420, 71.656, -166.494
65.357, 71.658, -167.107
66.307, 71.658, -167.724
67.272, 71.657, -168.336
68.250, 71.654, -168.939
69.243, 71.651, -169.542
70.250, 71.645, -170.141
71.272, 71.638, -170.740
72.309, 71.628, -171.334
73.360, 71.615, -171.913
74.427, 71.602, -172.489
75.510, 71.587, -173.061
76.608, 71.571, -173.624
77.723, 71.557, -174.181
78.853, 71.544, -174.755
80.000, 71.527, -175.332
81.164, 71.511, -175.902
82.344, 71.492, -176.466
83.542, 71.473, -177.016
84.757, 71.455, -177.577
85.990, 71.435, -178.138
87.241, 71.415, -178.707
88.510, 71.392, -179.288
89.797, 71.367, -179.857
91.103, 71.340, 179.569
92.428, 71.309, 178.993
93.773, 71.275, 178.422
95.137, 71.236, 177.864
96.520, 71.194, 177.314
97.924, 71.150, 176.771
99.349, 71.103, 176.235
100.794, 71.054, 175.717
102.260, 71.003, 175.205
103.747, 70.949, 174.702
105.256, 70.891, 174.230
106.787, 70.833, 173.783
108.340, 70.775, 173.365
109.916, 70.717, 172.970
111.515, 70.657, 172.644
113.137, 70.608, 172.323
114.783, 70.554, 171.953
116.452, 70.500, 171.590
118.146, 70.448, 171.186
119.865, 70.387, 170.788
121.608, 70.339, 170.498
123.377, 70.292, 170.107
125.171, 70.232, 169.729
126.992, 70.163, 169.354
128.839, 70.089, 169.012
130.713, 70.012, 168.725
132.615, 69.936, 168.511
134.543, 69.864, 168.369
136.500, 69.802, 168.245
138.486, 69.751, 168.084
140.500, 69.706, 167.830
142.544, 69.655, 167.494
144.617, 69.591, 167.096
146.721, 69.509, 166.662
148.855, 69.407, 166.268
151.020, 69.285, 165.929
153.217, 69.145, 165.693
155.445, 68.988, 165.564
157.706, 68.815, 165.611
160.000, 68.631, 165.890
162.327, 68.441, 166.457
164.688, 68.254, 167.366
167.084, 68.092, 168.717
169.514, 67.990, 170.495
171.980, 67.969, 172.582
174.481, 68.062, 174.754
177.019, 68.274, 176.666
179.594, 68.582, 178.031
182.206, 68.943, 178.629
184.856, 69.300, 178.377
187.545, 69.605, 177.441
190.273, 69.847, 176.078
193.041, 70.017, 174.491
195.849, 70.120, 172.848
198.697, 70.169, 171.260
201.587, 70.180, 169.752
204.520, 70.160, 168.363
207.494, 70.115, 167.105
210.512, 70.058, 165.961
213.574, 69.988, 164.912
216.681, 69.906, 163.954
219.833, 69.813, 163.038
223.030, 69.722, 162.238
226.274, 69.631, 161.489
229.565, 69.529, 160.806
232.905, 69.423, 160.190
236.292, 69.316, 159.628
239.729, 69.204, 159.121
243.216, 69.094, 158.680
246.754, 68.985, 158.286
250.343, 68.875, 157.931
253.984, 68.765, 157.639
257.678, 68.658, 157.426
261.426, 68.557, 157.228
265.229, 68.462, 157.030
269.087, 68.377, 156.850
273.001, 68.293, 156.633
276.972, 68.209, 156.385
281.000, 68.126, 156.134
285.088, 68.035, 155.866
289.234, 67.934, 155.587
293.441, 67.828, 155.329
297.710, 67.719, 155.124
302.040, 67.605, 154.945
306.433, 67.488, 154.835
310.890, 67.367, 154.772
315.412, 67.249, 154.746
320.000, 67.138, 154.758
324.655, 67.032, 154.806
329.377, 66.936, 154.865
334.168, 66.842, 154.896
339.028, 66.751, 154.894
343.959, 66.658, 154.865
348.962, 66.557, 154.799
354.038, 66.448, 154.745
359.188, 66.332, 154.720
364.412, 66.209, 154.696
369.713, 66.076, 154.719
375.090, 65.938, 154.793
380.546, 65.793, 154.911
386.081, 65.647, 155.086
391.697, 65.497, 155.345
397.395, 65.342, 155.679
403.175, 65.187, 156.098
409.039, 65.032, 156.607
414.989, 64.879, 157.231
421.025, 64.731, 157.963
427.149, 64.590, 158.816
433.362, 64.461, 159.783
439.665, 64.351, 160.857
446.060, 64.265, 162.015
452.548, 64.207, 163.189
459.131, 64.174, 164.317
465.809, 64.159, 165.388
472.584, 64.153, 166.405
479.458, 64.156, 167.376
486.432, 64.170, 168.315
493.507, 64.196, 169.189
500.686, 64.236, 170.056
507.968, 64.292, 170.826
515.357, 64.360, 171.473
522.853, 64.433, 171.983
530.458, 64.504, 172.321
538.174, 64.568, 172.520
546.002, 64.619, 172.647
553.943, 64.658, 172.731
562.001, 64.685, 172.795
570.175, 64.709, 172.818
578.469, 64.726, 172.818
586.883, 64.731, 172.801
595.419, 64.726, 172.765
604.080, 64.709, 172.721
612.866, 64.680, 172.712
621.780, 64.641, 172.726
630.824, 64.600, 172.780
640.000, 64.557, 172.870
649.309, 64.510, 172.991
658.753, 64.457, 173.163
668.335, 64.397, 173.356
678.056, 64.332, 173.613
687.919, 64.265, 173.919
697.925, 64.200, 174.281
708.076, 64.136, 174.694
718.376, 64.074, 175.186
728.825, 64.015, 175.734
739.426, 63.965, 176.313
750.181, 63.921, 176.919
761.093, 63.883, 177.567
772.163, 63.852, 178.210
783.394, 63.823, 178.869
794.789, 63.796, 179.549
806.349, 63.773, -179.770
818.078, 63.759, -179.089
829.977, 63.748, -178.392
842.050, 63.738, -177.670
854.297, 63.733, -176.943
866.724, 63.731, -176.202
879.330, 63.731, -175.445
892.120, 63.738, -174.668
905.097, 63.750, -173.871
918.262, 63.769, -173.064
931.618, 63.796, -172.256
945.169, 63.828, -171.459
958.917, 63.865, -170.666
972.864, 63.909, -169.875
987.015, 63.959, -169.099
1001.371, 64.015, -168.346
1015.937, 64.071, -167.624
1030.714, 64.129, -166.909
1045.706, 64.194, -166.219
1060.916, 64.260, -165.542
1076.347, 64.322, -164.840
1092.003, 64.386, -164.132
1107.887, 64.460, -163.427
1124.001, 64.536, -162.697
1140.350, 64.612, -161.933
1156.937, 64.695, -161.152
1173.765, 64.790, -160.355
1190.838, 64.899, -159.544
1208.159, 65.022, -158.749
1225.732, 65.153, -157.978
1243.561, 65.294, -157.237
1261.649, 65.451, -156.562
1280.000, 65.618, -155.958
1298.618, 65.794, -155.426
1317.507, 65.977, -154.982
1336.670, 66.166, -154.633
1356.113, 66.360, -154.390
1375.838, 66.556, -154.248
1395.850, 66.748, -154.209
1416.153, 66.933, -154.281
1436.751, 67.107, -154.434
1457.649, 67.271, -154.666
1478.851, 67.425, -154.956
1500.362, 67.569, -155.279
1522.185, 67.697, -155.598
1544.326, 67.812, -155.891
1566.789, 67.917, -156.146
1589.578, 68.017, -156.340
1612.699, 68.117, -156.477
1636.156, 68.217, -156.568
1659.955, 68.319, -156.610
1684.099, 68.429, -156.634
1708.595, 68.549, -156.642
1733.447, 68.676, -156.650
1758.661, 68.812, -156.673
1784.241, 68.955, -156.722
1810.193, 69.105, -156.809
1836.523, 69.261, -156.941
1863.236, 69.423, -157.129
1890.338, 69.587, -157.373
1917.833, 69.757, -157.685
1945.729, 69.926, -158.057
1974.030, 70.094, -158.493
2002.743, 70.259, -158.991
2031.873, 70.420, -159.550
2061.428, 70.581, -160.173
2091.412, 70.738, -160.853
2121.832, 70.889, -161.589
2152.695, 71.034, -162.376
2184.007, 71.172, -163.208
2215.774, 71.302, -164.077
2248.003, 71.424, -164.976
2280.701, 71.538, -165.896
2313.874, 71.644, -166.829
2347.530, 71.742, -167.771
2381.676, 71.834, -168.721
2416.318, 71.920, -169.674
2451.464, 72.002, -170.634
2487.122, 72.074, -171.586
2523.298, 72.136, -172.528
2560.000, 72.196, -173.463
2597.236, 72.257, -174.397
2635.014, 72.311, -175.317
2673.341, 72.362, -176.236
2712.226, 72.410, -177.161
2751.676, 72.456, -178.099
2791.700, 72.499, -179.061
2832.306, 72.538, 179.946
2873.503, 72.571, 178.917
2915.299, 72.596, 177.846
2957.703, 72.610, 176.735
3000.724, 72.610, 175.586
3044.370, 72.590, 174.419
3088.652, 72.554, 173.239
3133.577, 72.497, 172.077
3179.156, 72.418, 170.965
3225.398, 72.319, 169.932
3272.312, 72.195, 169.016
3319.909, 72.048, 168.255
3368.198, 71.889, 167.670
3417.190, 71.721, 167.288
3466.894, 71.549, 167.120
3517.321, 71.379, 167.167
3568.482, 71.217, 167.423
3620.387, 71.068, 167.878
3673.046, 70.936, 168.517
3726.472, 70.829, 169.320
3780.675, 70.740, 170.278
3835.666, 70.677, 171.376
3891.457, 70.654, 172.571
3948.060, 70.672, 173.815
4005.486, 70.733, 175.019
4063.747, 70.821, 176.111
4122.855, 70.924, 177.091
4182.824, 71.036, 178.037
4243.664, 71.162, 179.019
4305.390, 71.313, -179.930
4368.013, 71.505, -178.828
4431.547, 71.750, -177.752
4496.005, 72.056, -176.795
4561.401, 72.426, -176.082
4627.749, 72.865, -175.764
4695.061, 73.369, -176.033
4763.352, 73.919, -177.131
4832.637, 74.474, -179.294
4902.929, 74.971, 177.343
4974.244, 75.329, 172.855
5046.596, 75.471, 167.591
5120.000, 75.348, 162.296
5194.472, 75.007, 157.784
5270.027, 74.531, 154.276
5346.682, 73.967, 151.878
5424.451, 73.380, 150.615
5503.352, 72.817, 150.335
5583.399, 72.307, 150.828
5664.612, 71.864, 151.916
5747.006, 71.498, 153.438
5830.598, 71.210, 155.254
5915.406, 71.001, 157.255
6001.447, 70.879, 159.308
6088.740, 70.824, 161.243
6177.303, 70.830, 163.019
6267.154, 70.898, 164.522
6358.312, 71.017, 165.634
6450.796, 71.164, 166.237
6544.625, 71.308, 166.232
6639.818, 71.409, 165.571
6736.397, 71.410, 164.358
6834.380, 71.257, 162.990
6933.789, 70.939, 162.188
7034.643, 70.537, 162.671
7136.964, 70.211, 164.557
7240.773, 70.115, 167.056
7346.093, 70.237, 168.855
7452.944, 70.417, 169.175
7561.350, 70.492, 168.256
7671.332, 70.385, 166.849
7782.915, 70.097, 165.675
7896.120, 69.680, 165.211
8010.971, 69.196, 165.670
8127.493, 68.697, 167.051
8245.711, 68.224, 169.248
8365.647, 67.800, 172.134
8487.328, 67.440, 175.585
8610.779, 67.154, 179.499
8736.026, 66.952, -176.222
8863.095, 66.842, -171.665
8992.011, 66.833, -166.929
9122.803, 66.928, -162.106
9255.497, 67.132, -157.301
9390.121, 67.457, -152.633
9526.704, 67.909, -148.257
9665.273, 68.498, -144.392
9805.857, 69.227, -141.327
9948.487, 70.079, -139.464
10093.191, 70.995, -139.305
10240.000, 71.851, -141.125
10388.944, 72.508, -144.619
10540.055, 72.883, -148.942
10693.363, 72.965, -153.110
10848.902, 72.859, -155.919
11006.703, 72.813, -157.397
11166.799, 72.928, -159.063
11329.224, 73.050, -161.970
11494.012, 73.013, -165.896
11661.195, 72.729, -170.101
11830.812, 72.214, -173.723
12002.895, 71.564, -176.212
12177.480, 70.927, -177.782
12354.606, 70.251, -179.766
12534.309, 69.231, 178.973
12716.624, 67.961, -178.616
12901.592, 66.994, -170.660
13089.250, 67.311, -161.315
13279.637, 68.315, -159.247
13472.794, 68.859, -162.902
13668.760, 68.875, -168.027
13867.577, 68.407, -172.911
14069.285, 67.580, -175.014
14273.928, 66.922, -174.107
14481.547, 66.694, -173.061
14692.186, 66.771, -174.146
14905.889, 66.897, -179.117
15122.700, 66.544, 171.391
15342.664, 65.219, 160.844
15565.829, 63.025, 154.185
15792.239, 60.462, 153.166
16021.942, 57.952, 157.009
16254.986, 55.726, 165.201
16491.422, 54.231, 175.084
16731.295, 53.020, -175.941
16974.656, 52.046, -165.874
17221.559, 51.458, -155.729
17472.053, 51.194, -146.227
17726.189, 51.224, -137.554
17984.021, 51.570, -130.122
18245.605, 52.272, -124.606
18510.994, 53.367, -122.536
18780.242, 54.658, -126.492
19053.408, 55.502, -138.933
19330.547, 54.886, -156.320
19611.715, 52.987, -169.091
19896.975, 50.785, -178.472
