* Measurement data measured by REW V5.19
* Source: ASIO MOTU M Series, In 1
* Format: 1M Log Swept Sine, 1 sweep at -3.0 dBFS  With no timing reference
* Dated: 10 Mar, 2023 4:36:19 PM
* REW Settings:
*  C-weighting compensation: Off
*  Target level: 75.0 dB
* Note: ; 
* Measurement: Mar 10 16:36:19
* Smoothing: 1/48 octave
* Frequency Step: 1/48 octave
* Start Frequency: 10.1 Hz
*
* Freq(Hz), SPL(dB), Phase(degrees)
10.145, 67.743, -122.973
10.293, 67.766, -123.714
10.443, 67.790, -124.712
10.595, 67.827, -126.020
10.749, 67.865, -127.389
10.905, 67.893, -128.443
11.064, 67.916, -129.390
11.225, 67.940, -130.468
11.388, 67.963, -131.604
11.554, 67.983, -132.694
11.722, 67.999, -133.755
11.892, 68.012, -134.792
12.065, 68.023, -135.806
12.241, 68.034, -136.822
12.419, 68.044, -137.829
12.599, 68.054, -138.800
12.782, 68.064, -139.754
12.968, 68.074, -140.721
13.157, 68.084, -141.687
13.348, 68.093, -142.647
13.543, 68.101, -143.611
13.740, 68.106, -144.582
13.939, 68.108, -145.548
14.142, 68.106, -146.505
14.348, 68.101, -147.444
14.557, 68.094, -148.361
14.768, 68.085, -149.255
14.983, 68.077, -150.122
15.201, 68.070, -150.972
15.422, 68.065, -151.813
15.646, 68.063, -152.660
15.874, 68.061, -153.519
16.105, 68.060, -154.400
16.339, 68.055, -155.301
16.577, 68.045, -156.211
16.818, 68.030, -157.120
17.063, 68.009, -158.008
17.311, 67.984, -158.863
17.563, 67.959, -159.680
17.818, 67.935, -160.463
18.077, 67.915, -161.228
18.340, 67.897, -161.994
18.607, 67.882, -162.776
18.877, 67.865, -163.579
19.152, 67.844, -164.397
19.431, 67.817, -165.210
19.713, 67.785, -165.995
20.000, 67.750, -166.739
20.291, 67.715, -167.438
20.586, 67.684, -168.103
20.885, 67.657, -168.755
21.189, 67.635, -169.418
21.497, 67.613, -170.103
21.810, 67.589, -170.810
22.127, 67.561, -171.526
22.449, 67.528, -172.236
22.776, 67.490, -172.926
23.107, 67.451, -173.588
23.443, 67.410, -174.220
23.784, 67.372, -174.826
24.130, 67.337, -175.419
24.481, 67.306, -176.017
24.837, 67.278, -176.645
25.198, 67.248, -177.319
25.565, 67.213, -178.031
25.937, 67.167, -178.749
26.314, 67.111, -179.427
26.697, 67.050, 179.970
27.085, 66.994, 179.440
27.479, 66.947, 178.945
27.879, 66.909, 178.428
28.284, 66.873, 177.861
28.696, 66.832, 177.254
29.113, 66.783, 176.645
29.537, 66.729, 176.065
29.966, 66.672, 175.515
30.402, 66.614, 174.984
30.844, 66.552, 174.466
31.293, 66.485, 173.982
31.748, 66.418, 173.547
32.210, 66.353, 173.145
32.678, 66.292, 172.731
33.154, 66.227, 172.287
33.636, 66.150, 171.862
34.125, 66.066, 171.531
34.621, 65.989, 171.308
35.125, 65.929, 171.108
35.636, 65.877, 170.839
36.154, 65.815, 170.527
36.680, 65.740, 170.316
37.214, 65.676, 170.302
37.755, 65.649, 170.362
38.304, 65.658, 170.274
38.861, 65.671, 169.934
39.427, 65.664, 169.453
40.000, 65.640, 168.973
40.582, 65.614, 168.492
41.172, 65.581, 167.943
41.771, 65.530, 167.359
42.379, 65.463, 166.839
42.995, 65.395, 166.396
43.620, 65.330, 165.961
44.255, 65.262, 165.528
44.898, 65.193, 165.127
45.552, 65.125, 164.730
46.214, 65.049, 164.353
46.886, 64.968, 164.137
47.568, 64.915, 164.070
48.260, 64.891, 163.848
48.962, 64.838, 163.426
49.674, 64.741, 163.254
50.397, 64.676, 163.436
51.130, 64.658, 163.466
51.874, 64.623, 163.279
52.628, 64.585, 163.176
53.394, 64.570, 162.821
54.170, 64.493, 162.160
54.958, 64.365, 161.962
55.758, 64.317, 162.026
56.569, 64.301, 161.578
57.391, 64.234, 161.031
58.226, 64.178, 160.648
59.073, 64.124, 160.095
59.932, 64.038, 159.656
60.804, 63.969, 159.393
61.688, 63.903, 159.052
62.586, 63.820, 158.816
63.496, 63.753, 158.622
64.420, 63.672, 158.313
65.357, 63.570, 158.132
66.307, 63.486, 158.032
67.272, 63.405, 157.807
68.250, 63.312, 157.579
69.243, 63.217, 157.386
70.250, 63.128, 157.290
71.272, 63.062, 157.153
72.309, 62.978, 156.887
73.360, 62.873, 156.848
74.427, 62.803, 156.890
75.510, 62.720, 156.700
76.608, 62.600, 156.626
77.723, 62.474, 156.697
78.853, 62.374, 156.989
80.000, 62.323, 156.905
81.164, 62.209, 156.649
82.344, 62.114, 156.632
83.542, 62.005, 156.375
84.757, 61.866, 156.447
85.990, 61.763, 156.639
87.241, 61.670, 156.743
88.510, 61.565, 156.714
89.797, 61.430, 156.762
91.103, 61.297, 156.897
92.428, 61.148, 157.126
93.773, 61.017, 157.507
95.137, 60.871, 157.776
96.520, 60.704, 158.344
97.924, 60.565, 158.998
99.349, 60.423, 159.618
100.794, 60.265, 160.344
102.260, 60.114, 161.353
103.747, 59.976, 162.521
105.256, 59.857, 164.002
106.787, 59.776, 165.778
108.340, 59.717, 167.718
109.916, 59.727, 170.172
111.515, 59.838, 172.528
113.137, 60.077, 174.617
114.783, 60.405, 175.977
116.452, 60.812, 176.778
118.146, 61.276, 176.342
119.865, 61.607, 175.141
121.608, 61.804, 173.556
123.377, 61.904, 172.120
125.171, 61.943, 170.445
126.992, 61.897, 168.822
128.839, 61.834, 167.706
130.713, 61.787, 166.759
132.615, 61.694, 165.966
134.543, 61.583, 165.462
136.500, 61.475, 164.949
138.486, 61.359, 164.517
140.500, 61.263, 164.030
142.544, 61.149, 163.710
144.617, 61.046, 163.552
146.721, 60.932, 163.425
148.855, 60.813, 163.357
151.020, 60.700, 163.310
153.217, 60.587, 163.316
155.445, 60.475, 163.433
157.706, 60.362, 163.613
160.000, 60.250, 163.904
162.327, 60.155, 164.236
164.688, 60.069, 164.656
167.084, 60.008, 165.179
169.514, 59.966, 165.668
171.980, 59.937, 165.939
174.481, 59.892, 166.135
177.019, 59.855, 166.245
179.594, 59.808, 166.300
182.206, 59.748, 166.363
184.856, 59.675, 166.508
187.545, 59.608, 166.683
190.273, 59.541, 166.776
193.041, 59.455, 166.979
195.849, 59.372, 167.241
198.697, 59.306, 167.507
201.587, 59.225, 167.749
204.520, 59.141, 168.078
207.494, 59.059, 168.378
210.512, 58.986, 168.708
213.574, 58.900, 169.013
216.681, 58.820, 169.344
219.833, 58.748, 169.792
223.030, 58.663, 170.382
226.274, 58.565, 170.933
229.565, 58.492, 171.482
232.905, 58.427, 172.128
236.292, 58.370, 172.857
239.729, 58.313, 173.674
243.216, 58.299, 174.289
246.754, 58.278, 174.851
250.343, 58.262, 175.647
253.984, 58.276, 176.276
257.678, 58.266, 176.688
261.426, 58.237, 176.845
265.229, 58.224, 177.044
269.087, 58.206, 177.414
273.001, 58.154, 177.801
276.972, 58.097, 178.084
281.000, 58.050, 178.413
285.088, 57.996, 178.843
289.234, 57.934, 179.256
293.441, 57.880, 179.710
297.710, 57.818, -179.841
302.040, 57.753, -179.320
306.433, 57.694, -178.748
310.890, 57.641, -178.203
315.412, 57.584, -177.588
320.000, 57.515, -176.909
324.655, 57.463, -176.292
329.377, 57.395, -175.654
334.168, 57.339, -174.936
339.028, 57.282, -174.281
343.959, 57.231, -173.570
348.962, 57.146, -172.812
354.038, 57.084, -171.929
359.188, 57.019, -171.101
364.412, 56.960, -170.154
369.713, 56.909, -169.248
375.090, 56.850, -168.134
380.546, 56.777, -166.982
386.081, 56.740, -165.808
391.697, 56.690, -164.476
397.395, 56.670, -163.028
403.175, 56.679, -161.517
409.039, 56.742, -159.900
414.989, 56.752, -158.388
421.025, 56.817, -156.946
427.149, 56.933, -155.532
433.362, 57.071, -154.345
439.665, 57.178, -153.336
446.060, 57.310, -152.603
452.548, 57.448, -151.746
459.131, 57.571, -151.107
465.809, 57.688, -150.687
472.584, 57.764, -150.256
479.458, 57.823, -149.861
486.432, 57.879, -149.491
493.507, 57.932, -148.991
500.686, 57.951, -148.481
507.968, 57.984, -147.847
515.357, 58.018, -147.205
522.853, 58.052, -146.481
530.458, 58.085, -145.648
538.174, 58.138, -144.875
546.002, 58.192, -144.131
553.943, 58.246, -143.364
562.001, 58.303, -142.580
570.175, 58.366, -141.815
578.469, 58.428, -141.091
586.883, 58.487, -140.344
595.419, 58.549, -139.559
604.080, 58.614, -138.778
612.866, 58.680, -137.975
621.780, 58.752, -137.133
630.824, 58.831, -136.301
640.000, 58.915, -135.518
649.309, 59.001, -134.761
658.753, 59.089, -134.019
668.335, 59.177, -133.299
678.056, 59.266, -132.597
687.919, 59.350, -131.911
697.925, 59.429, -131.199
708.076, 59.504, -130.474
718.376, 59.571, -129.674
728.825, 59.645, -128.655
739.426, 59.781, -127.507
750.181, 59.954, -126.816
761.093, 60.081, -126.370
772.163, 60.190, -125.813
783.394, 60.300, -125.293
794.789, 60.395, -124.772
806.349, 60.483, -124.177
818.078, 60.572, -123.522
829.977, 60.665, -122.823
842.050, 60.759, -122.086
854.297, 60.861, -121.342
866.724, 60.969, -120.577
879.330, 61.079, -119.801
892.120, 61.194, -119.022
905.097, 61.314, -118.237
918.262, 61.438, -117.455
931.618, 61.566, -116.677
945.169, 61.700, -115.899
958.917, 61.838, -115.126
972.864, 61.982, -114.358
987.015, 62.130, -113.604
1001.371, 62.283, -112.855
1015.937, 62.442, -112.120
1030.714, 62.604, -111.406
1045.706, 62.771, -110.704
1060.916, 62.943, -110.024
1076.347, 63.120, -109.366
1092.003, 63.299, -108.724
1107.887, 63.481, -108.105
1124.001, 63.667, -107.510
1140.350, 63.856, -106.935
1156.937, 64.047, -106.380
1173.765, 64.241, -105.844
1190.838, 64.437, -105.324
1208.159, 64.638, -104.823
1225.732, 64.842, -104.341
1243.561, 65.049, -103.872
1261.649, 65.261, -103.420
1280.000, 65.478, -102.991
1298.618, 65.699, -102.573
1317.507, 65.923, -102.177
1336.670, 66.153, -101.801
1356.113, 66.389, -101.451
1375.838, 66.632, -101.131
1395.850, 66.883, -100.850
1416.153, 67.139, -100.598
1436.751, 67.401, -100.392
1457.649, 67.671, -100.235
1478.851, 67.949, -100.126
1500.362, 68.235, -100.081
1522.185, 68.527, -100.096
1544.326, 68.828, -100.191
1566.789, 69.138, -100.372
1589.578, 69.456, -100.652
1612.699, 69.782, -101.052
1636.156, 70.113, -101.576
1659.955, 70.449, -102.252
1684.099, 70.788, -103.093
1708.595, 71.128, -104.121
1733.447, 71.463, -105.349
1758.661, 71.789, -106.786
1784.241, 72.099, -108.438
1810.193, 72.388, -110.298
1836.523, 72.651, -112.349
1863.236, 72.881, -114.565
1890.338, 73.072, -116.910
1917.833, 73.222, -119.342
1945.729, 73.329, -121.815
1974.030, 73.392, -124.284
2002.743, 73.412, -126.698
2031.873, 73.393, -129.019
2061.428, 73.338, -131.206
2091.412, 73.251, -133.229
2121.832, 73.138, -135.065
2152.695, 73.002, -136.698
2184.007, 72.851, -138.117
2215.774, 72.688, -139.321
2248.003, 72.520, -140.314
2280.701, 72.350, -141.104
2313.874, 72.182, -141.697
2347.530, 72.018, -142.110
2381.676, 71.863, -142.353
2416.318, 71.717, -142.444
2451.464, 71.584, -142.399
2487.122, 71.463, -142.231
2523.298, 71.360, -141.959
2560.000, 71.273, -141.596
2597.236, 71.204, -141.164
2635.014, 71.152, -140.674
2673.341, 71.117, -140.144
2712.226, 71.099, -139.588
2751.676, 71.099, -139.020
2791.700, 71.115, -138.455
2832.306, 71.146, -137.905
2873.503, 71.191, -137.379
2915.299, 71.250, -136.887
2957.703, 71.320, -136.433
3000.724, 71.401, -136.022
3044.370, 71.491, -135.653
3088.652, 71.589, -135.326
3133.577, 71.695, -135.035
3179.156, 71.809, -134.781
3225.398, 71.934, -134.559
3272.312, 72.070, -134.369
3319.909, 72.219, -134.218
3368.198, 72.385, -134.112
3417.190, 72.567, -134.068
3466.894, 72.772, -134.116
3517.321, 73.002, -134.296
3568.482, 73.259, -134.660
3620.387, 73.543, -135.282
3673.046, 73.851, -136.255
3726.472, 74.175, -137.684
3780.675, 74.498, -139.682
3835.666, 74.795, -142.348
3891.457, 75.029, -145.715
3948.060, 75.151, -149.704
4005.486, 75.121, -154.075
4063.747, 74.912, -158.429
4122.855, 74.530, -162.302
4182.824, 74.011, -165.293
4243.664, 73.412, -167.166
4305.390, 72.797, -167.877
4368.013, 72.222, -167.534
4431.547, 71.727, -166.335
4496.005, 71.340, -164.525
4561.401, 71.073, -162.348
4627.749, 70.931, -160.033
4695.061, 70.905, -157.787
4763.352, 70.983, -155.789
4832.637, 71.148, -154.191
4902.929, 71.379, -153.112
4974.244, 71.650, -152.631
5046.596, 71.935, -152.785
5120.000, 72.203, -153.562
5194.472, 72.427, -154.890
5270.027, 72.585, -156.649
5346.682, 72.661, -158.677
5424.451, 72.651, -160.771
5503.352, 72.569, -162.785
5583.399, 72.422, -164.638
5664.612, 72.224, -166.216
5747.006, 71.995, -167.455
5830.598, 71.755, -168.349
5915.406, 71.520, -168.920
6001.447, 71.302, -169.212
6088.740, 71.114, -169.283
6177.303, 70.967, -169.176
6267.154, 70.873, -168.976
6358.312, 70.834, -168.763
6450.796, 70.851, -168.613
6544.625, 70.926, -168.616
6639.818, 71.061, -168.878
6736.397, 71.247, -169.514
6834.380, 71.477, -170.638
6933.789, 71.736, -172.357
7034.643, 72.009, -174.765
7136.964, 72.272, -177.969
7240.773, 72.492, 177.918
7346.093, 72.618, 172.859
7452.944, 72.587, 167.008
7561.350, 72.347, 160.789
7671.332, 71.888, 154.795
7782.915, 71.253, 149.530
7896.120, 70.501, 145.158
8010.971, 69.669, 141.716
8127.493, 68.795, 139.242
8245.711, 67.908, 137.720
8365.647, 67.042, 137.099
8487.328, 66.220, 137.262
8610.779, 65.462, 138.088
8736.026, 64.780, 139.453
8863.095, 64.182, 141.241
8992.011, 63.675, 143.360
9122.803, 63.267, 145.712
9255.497, 62.966, 148.191
9390.121, 62.779, 150.680
9526.704, 62.715, 153.034
9665.273, 62.784, 155.079
9805.857, 62.996, 156.572
9948.487, 63.356, 157.155
10093.191, 63.856, 156.295
10240.000, 64.437, 153.222
10388.944, 64.946, 147.037
10540.055, 65.075, 137.403
10693.363, 64.488, 125.944
10848.902, 63.086, 115.604
11006.703, 60.992, 109.137
11166.799, 58.495, 107.780
11329.224, 55.793, 111.906
11494.012, 52.984, 122.861
11661.195, 50.412, 144.460
11830.812, 50.039, 177.405
12002.895, 53.259, -154.858
12177.480, 57.214, -144.457
12354.606, 60.559, -146.380
12534.309, 63.151, -155.690
12716.624, 64.839, -170.423
12901.592, 65.363, 172.005
13089.250, 64.701, 156.248
13279.637, 63.265, 145.830
13472.794, 61.584, 140.958
13668.760, 59.989, 140.254
13867.577, 58.615, 142.438
14069.285, 57.513, 146.545
14273.928, 56.699, 151.898
14481.547, 56.185, 157.973
14692.186, 55.986, 164.245
14905.889, 56.119, 170.103
15122.700, 56.598, 174.719
15342.664, 57.397, 176.743
15565.829, 58.312, 174.218
15792.239, 58.799, 165.907
16021.942, 58.215, 154.747
16254.986, 56.491, 147.634
16491.422, 54.478, 148.085
16731.295, 52.773, 151.474
16974.656, 51.184, 157.942
17221.559, 49.916, 166.917
17472.053, 48.985, 177.834
17726.189, 48.505, -168.446
17984.021, 49.305, -152.210
18245.605, 51.641, -143.102
18510.994, 54.004, -145.583
18780.242, 55.508, -157.093
19053.408, 56.106, -172.822
19330.547, 55.669, 168.426
19611.715, 53.981, 150.096
19896.975, 51.410, 137.093
