* Measurement data measured by REW V5.19
* Source: ASIO MOTU M Series, In 1
* Format: 1M Log Swept Sine, 1 sweep at -3.0 dBFS  With no timing reference
* Dated: 8 Mar, 2023 4:47:01 PM
* REW Settings:
*  C-weighting compensation: Off
*  Target level: 75.0 dB
* Note: ; 
* Measurement: Mar 8 16:47:01
* Smoothing: 1/48 octave
* Frequency Step: 1/48 octave
* Start Frequency: 10.1 Hz
*
* Freq(Hz), SPL(dB), Phase(degrees)
10.145, 65.218, -88.814
10.293, 65.287, -89.558
10.443, 65.359, -90.562
10.595, 65.467, -91.878
10.749, 65.578, -93.251
10.905, 65.660, -94.299
11.064, 65.730, -95.229
11.225, 65.808, -96.277
11.388, 65.889, -97.367
11.554, 65.966, -98.403
11.722, 66.041, -99.402
11.892, 66.116, -100.378
12.065, 66.192, -101.335
12.241, 66.270, -102.310
12.419, 66.349, -103.291
12.599, 66.427, -104.255
12.782, 66.504, -105.218
12.968, 66.581, -106.207
13.157, 66.656, -107.201
13.348, 66.728, -108.188
13.543, 66.797, -109.173
13.740, 66.863, -110.153
13.939, 66.927, -111.120
14.142, 66.989, -112.073
14.348, 67.051, -113.010
14.557, 67.111, -113.938
14.768, 67.172, -114.861
14.983, 67.233, -115.781
15.201, 67.292, -116.701
15.422, 67.350, -117.625
15.646, 67.406, -118.549
15.874, 67.459, -119.468
16.105, 67.510, -120.381
16.339, 67.559, -121.281
16.577, 67.606, -122.169
16.818, 67.653, -123.043
17.063, 67.699, -123.908
17.311, 67.745, -124.768
17.563, 67.791, -125.625
17.818, 67.836, -126.481
18.077, 67.879, -127.336
18.340, 67.922, -128.189
18.607, 67.962, -129.039
18.877, 68.002, -129.884
19.152, 68.040, -130.723
19.431, 68.076, -131.555
19.713, 68.112, -132.378
20.000, 68.146, -133.188
20.291, 68.181, -133.986
20.586, 68.216, -134.775
20.885, 68.252, -135.561
21.189, 68.288, -136.355
21.497, 68.324, -137.161
21.810, 68.357, -137.974
22.127, 68.386, -138.781
22.449, 68.411, -139.567
22.776, 68.436, -140.323
23.107, 68.463, -141.058
23.443, 68.494, -141.794
23.784, 68.527, -142.554
24.130, 68.557, -143.348
24.481, 68.580, -144.160
24.837, 68.595, -144.958
25.198, 68.605, -145.715
25.565, 68.614, -146.426
25.937, 68.627, -147.112
26.314, 68.642, -147.802
26.697, 68.657, -148.505
27.085, 68.669, -149.210
27.479, 68.678, -149.900
27.879, 68.689, -150.573
28.284, 68.701, -151.251
28.696, 68.713, -151.950
29.113, 68.721, -152.659
29.537, 68.723, -153.345
29.966, 68.725, -153.989
30.402, 68.733, -154.609
30.844, 68.746, -155.249
31.293, 68.759, -155.931
31.748, 68.766, -156.634
32.210, 68.768, -157.316
32.678, 68.768, -157.962
33.154, 68.771, -158.591
33.636, 68.774, -159.227
34.125, 68.776, -159.870
34.621, 68.775, -160.503
35.125, 68.773, -161.122
35.636, 68.771, -161.733
36.154, 68.768, -162.340
36.680, 68.764, -162.941
37.214, 68.759, -163.537
37.755, 68.754, -164.133
38.304, 68.748, -164.731
38.861, 68.740, -165.328
39.427, 68.731, -165.922
40.000, 68.722, -166.515
40.582, 68.711, -167.106
41.172, 68.698, -167.697
41.771, 68.684, -168.281
42.379, 68.668, -168.843
42.995, 68.656, -169.394
43.620, 68.647, -169.987
44.255, 68.629, -170.622
44.898, 68.598, -171.201
45.552, 68.572, -171.674
46.214, 68.563, -172.156
46.886, 68.554, -172.742
47.568, 68.531, -173.341
48.260, 68.506, -173.877
48.962, 68.486, -174.425
49.674, 68.457, -175.003
50.397, 68.419, -175.515
51.130, 68.387, -175.969
51.874, 68.360, -176.445
52.628, 68.329, -176.950
53.394, 68.291, -177.465
54.170, 68.245, -177.948
54.958, 68.198, -178.359
55.758, 68.160, -178.774
56.569, 68.118, -179.247
57.391, 68.064, -179.701
58.226, 68.004, 179.900
59.073, 67.939, 179.572
59.932, 67.879, 179.353
60.804, 67.831, 179.131
61.688, 67.772, 178.901
62.586, 67.707, 178.869
63.496, 67.673, 178.966
64.420, 67.661, 179.019
65.357, 67.663, 179.051
66.307, 67.683, 179.047
67.272, 67.720, 178.909
68.250, 67.750, 178.610
69.243, 67.769, 178.306
70.250, 67.796, 177.956
71.272, 67.814, 177.504
72.309, 67.829, 177.047
73.360, 67.843, 176.454
74.427, 67.834, 175.828
75.510, 67.823, 175.257
76.608, 67.809, 174.623
77.723, 67.781, 174.021
78.853, 67.752, 173.455
80.000, 67.717, 172.903
81.164, 67.678, 172.384
82.344, 67.636, 171.879
83.542, 67.589, 171.375
84.757, 67.538, 170.901
85.990, 67.487, 170.445
87.241, 67.438, 170.001
88.510, 67.389, 169.570
89.797, 67.340, 169.141
91.103, 67.288, 168.727
92.428, 67.234, 168.315
93.773, 67.176, 167.923
95.137, 67.118, 167.535
96.520, 67.055, 167.130
97.924, 66.992, 166.752
99.349, 66.927, 166.360
100.794, 66.864, 166.017
102.260, 66.803, 165.627
103.747, 66.735, 165.256
105.256, 66.664, 164.907
106.787, 66.590, 164.584
108.340, 66.517, 164.257
109.916, 66.440, 163.936
111.515, 66.363, 163.623
113.137, 66.279, 163.308
114.783, 66.193, 163.054
116.452, 66.108, 162.787
118.146, 66.018, 162.514
119.865, 65.924, 162.258
121.608, 65.829, 162.014
123.377, 65.728, 161.790
125.171, 65.622, 161.584
126.992, 65.509, 161.395
128.839, 65.390, 161.224
130.713, 65.262, 161.087
132.615, 65.131, 161.016
134.543, 64.985, 160.996
136.500, 64.834, 161.061
138.486, 64.674, 161.193
140.500, 64.507, 161.451
142.544, 64.336, 161.859
144.617, 64.154, 162.438
146.721, 63.969, 163.211
148.855, 63.794, 164.222
151.020, 63.631, 165.539
153.217, 63.509, 167.231
155.445, 63.437, 169.217
157.706, 63.442, 171.387
160.000, 63.541, 173.589
162.327, 63.746, 175.556
164.688, 64.032, 177.001
167.084, 64.369, 177.762
169.514, 64.709, 177.813
171.980, 65.008, 177.275
174.481, 65.247, 176.299
177.019, 65.425, 175.011
179.594, 65.541, 173.633
182.206, 65.606, 172.295
184.856, 65.626, 171.007
187.545, 65.616, 169.798
190.273, 65.582, 168.724
193.041, 65.528, 167.790
195.849, 65.460, 166.941
198.697, 65.387, 166.168
201.587, 65.308, 165.497
204.520, 65.223, 164.894
207.494, 65.131, 164.351
210.512, 65.038, 163.867
213.574, 64.941, 163.425
216.681, 64.844, 163.046
219.833, 64.747, 162.719
223.030, 64.649, 162.422
226.274, 64.545, 162.169
229.565, 64.443, 161.957
232.905, 64.341, 161.783
236.292, 64.241, 161.632
239.729, 64.139, 161.511
243.216, 64.035, 161.435
246.754, 63.931, 161.372
250.343, 63.826, 161.348
253.984, 63.728, 161.379
257.678, 63.623, 161.405
261.426, 63.522, 161.470
265.229, 63.426, 161.539
269.087, 63.330, 161.631
273.001, 63.241, 161.751
276.972, 63.146, 161.882
281.000, 63.052, 161.994
285.088, 62.960, 162.065
289.234, 62.868, 162.150
293.441, 62.774, 162.322
297.710, 62.678, 162.455
302.040, 62.584, 162.598
306.433, 62.468, 162.808
310.890, 62.359, 162.992
315.412, 62.252, 163.221
320.000, 62.146, 163.484
324.655, 62.036, 163.763
329.377, 61.929, 164.052
334.168, 61.817, 164.394
339.028, 61.701, 164.748
343.959, 61.582, 165.154
348.962, 61.467, 165.565
354.038, 61.347, 166.053
359.188, 61.222, 166.585
364.412, 61.097, 167.117
369.713, 60.971, 167.768
375.090, 60.845, 168.486
380.546, 60.717, 169.290
386.081, 60.597, 170.170
391.697, 60.478, 171.142
397.395, 60.361, 172.228
403.175, 60.262, 173.427
409.039, 60.180, 174.732
414.989, 60.116, 176.061
421.025, 60.081, 177.482
427.149, 60.067, 178.895
433.362, 60.079, -179.731
439.665, 60.114, -178.443
446.060, 60.164, -177.286
452.548, 60.223, -176.233
459.131, 60.282, -175.229
465.809, 60.355, -174.279
472.584, 60.441, -173.444
479.458, 60.536, -172.765
486.432, 60.625, -172.273
493.507, 60.695, -171.911
500.686, 60.746, -171.620
507.968, 60.780, -171.341
515.357, 60.800, -171.023
522.853, 60.811, -170.667
530.458, 60.818, -170.275
538.174, 60.825, -169.863
546.002, 60.827, -169.423
553.943, 60.822, -168.954
562.001, 60.815, -168.425
570.175, 60.812, -167.835
578.469, 60.813, -167.185
586.883, 60.820, -166.528
595.419, 60.838, -165.896
604.080, 60.858, -165.286
612.866, 60.877, -164.702
621.780, 60.892, -164.097
630.824, 60.908, -163.481
640.000, 60.925, -162.833
649.309, 60.946, -162.173
658.753, 60.971, -161.480
668.335, 61.004, -160.797
678.056, 61.043, -160.110
687.919, 61.091, -159.467
697.925, 61.143, -158.861
708.076, 61.194, -158.311
718.376, 61.246, -157.848
728.825, 61.293, -157.413
739.426, 61.334, -157.034
750.181, 61.365, -156.711
761.093, 61.379, -156.401
772.163, 61.372, -156.089
783.394, 61.342, -155.689
794.789, 61.292, -155.118
806.349, 61.237, -154.287
818.078, 61.201, -153.217
829.977, 61.195, -152.012
842.050, 61.216, -150.781
854.297, 61.258, -149.562
866.724, 61.314, -148.356
879.330, 61.385, -147.153
892.120, 61.471, -145.938
905.097, 61.580, -144.736
918.262, 61.712, -143.617
931.618, 61.857, -142.654
945.169, 62.002, -141.851
958.917, 62.137, -141.132
972.864, 62.264, -140.443
987.015, 62.389, -139.760
1001.371, 62.513, -139.066
1015.937, 62.640, -138.375
1030.714, 62.773, -137.686
1045.706, 62.911, -137.016
1060.916, 63.054, -136.368
1076.347, 63.201, -135.757
1092.003, 63.353, -135.187
1107.887, 63.508, -134.657
1124.001, 63.666, -134.168
1140.350, 63.825, -133.724
1156.937, 63.985, -133.322
1173.765, 64.146, -132.962
1190.838, 64.307, -132.646
1208.159, 64.467, -132.373
1225.732, 64.625, -132.132
1243.561, 64.781, -131.923
1261.649, 64.934, -131.744
1280.000, 65.085, -131.593
1298.618, 65.232, -131.463
1317.507, 65.376, -131.352
1336.670, 65.517, -131.249
1356.113, 65.657, -131.146
1375.838, 65.794, -131.044
1395.850, 65.932, -130.943
1416.153, 66.069, -130.844
1436.751, 66.207, -130.752
1457.649, 66.344, -130.664
1478.851, 66.482, -130.581
1500.362, 66.620, -130.499
1522.185, 66.759, -130.423
1544.326, 66.900, -130.352
1566.789, 67.043, -130.290
1589.578, 67.186, -130.231
1612.699, 67.330, -130.179
1636.156, 67.477, -130.137
1659.955, 67.625, -130.103
1684.099, 67.775, -130.078
1708.595, 67.928, -130.064
1733.447, 68.084, -130.062
1758.661, 68.243, -130.075
1784.241, 68.406, -130.109
1810.193, 68.571, -130.163
1836.523, 68.739, -130.244
1863.236, 68.911, -130.358
1890.338, 69.086, -130.504
1917.833, 69.264, -130.683
1945.729, 69.446, -130.902
1974.030, 69.629, -131.158
2002.743, 69.815, -131.461
2031.873, 70.000, -131.809
2061.428, 70.188, -132.205
2091.412, 70.377, -132.657
2121.832, 70.565, -133.159
2152.695, 70.753, -133.716
2184.007, 70.939, -134.330
2215.774, 71.125, -135.005
2248.003, 71.309, -135.744
2280.701, 71.488, -136.542
2313.874, 71.663, -137.405
2347.530, 71.833, -138.326
2381.676, 71.996, -139.303
2416.318, 72.151, -140.328
2451.464, 72.299, -141.395
2487.122, 72.438, -142.497
2523.298, 72.570, -143.639
2560.000, 72.696, -144.821
2597.236, 72.812, -146.047
2635.014, 72.918, -147.314
2673.341, 73.011, -148.612
2712.226, 73.092, -149.924
2751.676, 73.159, -151.236
2791.700, 73.214, -152.535
2832.306, 73.258, -153.814
2873.503, 73.293, -155.067
2915.299, 73.319, -156.290
2957.703, 73.336, -157.479
3000.724, 73.347, -158.630
3044.370, 73.352, -159.742
3088.652, 73.352, -160.809
3133.577, 73.349, -161.831
3179.156, 73.344, -162.808
3225.398, 73.340, -163.743
3272.312, 73.337, -164.642
3319.909, 73.336, -165.513
3368.198, 73.340, -166.365
3417.190, 73.349, -167.211
3466.894, 73.363, -168.059
3517.321, 73.383, -168.921
3568.482, 73.410, -169.814
3620.387, 73.443, -170.750
3673.046, 73.480, -171.741
3726.472, 73.522, -172.807
3780.675, 73.567, -173.962
3835.666, 73.615, -175.230
3891.457, 73.664, -176.630
3948.060, 73.709, -178.179
4005.486, 73.744, -179.892
4063.747, 73.765, 178.223
4122.855, 73.765, 176.167
4182.824, 73.738, 173.945
4243.664, 73.677, 171.573
4305.390, 73.574, 169.083
4368.013, 73.425, 166.512
4431.547, 73.222, 163.921
4496.005, 72.961, 161.381
4561.401, 72.643, 158.974
4627.749, 72.267, 156.793
4695.061, 71.841, 154.940
4763.352, 71.380, 153.503
4832.637, 70.905, 152.484
4902.929, 70.426, 151.846
4974.244, 69.952, 151.542
5046.596, 69.484, 151.544
5120.000, 69.027, 151.837
5194.472, 68.586, 152.404
5270.027, 68.162, 153.214
5346.682, 67.758, 154.247
5424.451, 67.374, 155.481
5503.352, 67.009, 156.914
5583.399, 66.662, 158.575
5664.612, 66.344, 160.516
5747.006, 66.085, 162.663
5830.598, 65.874, 164.754
5915.406, 65.686, 166.854
6001.447, 65.516, 169.023
6088.740, 65.375, 171.311
6177.303, 65.273, 173.698
6267.154, 65.214, 176.133
6358.312, 65.200, 178.574
6450.796, 65.233, -179.013
6544.625, 65.317, -176.663
6639.818, 65.453, -174.418
6736.397, 65.640, -172.331
6834.380, 65.885, -170.470
6933.789, 66.186, -168.911
7034.643, 66.544, -167.751
7136.964, 66.953, -167.115
7240.773, 67.403, -167.160
7346.093, 67.873, -168.053
7452.944, 68.325, -169.934
7561.350, 68.707, -172.856
7671.332, 68.962, -176.719
7782.915, 69.036, 178.754
7896.120, 68.894, 174.011
8010.971, 68.532, 169.583
8127.493, 67.983, 165.967
8245.711, 67.302, 163.479
8365.647, 66.555, 162.230
8487.328, 65.800, 162.157
8610.779, 65.078, 163.106
8736.026, 64.415, 164.903
8863.095, 63.824, 167.396
8992.011, 63.316, 170.461
9122.803, 62.898, 173.982
9255.497, 62.580, 177.854
9390.121, 62.365, -178.020
9526.704, 62.256, -173.733
9665.273, 62.259, -169.360
9805.857, 62.382, -164.964
9948.487, 62.638, -160.639
10093.191, 63.046, -156.505
10240.000, 63.630, -152.746
10388.944, 64.417, -149.652
10540.055, 65.431, -147.716
10693.363, 66.664, -147.620
10848.902, 68.112, -150.402
11006.703, 69.549, -158.056
11166.799, 70.440, -171.339
11329.224, 70.258, 172.813
11494.012, 69.036, 159.999
11661.195, 67.315, 152.717
11830.812, 65.576, 150.005
12002.895, 64.022, 150.152
12177.480, 62.662, 152.036
12354.606, 61.464, 155.194
12534.309, 60.418, 159.457
12716.624, 59.536, 164.715
12901.592, 58.846, 170.830
13089.250, 58.380, 177.598
13279.637, 58.168, -175.247
13472.794, 58.235, -168.007
13668.760, 58.606, -161.089
13867.577, 59.293, -155.035
14069.285, 60.291, -150.492
14273.928, 61.555, -148.374
14481.547, 62.937, -149.775
14692.186, 64.138, -155.322
14905.889, 64.818, -164.011
15122.700, 64.855, -173.060
15342.664, 64.453, 179.982
15565.829, 63.957, 175.609
15792.239, 63.633, 172.937
16021.942, 63.679, 170.459
16254.986, 64.061, 165.130
16491.422, 64.419, 156.266
16731.295, 64.423, 140.061
16974.656, 62.688, 123.185
17221.559, 59.954, 115.161
17472.053, 57.266, 114.574
17726.189, 55.049, 118.138
17984.021, 53.360, 123.641
18245.605, 52.164, 129.743
18510.994, 51.451, 135.336
18780.242, 51.160, 138.801
19053.408, 51.061, 138.234
19330.547, 50.452, 132.282
19611.715, 48.137, 130.630
19896.975, 46.288, 155.108
