* Measurement data measured by REW V5.19
* Source: ASIO MOTU M Series, In 1
* Format: 1M Log Swept Sine, 1 sweep at -3.0 dBFS  With no timing reference
* Dated: 6 Jun, 2023 7:49:25 PM
* REW Settings:
*  C-weighting compensation: Off
*  Target level: 75.0 dB
* Note: ; 
* Measurement: Jun 6 19:49:25
* Smoothing: 1/48 octave
* Frequency Step: 1/48 octave
* Start Frequency: 10.1 Hz
*
* Freq(Hz), SPL(dB), Phase(degrees)
10.145, 70.982, -121.719
10.293, 71.004, -122.438
10.443, 71.028, -123.404
10.595, 71.064, -124.665
10.749, 71.101, -125.979
10.905, 71.129, -126.980
11.064, 71.153, -127.870
11.225, 71.179, -128.888
11.388, 71.206, -129.961
11.554, 71.230, -130.995
11.722, 71.253, -132.007
11.892, 71.273, -133.004
12.065, 71.291, -133.991
12.241, 71.309, -134.990
12.419, 71.324, -135.989
12.599, 71.338, -136.955
12.782, 71.350, -137.904
12.968, 71.361, -138.859
13.157, 71.371, -139.802
13.348, 71.379, -140.724
13.543, 71.387, -141.637
13.740, 71.395, -142.544
13.939, 71.401, -143.442
14.142, 71.408, -144.333
14.348, 71.413, -145.217
14.557, 71.417, -146.097
14.768, 71.421, -146.973
14.983, 71.422, -147.841
15.201, 71.423, -148.702
15.422, 71.422, -149.555
15.646, 71.420, -150.399
15.874, 71.416, -151.232
16.105, 71.412, -152.055
16.339, 71.407, -152.870
16.577, 71.401, -153.676
16.818, 71.395, -154.474
17.063, 71.387, -155.266
17.311, 71.379, -156.052
17.563, 71.370, -156.830
17.818, 71.360, -157.602
18.077, 71.349, -158.368
18.340, 71.336, -159.127
18.607, 71.323, -159.880
18.877, 71.308, -160.625
19.152, 71.292, -161.362
19.431, 71.275, -162.088
19.713, 71.256, -162.802
20.000, 71.237, -163.504
20.291, 71.218, -164.197
20.586, 71.199, -164.883
20.885, 71.180, -165.566
21.189, 71.160, -166.247
21.497, 71.138, -166.926
21.810, 71.115, -167.600
22.127, 71.091, -168.266
22.449, 71.065, -168.919
22.776, 71.038, -169.561
23.107, 71.012, -170.193
23.443, 70.985, -170.818
23.784, 70.958, -171.440
24.130, 70.930, -172.060
24.481, 70.901, -172.677
24.837, 70.870, -173.286
25.198, 70.838, -173.882
25.565, 70.806, -174.463
25.937, 70.774, -175.033
26.314, 70.742, -175.599
26.697, 70.710, -176.166
27.085, 70.677, -176.731
27.479, 70.641, -177.287
27.879, 70.605, -177.824
28.284, 70.569, -178.348
28.696, 70.535, -178.870
29.113, 70.501, -179.403
29.537, 70.463, -179.943
29.966, 70.420, 179.536
30.402, 70.375, 179.057
30.844, 70.334, 178.617
31.293, 70.299, 178.179
31.748, 70.267, 177.706
32.210, 70.232, 177.196
32.678, 70.190, 176.683
33.154, 70.144, 176.201
33.636, 70.099, 175.749
34.125, 70.056, 175.299
34.621, 70.014, 174.835
35.125, 69.968, 174.373
35.636, 69.920, 173.933
36.154, 69.874, 173.508
36.680, 69.830, 173.077
37.214, 69.784, 172.636
37.755, 69.735, 172.208
38.304, 69.684, 171.808
38.861, 69.636, 171.424
39.427, 69.590, 171.038
40.000, 69.542, 170.650
40.582, 69.492, 170.273
41.172, 69.442, 169.908
41.771, 69.392, 169.547
42.379, 69.341, 169.186
42.995, 69.289, 168.834
43.620, 69.235, 168.495
44.255, 69.182, 168.165
44.898, 69.129, 167.839
45.552, 69.075, 167.515
46.214, 69.021, 167.192
46.886, 68.964, 166.885
47.568, 68.908, 166.607
48.260, 68.857, 166.336
48.962, 68.807, 166.035
49.674, 68.752, 165.726
50.397, 68.693, 165.443
51.130, 68.636, 165.177
51.874, 68.578, 164.917
52.628, 68.520, 164.654
53.394, 68.459, 164.388
54.170, 68.397, 164.164
54.958, 68.343, 163.920
55.758, 68.281, 163.570
56.569, 68.194, 163.321
57.391, 68.126, 163.281
58.226, 68.093, 163.103
59.073, 68.041, 162.720
59.932, 67.966, 162.428
60.804, 67.897, 162.237
61.688, 67.834, 162.070
62.586, 67.778, 161.938
63.496, 67.729, 161.771
64.420, 67.672, 161.590
65.357, 67.613, 161.488
66.307, 67.564, 161.377
67.272, 67.505, 161.191
68.250, 67.431, 161.094
69.243, 67.369, 161.043
70.250, 67.309, 160.897
71.272, 67.239, 160.731
72.309, 67.168, 160.590
73.360, 67.101, 160.451
74.427, 67.036, 160.310
75.510, 66.971, 160.163
76.608, 66.903, 160.047
77.723, 66.836, 159.951
78.853, 66.760, 159.875
80.000, 66.686, 159.893
81.164, 66.620, 159.916
82.344, 66.559, 159.910
83.542, 66.490, 159.888
84.757, 66.423, 159.973
85.990, 66.369, 160.041
87.241, 66.314, 160.087
88.510, 66.258, 160.137
89.797, 66.208, 160.188
91.103, 66.159, 160.197
92.428, 66.119, 160.236
93.773, 66.087, 160.184
95.137, 66.051, 160.043
96.520, 65.985, 159.805
97.924, 65.894, 159.814
99.349, 65.846, 159.881
100.794, 65.784, 159.655
102.260, 65.704, 159.591
103.747, 65.626, 159.565
105.256, 65.554, 159.615
106.787, 65.480, 159.678
108.340, 65.411, 159.679
109.916, 65.332, 159.717
111.515, 65.265, 159.767
113.137, 65.192, 159.801
114.783, 65.130, 159.985
116.452, 65.036, 159.898
118.146, 64.925, 160.236
119.865, 64.847, 160.487
121.608, 64.759, 160.853
123.377, 64.707, 161.302
125.171, 64.660, 161.690
126.992, 64.620, 161.986
128.839, 64.602, 162.183
130.713, 64.573, 162.191
132.615, 64.552, 162.182
134.543, 64.491, 162.284
136.500, 64.422, 162.463
138.486, 64.352, 162.539
140.500, 64.266, 162.587
142.544, 64.190, 162.817
144.617, 64.143, 162.941
146.721, 64.052, 162.962
148.855, 63.950, 163.209
151.020, 63.855, 163.445
153.217, 63.757, 163.743
155.445, 63.662, 164.132
157.706, 63.565, 164.592
160.000, 63.465, 165.131
162.327, 63.364, 165.753
164.688, 63.276, 166.434
167.084, 63.187, 167.208
169.514, 63.107, 168.124
171.980, 63.048, 169.108
174.481, 63.005, 170.120
177.019, 62.982, 171.255
179.594, 62.989, 172.498
182.206, 63.027, 173.779
184.856, 63.115, 175.068
187.545, 63.252, 176.128
190.273, 63.418, 176.939
193.041, 63.611, 177.360
195.849, 63.809, 177.315
198.697, 63.982, 176.937
201.587, 64.102, 176.321
204.520, 64.174, 175.628
207.494, 64.205, 174.840
210.512, 64.203, 174.132
213.574, 64.177, 173.539
216.681, 64.134, 173.047
219.833, 64.081, 172.638
223.030, 64.018, 172.306
226.274, 63.948, 172.061
229.565, 63.874, 171.897
232.905, 63.796, 171.797
236.292, 63.717, 171.762
239.729, 63.640, 171.801
243.216, 63.561, 171.880
246.754, 63.484, 172.002
250.343, 63.408, 172.179
253.984, 63.333, 172.392
257.678, 63.261, 172.641
261.426, 63.193, 172.939
265.229, 63.127, 173.268
269.087, 63.067, 173.614
273.001, 63.011, 173.987
276.972, 62.963, 174.364
281.000, 62.917, 174.725
285.088, 62.875, 175.081
289.234, 62.833, 175.407
293.441, 62.790, 175.720
297.710, 62.743, 176.028
302.040, 62.693, 176.339
306.433, 62.642, 176.661
310.890, 62.586, 177.003
315.412, 62.528, 177.368
320.000, 62.467, 177.765
324.655, 62.406, 178.200
329.377, 62.345, 178.671
334.168, 62.284, 179.177
339.028, 62.226, 179.714
343.959, 62.168, -179.725
348.962, 62.113, -179.137
354.038, 62.058, -178.526
359.188, 62.003, -177.880
364.412, 61.948, -177.201
369.713, 61.893, -176.479
375.090, 61.838, -175.692
380.546, 61.786, -174.838
386.081, 61.742, -173.920
391.697, 61.705, -172.931
397.395, 61.680, -171.875
403.175, 61.670, -170.778
409.039, 61.674, -169.663
414.989, 61.695, -168.548
421.025, 61.730, -167.454
427.149, 61.778, -166.386
433.362, 61.836, -165.364
439.665, 61.905, -164.380
446.060, 61.982, -163.435
452.548, 62.070, -162.541
459.131, 62.167, -161.694
465.809, 62.272, -160.914
472.584, 62.386, -160.224
479.458, 62.506, -159.635
486.432, 62.625, -159.154
493.507, 62.742, -158.785
500.686, 62.853, -158.506
507.968, 62.954, -158.304
515.357, 63.044, -158.163
522.853, 63.122, -158.049
530.458, 63.191, -157.947
538.174, 63.247, -157.845
546.002, 63.294, -157.731
553.943, 63.334, -157.591
562.001, 63.366, -157.427
570.175, 63.392, -157.217
578.469, 63.414, -156.948
586.883, 63.435, -156.625
595.419, 63.457, -156.254
604.080, 63.483, -155.832
612.866, 63.513, -155.375
621.780, 63.549, -154.891
630.824, 63.592, -154.403
640.000, 63.640, -153.916
649.309, 63.692, -153.434
658.753, 63.748, -152.959
668.335, 63.807, -152.494
678.056, 63.869, -152.037
687.919, 63.932, -151.585
697.925, 63.998, -151.139
708.076, 64.068, -150.701
718.376, 64.141, -150.279
728.825, 64.217, -149.870
739.426, 64.296, -149.485
750.181, 64.376, -149.132
761.093, 64.457, -148.808
772.163, 64.536, -148.511
783.394, 64.613, -148.234
794.789, 64.688, -147.975
806.349, 64.760, -147.720
818.078, 64.830, -147.464
829.977, 64.898, -147.207
842.050, 64.965, -146.938
854.297, 65.031, -146.656
866.724, 65.097, -146.362
879.330, 65.163, -146.057
892.120, 65.232, -145.739
905.097, 65.303, -145.413
918.262, 65.376, -145.082
931.618, 65.452, -144.753
945.169, 65.530, -144.426
958.917, 65.609, -144.100
972.864, 65.691, -143.780
987.015, 65.775, -143.460
1001.371, 65.861, -143.141
1015.937, 65.950, -142.829
1030.714, 66.042, -142.524
1045.706, 66.136, -142.229
1060.916, 66.233, -141.950
1076.347, 66.332, -141.685
1092.003, 66.433, -141.438
1107.887, 66.534, -141.207
1124.001, 66.637, -140.988
1140.350, 66.741, -140.780
1156.937, 66.847, -140.586
1173.765, 66.955, -140.408
1190.838, 67.063, -140.247
1208.159, 67.172, -140.099
1225.732, 67.283, -139.969
1243.561, 67.395, -139.857
1261.649, 67.508, -139.760
1280.000, 67.622, -139.684
1298.618, 67.737, -139.632
1317.507, 67.852, -139.604
1336.670, 67.967, -139.602
1356.113, 68.081, -139.624
1375.838, 68.194, -139.667
1395.850, 68.305, -139.731
1416.153, 68.414, -139.810
1436.751, 68.520, -139.897
1457.649, 68.625, -139.992
1478.851, 68.728, -140.093
1500.362, 68.829, -140.193
1522.185, 68.930, -140.292
1544.326, 69.031, -140.390
1566.789, 69.133, -140.492
1589.578, 69.234, -140.596
1612.699, 69.337, -140.706
1636.156, 69.440, -140.822
1659.955, 69.544, -140.947
1684.099, 69.648, -141.080
1708.595, 69.753, -141.223
1733.447, 69.859, -141.372
1758.661, 69.965, -141.531
1784.241, 70.072, -141.698
1810.193, 70.181, -141.874
1836.523, 70.291, -142.062
1863.236, 70.402, -142.264
1890.338, 70.516, -142.481
1917.833, 70.631, -142.719
1945.729, 70.748, -142.982
1974.030, 70.865, -143.273
2002.743, 70.984, -143.594
2031.873, 71.102, -143.944
2061.428, 71.220, -144.323
2091.412, 71.337, -144.733
2121.832, 71.452, -145.169
2152.695, 71.566, -145.633
2184.007, 71.679, -146.123
2215.774, 71.790, -146.639
2248.003, 71.899, -147.181
2280.701, 72.005, -147.748
2313.874, 72.109, -148.338
2347.530, 72.211, -148.950
2381.676, 72.310, -149.585
2416.318, 72.407, -150.242
2451.464, 72.501, -150.921
2487.122, 72.593, -151.623
2523.298, 72.682, -152.349
2560.000, 72.768, -153.103
2597.236, 72.850, -153.881
2635.014, 72.929, -154.687
2673.341, 73.004, -155.522
2712.226, 73.073, -156.383
2751.676, 73.138, -157.269
2791.700, 73.196, -158.177
2832.306, 73.248, -159.104
2873.503, 73.293, -160.047
2915.299, 73.332, -161.002
2957.703, 73.364, -161.966
3000.724, 73.389, -162.936
3044.370, 73.408, -163.909
3088.652, 73.419, -164.886
3133.577, 73.425, -165.862
3179.156, 73.423, -166.836
3225.398, 73.414, -167.802
3272.312, 73.399, -168.758
3319.909, 73.378, -169.701
3368.198, 73.351, -170.630
3417.190, 73.319, -171.541
3466.894, 73.282, -172.434
3517.321, 73.242, -173.313
3568.482, 73.198, -174.177
3620.387, 73.150, -175.032
3673.046, 73.098, -175.875
3726.472, 73.043, -176.709
3780.675, 72.984, -177.534
3835.666, 72.921, -178.349
3891.457, 72.855, -179.152
3948.060, 72.785, -179.945
4005.486, 72.713, 179.267
4063.747, 72.637, 178.482
4122.855, 72.559, 177.699
4182.824, 72.478, 176.913
4243.664, 72.393, 176.115
4305.390, 72.303, 175.312
4368.013, 72.208, 174.494
4431.547, 72.105, 173.656
4496.005, 71.995, 172.808
4561.401, 71.874, 171.947
4627.749, 71.741, 171.080
4695.061, 71.595, 170.225
4763.352, 71.432, 169.380
4832.637, 71.250, 168.578
4902.929, 71.045, 167.857
4974.244, 70.822, 167.288
5046.596, 70.590, 166.898
5120.000, 70.354, 166.677
5194.472, 70.121, 166.613
5270.027, 69.891, 166.700
5346.682, 69.671, 166.920
5424.451, 69.459, 167.249
5503.352, 69.258, 167.683
5583.399, 69.068, 168.210
5664.612, 68.892, 168.826
5747.006, 68.731, 169.513
5830.598, 68.588, 170.249
5915.406, 68.462, 171.017
6001.447, 68.354, 171.797
6088.740, 68.266, 172.576
6177.303, 68.199, 173.335
6267.154, 68.155, 174.019
6358.312, 68.130, 174.591
6450.796, 68.122, 175.011
6544.625, 68.123, 175.239
6639.818, 68.125, 175.244
6736.397, 68.114, 175.039
6834.380, 68.079, 174.683
6933.789, 68.018, 174.287
7034.643, 67.941, 173.949
7136.964, 67.872, 173.673
7240.773, 67.826, 173.337
7346.093, 67.804, 172.758
7452.944, 67.787, 171.775
7561.350, 67.746, 170.308
7671.332, 67.648, 168.367
7782.915, 67.460, 166.049
7896.120, 67.155, 163.542
8010.971, 66.715, 161.099
8127.493, 66.140, 159.006
8245.711, 65.443, 157.535
8365.647, 64.647, 156.894
8487.328, 63.780, 157.233
8610.779, 62.873, 158.662
8736.026, 61.958, 161.257
8863.095, 61.068, 165.078
8992.011, 60.237, 170.204
9122.803, 59.518, 176.781
9255.497, 59.004, -175.137
9390.121, 58.843, -165.856
9526.704, 59.180, -156.488
9665.273, 60.012, -148.936
9805.857, 61.089, -144.898
9948.487, 62.037, -144.570
10093.191, 62.607, -146.420
10240.000, 62.783, -148.404
10388.944, 62.707, -149.260
10540.055, 62.539, -148.659
10693.363, 62.407, -146.811
10848.902, 62.362, -144.155
11006.703, 62.432, -140.894
11166.799, 62.644, -137.272
11329.224, 63.018, -133.520
11494.012, 63.573, -129.857
11661.195, 64.338, -126.560
11830.812, 65.347, -124.020
12002.895, 66.640, -122.857
12177.480, 68.241, -124.190
12354.606, 70.056, -129.989
12534.309, 71.628, -142.730
12716.624, 72.128, -161.738
12901.592, 71.149, -179.794
13089.250, 69.275, 169.206
13279.637, 67.323, 164.768
13472.794, 65.676, 164.183
13668.760, 64.372, 165.617
13867.577, 63.382, 168.133
14069.285, 62.677, 171.080
14273.928, 62.226, 173.955
14481.547, 61.997, 176.313
14692.186, 61.949, 177.744
14905.889, 62.031, 177.817
15122.700, 62.161, 176.084
15342.664, 62.207, 172.286
15565.829, 62.011, 166.680
15792.239, 61.447, 160.221
16021.942, 60.480, 154.252
16254.986, 59.140, 150.728
16491.422, 58.012, 150.776
16731.295, 57.165, 149.062
16974.656, 56.145, 147.684
17221.559, 55.175, 146.873
17472.053, 54.274, 145.762
17726.189, 53.367, 143.786
17984.021, 52.336, 140.757
18245.605, 51.063, 137.077
18510.994, 49.512, 133.404
18780.242, 47.673, 130.258
19053.408, 45.594, 128.010
19330.547, 43.292, 125.686
19611.715, 40.343, 123.084
19896.975, 36.490, 125.101
