* Measurement data measured by REW V5.19
* Source: ASIO MOTU M Series, In 1
* Format: 1M Log Swept Sine, 1 sweep at -3.0 dBFS  With no timing reference
* Dated: 1 Nov, 2023 3:06:30 PM
* REW Settings:
*  C-weighting compensation: Off
*  Target level: 75.0 dB
* Note: ; 
* Measurement: Nov 1 15:06:30
* Smoothing: 1/48 octave
* Frequency Step: 1/48 octave
* Start Frequency: 10.150 Hz
*
* Freq(Hz), SPL(dB), Phase(degrees)
10.150000, 62.329, -98.2742
10.300000, 62.403, -99.3629
10.440000, 62.472, -100.4588
10.600000, 62.549, -101.5872
10.750000, 62.620, -102.6344
10.900000, 62.688, -103.6591
11.060000, 62.758, -104.7316
11.200000, 62.817, -105.6515
11.380000, 62.889, -106.8091
11.500000, 62.936, -107.5641
11.720000, 63.019, -108.9137
11.800000, 63.048, -109.3940
12.060000, 63.141, -110.9160
12.200000, 63.190, -111.7153
12.410000, 63.261, -112.8893
12.500000, 63.292, -113.3861
12.650000, 63.341, -114.2046
12.800000, 63.389, -115.0139
13.150000, 63.495, -116.8693
13.200000, 63.510, -117.1303
13.400000, 63.565, -118.1631
13.600000, 63.616, -119.1726
13.800000, 63.664, -120.1566
14.000000, 63.708, -121.1104
14.300000, 63.771, -122.4837
14.500000, 63.811, -123.3633
14.750000, 63.860, -124.4275
15.000000, 63.908, -125.4644
15.250000, 63.956, -126.4818
15.500000, 64.001, -127.4846
15.750000, 64.044, -128.4742
16.000000, 64.082, -129.4442
16.250000, 64.116, -130.3884
16.500000, 64.148, -131.3016
16.750000, 64.177, -132.1799
17.000000, 64.205, -133.0274
17.250000, 64.234, -133.8512
17.500000, 64.263, -134.6590
17.750000, 64.292, -135.4608
18.000000, 64.320, -136.2615
18.250000, 64.345, -137.0603
18.500000, 64.368, -137.8542
18.750000, 64.387, -138.6351
19.000000, 64.402, -139.3948
19.250000, 64.415, -140.1292
19.500000, 64.427, -140.8358
19.750000, 64.439, -141.5170
20.000000, 64.451, -142.1795
20.299999, 64.467, -142.9588
20.600000, 64.484, -143.7312
20.900000, 64.500, -144.5020
21.200001, 64.513, -145.2700
21.400000, 64.521, -145.7766
21.799999, 64.531, -146.7639
22.000000, 64.534, -147.2394
22.400000, 64.538, -148.1500
22.700001, 64.541, -148.8002
23.000000, 64.546, -149.4297
23.299999, 64.551, -150.0467
23.600000, 64.556, -150.6568
24.000000, 64.561, -151.4620
24.299999, 64.563, -152.0553
24.700001, 64.563, -152.8237
25.000000, 64.562, -153.3797
25.400000, 64.560, -154.0957
25.799999, 64.558, -154.7903
26.200001, 64.555, -155.4695
26.500000, 64.552, -155.9685
26.900000, 64.548, -156.6185
27.200001, 64.546, -157.0956
27.600000, 64.542, -157.7264
28.000000, 64.539, -158.3615
28.500000, 64.529, -159.1619
29.000000, 64.510, -159.9308
29.500000, 64.486, -160.6174
30.000000, 64.466, -161.2122
30.400000, 64.458, -161.6540
30.700001, 64.456, -161.9893
31.100000, 64.457, -162.4607
31.500000, 64.457, -162.9621
32.000000, 64.451, -163.6079
32.500000, 64.437, -164.2397
33.000000, 64.418, -164.8298
33.500000, 64.397, -165.3713
34.000000, 64.379, -165.8823
34.500000, 64.363, -166.3956
35.000000, 64.344, -166.9264
35.500000, 64.317, -167.4457
36.000000, 64.286, -167.9058
36.500000, 64.259, -168.3010
37.000000, 64.241, -168.6849
37.500000, 64.227, -169.1100
38.200001, 64.200, -169.7476
38.700001, 64.177, -170.1796
39.500000, 64.140, -170.8399
40.000000, 64.113, -171.2521
40.599998, 64.075, -171.6848
41.200001, 64.044, -172.0230
41.799999, 64.032, -172.3764
42.500000, 64.021, -172.9506
43.099998, 63.993, -173.5106
43.700001, 63.951, -174.0060
44.400002, 63.904, -174.5079
45.000000, 63.863, -174.9401
45.500000, 63.823, -175.2768
46.200001, 63.763, -175.5990
46.799999, 63.733, -175.7396
47.500000, 63.734, -175.9756
48.200001, 63.738, -176.4515
48.700001, 63.720, -176.8279
49.400002, 63.681, -177.1928
50.000000, 63.661, -177.4155
50.799999, 63.640, -177.7929
51.500000, 63.607, -178.0869
52.200001, 63.584, -178.2963
53.000000, 63.569, -178.6970
53.799999, 63.520, -179.1533
54.500000, 63.474, -179.3833
55.200001, 63.447, -179.6405
56.000000, 63.404, 179.9523
57.000000, 63.338, 179.6503
58.000000, 63.299, 179.3951
59.000000, 63.256, 179.1850
60.000000, 63.238, 179.0162
60.799999, 63.221, 178.7396
61.500000, 63.191, 178.4880
62.200001, 63.154, 178.2665
63.000000, 63.107, 178.0319
64.000000, 63.046, 177.7933
65.000000, 62.999, 177.5787
66.000000, 62.961, 177.2559
67.000000, 62.910, 176.9376
68.000000, 62.873, 176.6916
69.000000, 62.821, 176.4067
70.000000, 62.780, 176.4381
71.000000, 62.784, 176.1381
72.000000, 62.699, 175.8079
73.000000, 62.670, 176.0134
74.000000, 62.676, 175.5342
75.000000, 62.586, 175.2036
76.199997, 62.548, 175.1961
77.500000, 62.486, 174.9417
78.800003, 62.434, 175.0816
80.000000, 62.431, 175.1617
81.199997, 62.399, 174.8048
82.500000, 62.315, 174.8634
83.800003, 62.302, 174.5831
85.000000, 62.214, 174.1765
86.199997, 62.140, 174.1642
87.500000, 62.118, 174.1071
88.500000, 62.098, 173.8616
90.000000, 62.028, 173.6385
91.199997, 61.980, 173.5974
92.500000, 61.931, 173.5170
93.800003, 61.874, 173.4334
95.000000, 61.830, 173.3813
96.199997, 61.786, 173.2938
97.500000, 61.736, 173.2325
98.800003, 61.686, 173.2293
100.000000, 61.651, 173.2288
101.500000, 61.598, 173.1195
103.000000, 61.540, 173.0168
104.400002, 61.478, 172.9096
106.000000, 61.419, 172.8845
107.500000, 61.367, 172.8747
109.000000, 61.321, 172.8681
110.599998, 61.259, 172.8850
112.000000, 61.204, 172.9309
113.800003, 61.142, 172.9686
115.000000, 61.097, 172.9478
117.199997, 61.016, 172.9895
118.000000, 60.987, 173.0193
120.599998, 60.906, 173.1387
122.000000, 60.854, 173.1800
124.099998, 60.785, 173.2687
125.000000, 60.754, 173.2701
126.500000, 60.699, 173.2938
128.000000, 60.643, 173.3408
131.500000, 60.531, 173.5765
132.000000, 60.516, 173.5804
134.000000, 60.437, 173.6331
136.000000, 60.352, 173.7418
138.000000, 60.267, 173.9540
140.000000, 60.190, 174.0565
143.000000, 60.060, 174.2984
145.000000, 59.969, 174.4807
147.500000, 59.853, 174.8470
150.000000, 59.736, 175.2777
152.500000, 59.624, 175.8001
155.000000, 59.510, 176.3844
157.500000, 59.417, 177.0201
160.000000, 59.318, 177.6730
162.500000, 59.230, 178.5353
165.000000, 59.147, 179.3528
167.500000, 59.068, -179.7375
170.000000, 59.006, -178.8549
172.500000, 58.947, -177.8217
175.000000, 58.890, -176.6743
177.500000, 58.864, -175.4913
180.000000, 58.881, -174.2732
182.500000, 58.936, -173.1111
185.000000, 58.993, -171.9570
187.500000, 59.072, -170.8907
190.000000, 59.180, -169.9553
192.500000, 59.314, -169.1293
195.000000, 59.467, -168.5621
197.500000, 59.567, -168.2503
200.000000, 59.672, -167.8495
203.000000, 59.805, -167.6449
206.000000, 59.936, -167.3527
209.000000, 60.103, -167.2132
212.000000, 60.276, -167.5772
214.000000, 60.382, -167.8645
218.000000, 60.537, -169.1420
220.000000, 60.564, -169.7617
224.000000, 60.553, -170.8918
227.000000, 60.507, -171.7410
230.000000, 60.437, -172.2018
233.000000, 60.370, -172.7349
236.000000, 60.261, -173.1425
240.000000, 60.114, -173.2865
243.000000, 60.017, -173.2371
247.000000, 59.891, -173.1229
250.000000, 59.803, -172.8935
254.000000, 59.686, -172.4691
258.000000, 59.580, -171.8975
262.000000, 59.492, -171.2367
265.000000, 59.435, -170.7635
269.000000, 59.378, -170.1173
272.000000, 59.341, -169.6179
276.000000, 59.300, -168.9950
280.000000, 59.269, -168.2756
285.000000, 59.228, -167.4394
290.000000, 59.213, -166.9765
295.000000, 59.185, -166.5234
300.000000, 59.142, -166.0791
304.000000, 59.095, -165.7717
307.000000, 59.061, -165.4203
311.000000, 58.994, -164.8660
315.000000, 58.903, -164.3651
320.000000, 58.800, -163.6634
325.000000, 58.691, -162.6378
330.000000, 58.587, -161.4297
335.000000, 58.515, -160.1904
340.000000, 58.431, -158.8557
345.000000, 58.360, -157.3045
350.000000, 58.308, -155.6269
355.000000, 58.262, -153.9417
360.000000, 58.271, -151.8503
365.000000, 58.325, -149.6734
370.000000, 58.423, -147.3741
375.000000, 58.566, -145.1300
382.000000, 58.895, -142.2935
387.000000, 59.226, -140.6422
395.000000, 59.784, -139.1320
400.000000, 60.129, -138.9007
406.000000, 60.508, -139.1390
412.000000, 60.800, -139.7664
418.000000, 61.015, -140.6654
425.000000, 61.182, -141.6283
431.000000, 61.274, -142.3104
437.000000, 61.338, -142.8892
444.000000, 61.384, -143.2969
450.000000, 61.418, -143.4725
455.000000, 61.445, -143.5410
462.000000, 61.477, -143.5349
468.000000, 61.503, -143.4816
475.000000, 61.538, -143.3330
482.000000, 61.576, -143.1811
487.000000, 61.605, -143.0448
494.000000, 61.646, -142.7955
500.000000, 61.677, -142.5506
508.000000, 61.723, -142.1522
515.000000, 61.777, -141.7690
522.000000, 61.836, -141.3718
530.000000, 61.911, -140.8854
538.000000, 61.999, -140.4273
545.000000, 62.089, -140.0397
552.000000, 62.196, -139.7994
560.000000, 62.304, -139.6475
570.000000, 62.429, -139.5459
580.000000, 62.548, -139.5349
590.000000, 62.644, -139.6083
600.000000, 62.719, -139.6787
608.000000, 62.764, -139.7030
615.000000, 62.798, -139.6928
622.000000, 62.829, -139.6684
630.000000, 62.859, -139.5956
640.000000, 62.895, -139.4364
650.000000, 62.928, -139.2208
660.000000, 62.961, -138.9391
670.000000, 63.003, -138.6700
680.000000, 63.047, -138.4028
690.000000, 63.087, -138.1180
700.000000, 63.125, -137.8015
710.000000, 63.161, -137.4603
720.000000, 63.198, -137.1057
730.000000, 63.235, -136.7001
740.000000, 63.275, -136.2713
750.000000, 63.317, -135.8030
762.000000, 63.374, -135.2361
775.000000, 63.443, -134.5855
788.000000, 63.521, -133.9444
800.000000, 63.600, -133.3489
812.000000, 63.684, -132.7470
825.000000, 63.778, -132.1116
838.000000, 63.880, -131.5079
850.000000, 63.978, -130.9558
862.000000, 64.080, -130.4210
875.000000, 64.196, -129.8688
885.000000, 64.289, -129.4633
900.000000, 64.432, -128.8972
912.000000, 64.549, -128.4837
925.000000, 64.677, -128.0713
938.000000, 64.807, -127.6978
950.000000, 64.928, -127.3882
962.000000, 65.047, -127.1107
975.000000, 65.174, -126.8435
988.000000, 65.300, -126.5969
1000.000000, 65.415, -126.3957
1015.000000, 65.558, -126.1626
1030.000000, 65.698, -125.9571
1044.000000, 65.827, -125.7962
1060.000000, 65.972, -125.6428
1075.000000, 66.104, -125.5069
1090.000000, 66.235, -125.3793
1106.000000, 66.372, -125.2636
1120.000000, 66.489, -125.1743
1138.000000, 66.639, -125.0735
1150.000000, 66.739, -125.0101
1172.000000, 66.919, -124.9040
1180.000000, 66.985, -124.8711
1206.000000, 67.198, -124.7908
1220.000000, 67.313, -124.7618
1241.000000, 67.485, -124.7571
1250.000000, 67.559, -124.7697
1265.000000, 67.681, -124.8108
1280.000000, 67.801, -124.8748
1315.000000, 68.070, -125.1008
1320.000000, 68.107, -125.1393
1340.000000, 68.252, -125.3066
1360.000000, 68.391, -125.4821
1380.000000, 68.527, -125.6642
1400.000000, 68.659, -125.8473
1430.000000, 68.853, -126.1213
1450.000000, 68.980, -126.3108
1475.000000, 69.137, -126.5576
1500.000000, 69.292, -126.8240
1525.000000, 69.445, -127.1121
1550.000000, 69.593, -127.4237
1575.000000, 69.738, -127.7552
1600.000000, 69.879, -128.0985
1625.000000, 70.017, -128.4550
1650.000000, 70.150, -128.8208
1675.000000, 70.281, -129.1964
1700.000000, 70.407, -129.5807
1725.000000, 70.531, -129.9695
1750.000000, 70.651, -130.3597
1775.000000, 70.770, -130.7529
1800.000000, 70.886, -131.1481
1825.000000, 71.001, -131.5455
1850.000000, 71.114, -131.9474
1875.000000, 71.227, -132.3557
1900.000000, 71.339, -132.7712
1925.000000, 71.452, -133.1984
1950.000000, 71.564, -133.6422
1975.000000, 71.676, -134.1091
2000.000000, 71.788, -134.6035
2030.000000, 71.920, -135.2348
2060.000000, 72.049, -135.9121
2090.000000, 72.174, -136.6361
2120.000000, 72.293, -137.4064
2140.000000, 72.368, -137.9450
2180.000000, 72.508, -139.0729
2200.000000, 72.572, -139.6591
2240.000000, 72.688, -140.8643
2270.000000, 72.763, -141.7877
2300.000000, 72.828, -142.7199
2330.000000, 72.882, -143.6538
2360.000000, 72.927, -144.5821
2400.000000, 72.971, -145.8015
2430.000000, 72.993, -146.6953
2470.000000, 73.009, -147.8486
2500.000000, 73.012, -148.6791
2540.000000, 73.003, -149.7307
2580.000000, 72.983, -150.7081
2620.000000, 72.952, -151.6001
2650.000000, 72.925, -152.2094
2690.000000, 72.886, -152.9399
2720.000000, 72.856, -153.4300
2760.000000, 72.821, -154.0271
2800.000000, 72.791, -154.5968
2850.000000, 72.756, -155.3241
2900.000000, 72.716, -156.0900
2950.000000, 72.659, -156.8660
3000.000000, 72.582, -157.5904
3040.000000, 72.509, -158.0928
3070.000000, 72.450, -158.4138
3110.000000, 72.367, -158.7624
3150.000000, 72.284, -159.0275
3200.000000, 72.182, -159.2603
3250.000000, 72.083, -159.4022
3300.000000, 71.988, -159.4735
3350.000000, 71.895, -159.4768
3400.000000, 71.804, -159.4106
3450.000000, 71.716, -159.2663
3500.000000, 71.633, -159.0488
3550.000000, 71.557, -158.7627
3600.000000, 71.487, -158.4144
3650.000000, 71.425, -158.0157
3700.000000, 71.372, -157.5655
3750.000000, 71.329, -157.0772
3820.000000, 71.283, -156.3480
3870.000000, 71.261, -155.8061
3950.000000, 71.243, -154.9074
4000.000000, 71.242, -154.3296
4060.000000, 71.253, -153.6174
4120.000000, 71.276, -152.9017
4180.000000, 71.312, -152.1908
4250.000000, 71.368, -151.3812
4310.000000, 71.428, -150.6936
4370.000000, 71.498, -150.0237
4440.000000, 71.595, -149.2562
4500.000000, 71.694, -148.6187
4550.000000, 71.786, -148.1350
4620.000000, 71.925, -147.5318
4680.000000, 72.050, -147.0519
4750.000000, 72.209, -146.5202
4820.000000, 72.387, -146.0460
4870.000000, 72.524, -145.7585
4940.000000, 72.733, -145.4512
5000.000000, 72.924, -145.3057
5080.000000, 73.191, -145.3033
5150.000000, 73.430, -145.4800
5220.000000, 73.672, -145.8303
5300.000000, 73.947, -146.4427
5380.000000, 74.217, -147.2730
5450.000000, 74.446, -148.1866
5520.000000, 74.666, -149.2783
5600.000000, 74.899, -150.7417
5700.000000, 75.154, -152.8874
5800.000000, 75.356, -155.3323
5900.000000, 75.492, -157.9891
6000.000000, 75.557, -160.7497
6080.000000, 75.558, -162.9396
6150.000000, 75.526, -164.7922
6220.000000, 75.468, -166.5781
6300.000000, 75.371, -168.5137
6400.000000, 75.212, -170.7343
6500.000000, 75.021, -172.7183
6600.000000, 74.807, -174.4607
6700.000000, 74.576, -175.9663
6800.000000, 74.335, -177.2483
6900.000000, 74.089, -178.3204
7000.000000, 73.844, -179.1999
7100.000000, 73.602, -179.9081
7200.000000, 73.366, 179.5344
7300.000000, 73.137, 179.1092
7400.000000, 72.918, 178.7989
7500.000000, 72.709, 178.5868
7620.000000, 72.473, 178.4387
7750.000000, 72.234, 178.3771
7880.000000, 72.012, 178.3893
8000.000000, 71.818, 178.4514
8120.000000, 71.633, 178.5501
8250.000000, 71.440, 178.6909
8380.000000, 71.253, 178.8617
8500.000000, 71.082, 179.0444
8620.000000, 70.910, 179.2568
8750.000000, 70.720, 179.5322
8850.000000, 70.571, 179.7896
9000.000000, 70.341, -179.7179
9120.000000, 70.156, -179.1817
9250.000000, 69.962, -178.4536
9380.000000, 69.781, -177.6013
9500.000000, 69.625, -176.7180
9620.000000, 69.479, -175.7408
9750.000000, 69.331, -174.5291
9880.000000, 69.214, -173.0535
10000.000000, 69.160, -171.6257
10150.000000, 69.131, -169.9473
10300.000000, 69.137, -168.1546
10440.000000, 69.203, -166.3203
10600.000000, 69.391, -164.0876
10750.000000, 69.740, -162.2478
10900.000000, 70.229, -161.4906
11060.000000, 70.768, -162.3449
11200.000000, 71.131, -164.2215
11380.000000, 71.406, -167.1790
11500.000000, 71.501, -169.1380
11720.000000, 71.559, -172.5712
11800.000000, 71.549, -173.7692
12060.000000, 71.418, -177.3799
12200.000000, 71.294, -179.0605
12410.000000, 71.065, 178.9073
12500.000000, 70.962, 178.2402
12650.000000, 70.802, 177.4044
12800.000000, 70.674, 176.8815
13150.000000, 70.630, 176.4051
13200.000000, 70.663, 176.3507
13400.000000, 70.920, 175.8841
13600.000000, 71.386, 174.5076
13800.000000, 72.045, 171.4223
14000.000000, 72.817, 165.5556
14300.000000, 73.626, 149.2643
14500.000000, 73.335, 134.4511
14750.000000, 71.735, 117.6267
15000.000000, 69.327, 107.3994
15250.000000, 66.838, 103.2884
15500.000000, 64.598, 103.0588
15750.000000, 62.674, 105.0643
16000.000000, 61.042, 108.3663
16250.000000, 59.664, 112.7961
16500.000000, 58.720, 117.7417
16750.000000, 57.980, 121.2831
17000.000000, 57.361, 124.8819
17250.000000, 56.959, 128.0875
17500.000000, 56.785, 130.3654
17750.000000, 56.829, 131.0421
18000.000000, 57.138, 129.6488
18250.000000, 57.784, 121.8727
18500.000000, 57.538, 105.9084
18750.000000, 55.929, 87.4020
19000.000000, 52.867, 72.8544
19250.000000, 48.814, 66.0484
19500.000000, 44.156, 67.3823
19750.000000, 38.773, 80.7684
