* Measurement data measured by REW V5.19
* Source: ASIO MOTU M Series, In 1
* Format: 1M Log Swept Sine, 1 sweep at -3.0 dBFS  With no timing reference
* Dated: 8 Mar, 2023 4:14:15 PM
* REW Settings:
*  C-weighting compensation: Off
*  Target level: 75.0 dB
* Note: ; 
* Measurement: Mar 8 16:14:15
* Smoothing: 1/48 octave
* Frequency Step: 1/48 octave
* Start Frequency: 10.1 Hz
*
* Freq(Hz), SPL(dB), Phase(degrees)
10.145, 65.549, -99.810
10.293, 65.601, -100.552
10.443, 65.655, -101.552
10.595, 65.737, -102.865
10.749, 65.822, -104.240
10.905, 65.886, -105.299
11.064, 65.940, -106.250
11.225, 66.000, -107.328
11.388, 66.060, -108.459
11.554, 66.116, -109.538
11.722, 66.168, -110.581
11.892, 66.218, -111.594
12.065, 66.267, -112.578
12.241, 66.318, -113.564
12.419, 66.370, -114.539
12.599, 66.423, -115.483
12.782, 66.477, -116.417
12.968, 66.533, -117.374
13.157, 66.589, -118.341
13.348, 66.644, -119.312
13.543, 66.696, -120.296
13.740, 66.746, -121.293
13.939, 66.790, -122.288
14.142, 66.831, -123.277
14.348, 66.867, -124.248
14.557, 66.900, -125.199
14.768, 66.931, -126.127
14.983, 66.961, -127.029
15.201, 66.991, -127.912
15.422, 67.021, -128.779
15.646, 67.052, -129.637
15.874, 67.083, -130.488
16.105, 67.115, -131.337
16.339, 67.147, -132.187
16.577, 67.178, -133.042
16.818, 67.210, -133.902
17.063, 67.239, -134.772
17.311, 67.266, -135.648
17.563, 67.288, -136.522
17.818, 67.307, -137.383
18.077, 67.322, -138.214
18.340, 67.336, -139.004
18.607, 67.353, -139.758
18.877, 67.375, -140.491
19.152, 67.404, -141.233
19.431, 67.435, -142.016
19.713, 67.463, -142.847
20.000, 67.482, -143.701
20.291, 67.488, -144.525
20.586, 67.484, -145.257
20.885, 67.483, -145.858
21.189, 67.498, -146.347
21.497, 67.540, -146.825
21.810, 67.606, -147.428
22.127, 67.678, -148.256
22.449, 67.731, -149.309
22.776, 67.744, -150.475
23.107, 67.713, -151.567
23.443, 67.652, -152.417
23.784, 67.591, -152.963
24.130, 67.558, -153.298
24.481, 67.565, -153.621
24.837, 67.596, -154.107
25.198, 67.625, -154.802
25.565, 67.631, -155.607
25.937, 67.614, -156.373
26.314, 67.588, -157.016
26.697, 67.572, -157.568
27.085, 67.570, -158.131
27.479, 67.574, -158.778
27.879, 67.569, -159.486
28.284, 67.552, -160.176
28.696, 67.533, -160.797
29.113, 67.520, -161.367
29.537, 67.515, -161.944
29.966, 67.511, -162.556
30.402, 67.503, -163.176
30.844, 67.493, -163.771
31.293, 67.484, -164.339
31.748, 67.478, -164.903
32.210, 67.472, -165.477
32.678, 67.463, -166.050
33.154, 67.452, -166.613
33.636, 67.440, -167.171
34.125, 67.426, -167.727
34.621, 67.408, -168.270
35.125, 67.391, -168.794
35.636, 67.376, -169.319
36.154, 67.359, -169.863
36.680, 67.339, -170.413
37.214, 67.314, -170.938
37.755, 67.291, -171.434
38.304, 67.272, -171.922
38.861, 67.255, -172.423
39.427, 67.238, -172.948
40.000, 67.218, -173.494
40.582, 67.191, -174.025
41.172, 67.164, -174.507
41.771, 67.146, -174.975
42.379, 67.130, -175.503
42.995, 67.104, -176.043
43.620, 67.078, -176.489
44.255, 67.076, -176.940
44.898, 67.077, -177.619
45.552, 67.033, -178.415
46.214, 66.950, -178.909
46.886, 66.898, -179.054
47.568, 66.895, -179.292
48.260, 66.885, -179.779
48.962, 66.845, 179.781
49.674, 66.814, 179.456
50.397, 66.792, 179.036
51.130, 66.755, 178.539
51.874, 66.708, 178.085
52.628, 66.661, 177.642
53.394, 66.612, 177.210
54.170, 66.570, 176.774
54.958, 66.525, 176.263
55.758, 66.463, 175.817
56.569, 66.413, 175.528
57.391, 66.385, 175.168
58.226, 66.343, 174.720
59.073, 66.293, 174.359
59.932, 66.246, 174.000
60.804, 66.186, 173.642
61.688, 66.124, 173.402
62.586, 66.077, 173.176
63.496, 66.032, 172.893
64.420, 65.987, 172.602
65.357, 65.946, 172.283
66.307, 65.903, 171.924
67.272, 65.856, 171.513
68.250, 65.793, 171.106
69.243, 65.730, 170.794
70.250, 65.671, 170.417
71.272, 65.593, 170.100
72.309, 65.531, 169.866
73.360, 65.467, 169.532
74.427, 65.390, 169.295
75.510, 65.327, 169.121
76.608, 65.276, 168.862
77.723, 65.207, 168.463
78.853, 65.115, 168.117
80.000, 65.011, 167.851
81.164, 64.910, 167.696
82.344, 64.815, 167.490
83.542, 64.702, 167.299
84.757, 64.587, 167.253
85.990, 64.477, 167.239
87.241, 64.366, 167.290
88.510, 64.259, 167.284
89.797, 64.127, 167.260
91.103, 63.983, 167.357
92.428, 63.829, 167.462
93.773, 63.638, 167.757
95.137, 63.454, 168.374
96.520, 63.259, 169.153
97.924, 63.054, 170.339
99.349, 62.855, 172.103
100.794, 62.738, 174.431
102.260, 62.711, 177.018
103.747, 62.818, 179.795
105.256, 63.074, -177.764
106.787, 63.448, -175.906
108.340, 63.891, -175.088
109.916, 64.338, -175.131
111.515, 64.714, -176.172
113.137, 64.999, -177.586
114.783, 65.195, -179.195
116.452, 65.308, 179.108
118.146, 65.353, 177.595
119.865, 65.353, 176.258
121.608, 65.337, 175.051
123.377, 65.312, 173.933
125.171, 65.273, 172.846
126.992, 65.209, 171.926
128.839, 65.139, 171.214
130.713, 65.070, 170.629
132.615, 65.007, 170.076
134.543, 64.952, 169.546
136.500, 64.889, 169.027
138.486, 64.821, 168.579
140.500, 64.749, 168.114
142.544, 64.672, 167.647
144.617, 64.597, 167.191
146.721, 64.520, 166.788
148.855, 64.437, 166.464
151.020, 64.351, 166.199
153.217, 64.265, 165.939
155.445, 64.182, 165.698
157.706, 64.100, 165.423
160.000, 64.005, 165.225
162.327, 63.920, 165.100
164.688, 63.831, 164.973
167.084, 63.739, 164.851
169.514, 63.639, 164.761
171.980, 63.549, 164.725
174.481, 63.456, 164.697
177.019, 63.361, 164.718
179.594, 63.261, 164.810
182.206, 63.167, 164.974
184.856, 63.076, 165.140
187.545, 62.989, 165.305
190.273, 62.911, 165.506
193.041, 62.830, 165.761
195.849, 62.753, 166.040
198.697, 62.679, 166.365
201.587, 62.615, 166.773
204.520, 62.566, 167.171
207.494, 62.527, 167.540
210.512, 62.497, 167.938
213.574, 62.489, 168.293
216.681, 62.489, 168.521
219.833, 62.489, 168.648
223.030, 62.489, 168.682
226.274, 62.486, 168.633
229.565, 62.466, 168.539
232.905, 62.429, 168.470
236.292, 62.392, 168.327
239.729, 62.343, 168.158
243.216, 62.277, 168.005
246.754, 62.206, 167.908
250.343, 62.138, 167.879
253.984, 62.062, 167.809
257.678, 61.976, 167.818
261.426, 61.890, 167.888
265.229, 61.803, 167.975
269.087, 61.718, 168.067
273.001, 61.630, 168.237
276.972, 61.543, 168.424
281.000, 61.457, 168.619
285.088, 61.368, 168.848
289.234, 61.277, 169.122
293.441, 61.187, 169.408
297.710, 61.104, 169.716
302.040, 61.010, 170.046
306.433, 60.917, 170.404
310.890, 60.828, 170.790
315.412, 60.740, 171.209
320.000, 60.655, 171.679
324.655, 60.571, 172.154
329.377, 60.491, 172.614
334.168, 60.414, 173.106
339.028, 60.335, 173.594
343.959, 60.255, 174.059
348.962, 60.166, 174.593
354.038, 60.079, 175.134
359.188, 59.990, 175.685
364.412, 59.889, 176.321
369.713, 59.783, 176.968
375.090, 59.681, 177.742
380.546, 59.583, 178.606
386.081, 59.477, 179.537
391.697, 59.379, -179.418
397.395, 59.296, -178.294
403.175, 59.222, -177.113
409.039, 59.159, -175.718
414.989, 59.118, -174.295
421.025, 59.109, -172.828
427.149, 59.123, -171.384
433.362, 59.171, -169.981
439.665, 59.248, -168.706
446.060, 59.333, -167.634
452.548, 59.417, -166.688
459.131, 59.504, -165.938
465.809, 59.570, -165.255
472.584, 59.616, -164.613
479.458, 59.655, -163.955
486.432, 59.690, -163.248
493.507, 59.728, -162.471
500.686, 59.772, -161.651
507.968, 59.828, -160.896
515.357, 59.883, -160.189
522.853, 59.929, -159.464
530.458, 59.981, -158.637
538.174, 60.049, -157.789
546.002, 60.126, -156.976
553.943, 60.212, -156.248
562.001, 60.305, -155.588
570.175, 60.401, -154.968
578.469, 60.497, -154.432
586.883, 60.597, -153.966
595.419, 60.689, -153.558
604.080, 60.774, -153.222
612.866, 60.847, -152.923
621.780, 60.914, -152.649
630.824, 60.972, -152.354
640.000, 61.020, -152.077
649.309, 61.064, -151.778
658.753, 61.097, -151.453
668.335, 61.125, -151.105
678.056, 61.147, -150.744
687.919, 61.160, -150.333
697.925, 61.169, -149.842
708.076, 61.179, -149.211
718.376, 61.199, -148.515
728.825, 61.228, -147.756
739.426, 61.268, -146.979
750.181, 61.317, -146.207
761.093, 61.375, -145.452
772.163, 61.437, -144.703
783.394, 61.506, -143.952
794.789, 61.580, -143.190
806.349, 61.660, -142.468
818.078, 61.742, -141.712
829.977, 61.828, -140.981
842.050, 61.922, -140.285
854.297, 62.017, -139.605
866.724, 62.117, -138.930
879.330, 62.221, -138.277
892.120, 62.324, -137.617
905.097, 62.433, -136.965
918.262, 62.547, -136.322
931.618, 62.663, -135.699
945.169, 62.786, -135.092
958.917, 62.913, -134.515
972.864, 63.043, -133.974
987.015, 63.177, -133.473
1001.371, 63.312, -133.013
1015.937, 63.447, -132.587
1030.714, 63.581, -132.194
1045.706, 63.714, -131.833
1060.916, 63.845, -131.490
1076.347, 63.974, -131.160
1092.003, 64.102, -130.841
1107.887, 64.229, -130.529
1124.001, 64.356, -130.224
1140.350, 64.482, -129.925
1156.937, 64.609, -129.624
1173.765, 64.736, -129.325
1190.838, 64.864, -129.028
1208.159, 64.993, -128.734
1225.732, 65.124, -128.446
1243.561, 65.257, -128.160
1261.649, 65.388, -127.910
1280.000, 65.517, -127.630
1298.618, 65.668, -127.384
1317.507, 65.810, -127.128
1336.670, 65.952, -126.908
1356.113, 66.096, -126.706
1375.838, 66.240, -126.518
1395.850, 66.385, -126.345
1416.153, 66.530, -126.182
1436.751, 66.676, -126.027
1457.649, 66.823, -125.883
1478.851, 66.971, -125.745
1500.362, 67.119, -125.616
1522.185, 67.267, -125.489
1544.326, 67.416, -125.371
1566.789, 67.570, -125.265
1589.578, 67.727, -125.163
1612.699, 67.885, -125.070
1636.156, 68.046, -124.983
1659.955, 68.210, -124.907
1684.099, 68.379, -124.845
1708.595, 68.550, -124.797
1733.447, 68.725, -124.765
1758.661, 68.904, -124.753
1784.241, 69.086, -124.762
1810.193, 69.274, -124.788
1836.523, 69.469, -124.848
1863.236, 69.665, -124.925
1890.338, 69.865, -125.037
1917.833, 70.070, -125.185
1945.729, 70.280, -125.372
1974.030, 70.494, -125.604
2002.743, 70.713, -125.886
2031.873, 70.936, -126.222
2061.428, 71.163, -126.617
2091.412, 71.394, -127.077
2121.832, 71.628, -127.606
2152.695, 71.864, -128.210
2184.007, 72.103, -128.894
2215.774, 72.343, -129.663
2248.003, 72.583, -130.525
2280.701, 72.821, -131.484
2313.874, 73.054, -132.539
2347.530, 73.286, -133.706
2381.676, 73.514, -134.982
2416.318, 73.734, -136.368
2451.464, 73.945, -137.864
2487.122, 74.144, -139.469
2523.298, 74.329, -141.178
2560.000, 74.495, -142.986
2597.236, 74.645, -144.847
2635.014, 74.779, -146.830
2673.341, 74.887, -148.857
2712.226, 74.973, -150.920
2751.676, 75.034, -153.005
2791.700, 75.070, -155.091
2832.306, 75.082, -157.159
2873.503, 75.070, -159.186
2915.299, 75.036, -161.154
2957.703, 74.982, -163.043
3000.724, 74.913, -164.844
3044.370, 74.827, -166.539
3088.652, 74.726, -168.126
3133.577, 74.614, -169.601
3179.156, 74.494, -170.960
3225.398, 74.369, -172.203
3272.312, 74.240, -173.331
3319.909, 74.110, -174.350
3368.198, 73.982, -175.264
3417.190, 73.856, -176.080
3466.894, 73.736, -176.809
3517.321, 73.619, -177.456
3568.482, 73.511, -178.040
3620.387, 73.415, -178.569
3673.046, 73.331, -179.053
3726.472, 73.260, -179.512
3780.675, 73.197, -179.957
3835.666, 73.146, 179.585
3891.457, 73.102, 179.106
3948.060, 73.068, 178.632
4005.486, 73.052, 178.121
4063.747, 73.048, 177.504
4122.855, 73.050, 176.783
4182.824, 73.057, 175.952
4243.664, 73.065, 174.992
4305.390, 73.071, 173.888
4368.013, 73.070, 172.633
4431.547, 73.057, 171.232
4496.005, 73.028, 169.677
4561.401, 72.970, 167.984
4627.749, 72.886, 166.188
4695.061, 72.768, 164.315
4763.352, 72.605, 162.419
4832.637, 72.406, 160.582
4902.929, 72.170, 158.832
4974.244, 71.901, 157.224
5046.596, 71.603, 155.796
5120.000, 71.282, 154.547
5194.472, 70.941, 153.495
5270.027, 70.586, 152.663
5346.682, 70.214, 152.077
5424.451, 69.834, 151.751
5503.352, 69.455, 151.690
5583.399, 69.086, 151.864
5664.612, 68.730, 152.240
5747.006, 68.390, 152.773
5830.598, 68.064, 153.427
5915.406, 67.749, 154.173
6001.447, 67.438, 155.013
6088.740, 67.123, 155.986
6177.303, 66.799, 157.197
6267.154, 66.485, 158.751
6358.312, 66.205, 160.706
6450.796, 65.989, 162.998
6544.625, 65.855, 165.467
6639.818, 65.812, 167.923
6736.397, 65.853, 170.208
6834.380, 65.963, 172.195
6933.789, 66.134, 173.785
7034.643, 66.349, 174.900
7136.964, 66.598, 175.480
7240.773, 66.867, 175.476
7346.093, 67.132, 174.849
7452.944, 67.375, 173.579
7561.350, 67.572, 171.633
7671.332, 67.707, 169.081
7782.915, 67.751, 166.041
7896.120, 67.667, 162.586
8010.971, 67.441, 158.967
8127.493, 67.063, 155.457
8245.711, 66.545, 152.344
8365.647, 65.910, 149.884
8487.328, 65.193, 148.215
8610.779, 64.431, 147.354
8736.026, 63.650, 147.251
8863.095, 62.859, 147.864
8992.011, 62.075, 149.155
9122.803, 61.318, 151.073
9255.497, 60.599, 153.556
9390.121, 59.925, 156.540
9526.704, 59.303, 159.955
9665.273, 58.738, 163.731
9805.857, 58.232, 167.814
9948.487, 57.786, 172.163
10093.191, 57.402, 176.751
10240.000, 57.083, -178.449
10388.944, 56.829, -173.437
10540.055, 56.658, -168.195
10693.363, 56.579, -162.925
10848.902, 56.572, -157.635
11006.703, 56.646, -152.267
11166.799, 56.811, -146.875
11329.224, 57.079, -141.527
11494.012, 57.453, -136.292
11661.195, 57.946, -131.255
11830.812, 58.574, -126.553
12002.895, 59.351, -122.400
12177.480, 60.296, -119.121
12354.606, 61.415, -117.203
12534.309, 62.674, -117.364
12716.624, 63.962, -120.531
12901.592, 65.026, -127.374
13089.250, 65.527, -137.125
13279.637, 65.281, -146.962
13472.794, 64.454, -153.947
13668.760, 63.408, -157.145
13867.577, 62.422, -157.119
14069.285, 61.638, -154.817
14273.928, 61.121, -151.046
14481.547, 60.903, -146.416
14692.186, 61.010, -141.414
14905.889, 61.488, -136.545
15122.700, 62.419, -132.532
15342.664, 63.921, -130.747
15565.829, 66.038, -134.333
15792.239, 68.110, -149.283
16021.942, 68.364, -175.986
16254.986, 66.091, 162.599
16491.422, 62.886, 155.331
16731.295, 60.162, 156.252
16974.656, 58.080, 160.892
17221.559, 56.551, 167.399
17472.053, 55.493, 174.776
17726.189, 54.862, -177.594
17984.021, 54.661, -170.256
18245.605, 54.929, -163.927
18510.994, 55.737, -159.857
18780.242, 57.094, -160.633
19053.408, 58.538, -170.930
19330.547, 58.689, 167.318
19611.715, 56.452, 145.777
19896.975, 52.770, 136.331
