* Measurement data measured by REW V5.19
* Source: ASIO MOTU M Series, In 1
* Format: 1M Log Swept Sine, 1 sweep at -3.0 dBFS  With no timing reference
* Dated: 8 Mar, 2023 4:30:33 PM
* REW Settings:
*  C-weighting compensation: Off
*  Target level: 75.0 dB
* Note: ; 
* Measurement: Mar 8 16:30:33
* Smoothing: 1/48 octave
* Frequency Step: 1/48 octave
* Start Frequency: 10.1 Hz
*
* Freq(Hz), SPL(dB), Phase(degrees)
10.145, 63.443, -91.626
10.293, 63.503, -92.337
10.443, 63.566, -93.293
10.595, 63.666, -94.544
10.749, 63.771, -95.855
10.905, 63.855, -96.869
11.064, 63.932, -97.786
11.225, 64.016, -98.846
11.388, 64.103, -99.974
11.554, 64.183, -101.074
11.722, 64.259, -102.159
11.892, 64.331, -103.229
12.065, 64.399, -104.287
12.241, 64.466, -105.348
12.419, 64.529, -106.400
12.599, 64.591, -107.408
12.782, 64.650, -108.392
12.968, 64.711, -109.375
13.157, 64.772, -110.345
13.348, 64.832, -111.295
13.543, 64.894, -112.243
13.740, 64.955, -113.193
13.939, 65.016, -114.146
14.142, 65.076, -115.102
14.348, 65.135, -116.060
14.557, 65.191, -117.019
14.768, 65.246, -117.980
14.983, 65.297, -118.932
15.201, 65.346, -119.876
15.422, 65.393, -120.809
15.646, 65.439, -121.726
15.874, 65.484, -122.629
16.105, 65.528, -123.519
16.339, 65.573, -124.401
16.577, 65.619, -125.280
16.818, 65.664, -126.160
17.063, 65.709, -127.046
17.311, 65.751, -127.938
17.563, 65.791, -128.830
17.818, 65.828, -129.716
18.077, 65.861, -130.585
18.340, 65.891, -131.429
18.607, 65.922, -132.246
18.877, 65.953, -133.037
19.152, 65.986, -133.813
19.431, 66.023, -134.589
19.713, 66.062, -135.380
20.000, 66.099, -136.193
20.291, 66.135, -137.029
20.586, 66.164, -137.881
20.885, 66.187, -138.732
21.189, 66.203, -139.565
21.497, 66.213, -140.362
21.810, 66.220, -141.112
22.127, 66.227, -141.812
22.449, 66.236, -142.466
22.776, 66.251, -143.090
23.107, 66.273, -143.707
23.443, 66.302, -144.346
23.784, 66.335, -145.033
24.130, 66.368, -145.781
24.481, 66.395, -146.586
24.837, 66.412, -147.419
25.198, 66.419, -148.240
25.565, 66.420, -149.016
25.937, 66.419, -149.733
26.314, 66.423, -150.410
26.697, 66.433, -151.084
27.085, 66.448, -151.795
27.479, 66.459, -152.547
27.879, 66.461, -153.307
28.284, 66.456, -154.019
28.696, 66.451, -154.652
29.113, 66.456, -155.233
29.537, 66.473, -155.843
29.966, 66.492, -156.546
30.402, 66.499, -157.332
30.844, 66.484, -158.097
31.293, 66.457, -158.725
31.748, 66.437, -159.200
32.210, 66.440, -159.628
32.678, 66.460, -160.157
33.154, 66.476, -160.829
33.636, 66.473, -161.555
34.125, 66.454, -162.215
34.621, 66.435, -162.781
35.125, 66.426, -163.322
35.636, 66.423, -163.905
36.154, 66.415, -164.528
36.680, 66.400, -165.135
37.214, 66.386, -165.693
37.755, 66.379, -166.235
38.304, 66.380, -166.830
38.861, 66.374, -167.511
39.427, 66.348, -168.201
40.000, 66.308, -168.766
40.582, 66.278, -169.174
41.172, 66.273, -169.578
41.771, 66.276, -170.141
42.379, 66.258, -170.831
42.995, 66.209, -171.447
43.620, 66.155, -171.858
44.255, 66.126, -172.149
44.898, 66.122, -172.540
45.552, 66.113, -173.128
46.214, 66.076, -173.731
46.886, 66.033, -174.166
47.568, 66.012, -174.564
48.260, 65.995, -175.085
48.962, 65.959, -175.581
49.674, 65.928, -175.936
50.397, 65.917, -176.300
51.130, 65.906, -176.773
51.874, 65.877, -177.312
52.628, 65.819, -177.758
53.394, 65.765, -177.994
54.170, 65.727, -178.320
54.958, 65.643, -178.678
55.758, 65.563, -178.456
56.569, 65.612, -178.322
57.391, 65.651, -179.165
58.226, 65.561, -179.937
59.073, 65.493, 179.933
59.932, 65.488, 179.645
60.804, 65.468, 179.248
61.688, 65.462, 178.941
62.586, 65.467, 178.512
63.496, 65.460, 178.035
64.420, 65.443, 177.542
65.357, 65.413, 177.073
66.307, 65.381, 176.618
67.272, 65.343, 176.120
68.250, 65.295, 175.635
69.243, 65.247, 175.174
70.250, 65.197, 174.715
71.272, 65.143, 174.275
72.309, 65.085, 173.881
73.360, 65.032, 173.514
74.427, 64.972, 173.064
75.510, 64.894, 172.690
76.608, 64.833, 172.360
77.723, 64.767, 171.901
78.853, 64.686, 171.505
80.000, 64.605, 171.138
81.164, 64.510, 170.833
82.344, 64.416, 170.662
83.542, 64.321, 170.460
84.757, 64.213, 170.343
85.990, 64.115, 170.239
87.241, 64.009, 170.137
88.510, 63.909, 170.151
89.797, 63.824, 170.169
91.103, 63.732, 170.229
92.428, 63.649, 170.347
93.773, 63.549, 170.425
95.137, 63.444, 170.609
96.520, 63.324, 170.774
97.924, 63.191, 171.096
99.349, 63.056, 171.563
100.794, 62.929, 172.189
102.260, 62.799, 173.063
103.747, 62.707, 174.269
105.256, 62.660, 175.673
106.787, 62.670, 177.202
108.340, 62.735, 178.777
109.916, 62.864, -179.766
111.515, 63.061, -178.513
113.137, 63.313, -177.780
114.783, 63.593, -177.567
116.452, 63.866, -177.935
118.146, 64.093, -178.746
119.865, 64.260, -179.781
121.608, 64.386, 179.058
123.377, 64.458, 177.744
125.171, 64.480, 176.526
126.992, 64.485, 175.446
128.839, 64.468, 174.436
130.713, 64.430, 173.515
132.615, 64.379, 172.733
134.543, 64.322, 171.962
136.500, 64.249, 171.305
138.486, 64.182, 170.712
140.500, 64.108, 170.148
142.544, 64.030, 169.670
144.617, 63.953, 169.243
146.721, 63.872, 168.835
148.855, 63.789, 168.480
151.020, 63.707, 168.180
153.217, 63.629, 167.927
155.445, 63.546, 167.703
157.706, 63.463, 167.508
160.000, 63.385, 167.318
162.327, 63.301, 167.190
164.688, 63.225, 167.108
167.084, 63.146, 167.009
169.514, 63.074, 166.952
171.980, 63.005, 166.852
174.481, 62.936, 166.760
177.019, 62.854, 166.561
179.594, 62.756, 166.517
182.206, 62.661, 166.487
184.856, 62.566, 166.545
187.545, 62.474, 166.646
190.273, 62.379, 166.892
193.041, 62.301, 167.136
195.849, 62.222, 167.306
198.697, 62.131, 167.633
201.587, 62.064, 168.207
204.520, 62.032, 168.685
207.494, 62.005, 169.056
210.512, 61.984, 169.414
213.574, 61.976, 169.728
216.681, 61.981, 169.945
219.833, 61.991, 170.083
223.030, 61.998, 170.130
226.274, 62.004, 170.021
229.565, 62.001, 169.843
232.905, 61.979, 169.623
236.292, 61.942, 169.369
239.729, 61.899, 169.148
243.216, 61.836, 168.964
246.754, 61.765, 168.785
250.343, 61.692, 168.633
253.984, 61.612, 168.559
257.678, 61.527, 168.515
261.426, 61.442, 168.514
265.229, 61.352, 168.565
269.087, 61.269, 168.648
273.001, 61.178, 168.755
276.972, 61.090, 168.882
281.000, 61.003, 169.049
285.088, 60.915, 169.222
289.234, 60.828, 169.412
293.441, 60.739, 169.641
297.710, 60.649, 169.875
302.040, 60.555, 170.132
306.433, 60.464, 170.441
310.890, 60.369, 170.768
315.412, 60.274, 171.113
320.000, 60.179, 171.495
324.655, 60.087, 171.909
329.377, 59.992, 172.351
334.168, 59.898, 172.826
339.028, 59.805, 173.330
343.959, 59.713, 173.865
348.962, 59.622, 174.417
354.038, 59.528, 174.994
359.188, 59.431, 175.600
364.412, 59.334, 176.279
369.713, 59.236, 176.993
375.090, 59.134, 177.789
380.546, 59.038, 178.637
386.081, 58.942, 179.595
391.697, 58.850, -179.347
397.395, 58.766, -178.194
403.175, 58.696, -176.967
409.039, 58.642, -175.565
414.989, 58.614, -174.158
421.025, 58.611, -172.747
427.149, 58.643, -171.347
433.362, 58.683, -170.031
439.665, 58.745, -168.729
446.060, 58.830, -167.608
452.548, 58.914, -166.644
459.131, 59.002, -165.771
465.809, 59.087, -164.952
472.584, 59.171, -164.234
479.458, 59.251, -163.545
486.432, 59.329, -162.919
493.507, 59.407, -162.350
500.686, 59.478, -161.846
507.968, 59.544, -161.349
515.357, 59.602, -160.894
522.853, 59.654, -160.426
530.458, 59.703, -159.972
538.174, 59.746, -159.497
546.002, 59.788, -158.995
553.943, 59.826, -158.451
562.001, 59.869, -157.826
570.175, 59.931, -157.222
578.469, 59.997, -156.735
586.883, 60.053, -156.324
595.419, 60.100, -155.905
604.080, 60.141, -155.452
612.866, 60.180, -154.957
621.780, 60.220, -154.453
630.824, 60.264, -153.928
640.000, 60.308, -153.354
649.309, 60.356, -152.777
658.753, 60.411, -152.233
668.335, 60.469, -151.676
678.056, 60.530, -151.131
687.919, 60.592, -150.600
697.925, 60.654, -150.090
708.076, 60.713, -149.613
718.376, 60.775, -149.126
728.825, 60.834, -148.633
739.426, 60.893, -148.166
750.181, 60.951, -147.695
761.093, 61.009, -147.228
772.163, 61.062, -146.746
783.394, 61.118, -146.251
794.789, 61.172, -145.735
806.349, 61.225, -145.191
818.078, 61.282, -144.621
829.977, 61.339, -144.031
842.050, 61.402, -143.438
854.297, 61.467, -142.827
866.724, 61.538, -142.221
879.330, 61.610, -141.600
892.120, 61.689, -140.978
905.097, 61.767, -140.342
918.262, 61.850, -139.704
931.618, 61.938, -139.077
945.169, 62.028, -138.439
958.917, 62.125, -137.799
972.864, 62.226, -137.156
987.015, 62.335, -136.524
1001.371, 62.448, -135.901
1015.937, 62.568, -135.299
1030.714, 62.693, -134.723
1045.706, 62.822, -134.184
1060.916, 62.954, -133.669
1076.347, 63.090, -133.196
1092.003, 63.228, -132.764
1107.887, 63.366, -132.355
1124.001, 63.505, -131.980
1140.350, 63.645, -131.630
1156.937, 63.784, -131.293
1173.765, 63.924, -130.977
1190.838, 64.065, -130.683
1208.159, 64.207, -130.405
1225.732, 64.350, -130.143
1243.561, 64.494, -129.906
1261.649, 64.639, -129.692
1280.000, 64.787, -129.500
1298.618, 64.934, -129.341
1317.507, 65.080, -129.211
1336.670, 65.225, -129.108
1356.113, 65.370, -129.029
1375.838, 65.511, -128.965
1395.850, 65.649, -128.912
1416.153, 65.784, -128.866
1436.751, 65.919, -128.824
1457.649, 66.053, -128.781
1478.851, 66.186, -128.735
1500.362, 66.320, -128.685
1522.185, 66.456, -128.637
1544.326, 66.591, -128.585
1566.789, 66.727, -128.534
1589.578, 66.864, -128.483
1612.699, 67.005, -128.432
1636.156, 67.149, -128.387
1659.955, 67.295, -128.342
1684.099, 67.443, -128.303
1708.595, 67.594, -128.271
1733.447, 67.750, -128.249
1758.661, 67.909, -128.240
1784.241, 68.072, -128.248
1810.193, 68.239, -128.273
1836.523, 68.409, -128.320
1863.236, 68.586, -128.396
1890.338, 68.766, -128.501
1917.833, 68.951, -128.640
1945.729, 69.140, -128.817
1974.030, 69.333, -129.035
2002.743, 69.529, -129.295
2031.873, 69.728, -129.603
2061.428, 69.930, -129.961
2091.412, 70.135, -130.374
2121.832, 70.343, -130.845
2152.695, 70.552, -131.380
2184.007, 70.763, -131.982
2215.774, 70.975, -132.658
2248.003, 71.187, -133.412
2280.701, 71.397, -134.247
2313.874, 71.605, -135.165
2347.530, 71.810, -136.169
2381.676, 72.009, -137.259
2416.318, 72.202, -138.435
2451.464, 72.387, -139.697
2487.122, 72.563, -141.041
2523.298, 72.728, -142.464
2560.000, 72.881, -143.962
2597.236, 73.021, -145.528
2635.014, 73.146, -147.158
2673.341, 73.254, -148.840
2712.226, 73.345, -150.563
2751.676, 73.417, -152.314
2791.700, 73.471, -154.078
2832.306, 73.505, -155.841
2873.503, 73.521, -157.587
2915.299, 73.518, -159.304
2957.703, 73.499, -160.982
3000.724, 73.465, -162.611
3044.370, 73.415, -164.181
3088.652, 73.353, -165.684
3133.577, 73.278, -167.112
3179.156, 73.193, -168.455
3225.398, 73.101, -169.712
3272.312, 73.001, -170.876
3319.909, 72.896, -171.955
3368.198, 72.790, -172.948
3417.190, 72.683, -173.858
3466.894, 72.577, -174.694
3517.321, 72.473, -175.462
3568.482, 72.373, -176.170
3620.387, 72.276, -176.824
3673.046, 72.183, -177.441
3726.472, 72.093, -178.038
3780.675, 72.004, -178.635
3835.666, 71.897, -179.210
3891.457, 71.767, -179.408
3948.060, 71.726, -179.164
4005.486, 71.781, -179.418
4063.747, 71.806, 179.784
4122.855, 71.794, 178.950
4182.824, 71.775, 178.124
4243.664, 71.754, 177.259
4305.390, 71.732, 176.326
4368.013, 71.706, 175.304
4431.547, 71.671, 174.188
4496.005, 71.623, 172.984
4561.401, 71.560, 171.700
4627.749, 71.478, 170.348
4695.061, 71.372, 168.944
4763.352, 71.241, 167.520
4832.637, 71.081, 166.106
4902.929, 70.892, 164.740
4974.244, 70.673, 163.480
5046.596, 70.430, 162.379
5120.000, 70.170, 161.449
5194.472, 69.899, 160.677
5270.027, 69.619, 160.055
5346.682, 69.329, 159.585
5424.451, 69.030, 159.278
5503.352, 68.723, 159.155
5583.399, 68.412, 159.237
5664.612, 68.101, 159.541
5747.006, 67.797, 160.070
5830.598, 67.506, 160.822
5915.406, 67.234, 161.785
6001.447, 66.986, 162.938
6088.740, 66.766, 164.264
6177.303, 66.582, 165.741
6267.154, 66.439, 167.325
6358.312, 66.340, 168.975
6450.796, 66.291, 170.645
6544.625, 66.294, 172.267
6639.818, 66.352, 173.766
6736.397, 66.464, 175.057
6834.380, 66.627, 176.057
6933.789, 66.836, 176.676
7034.643, 67.082, 176.823
7136.964, 67.355, 176.393
7240.773, 67.637, 175.266
7346.093, 67.900, 173.332
7452.944, 68.098, 170.550
7561.350, 68.181, 167.042
7671.332, 68.108, 163.135
7782.915, 67.876, 159.237
7896.120, 67.512, 155.644
8010.971, 67.044, 152.433
8127.493, 66.482, 149.630
8245.711, 65.825, 147.357
8365.647, 65.091, 145.788
8487.328, 64.311, 144.996
8610.779, 63.510, 144.963
8736.026, 62.709, 145.661
8863.095, 61.923, 147.045
8992.011, 61.170, 149.045
9122.803, 60.457, 151.584
9255.497, 59.795, 154.591
9390.121, 59.189, 157.996
9526.704, 58.640, 161.726
9665.273, 58.152, 165.727
9805.857, 57.718, 169.968
9948.487, 57.345, 174.430
10093.191, 57.037, 179.089
10240.000, 56.800, -176.107
10388.944, 56.621, -171.212
10540.055, 56.515, -166.019
10693.363, 56.513, -160.746
10848.902, 56.603, -155.513
11006.703, 56.781, -150.302
11166.799, 57.061, -145.148
11329.224, 57.455, -140.119
11494.012, 57.977, -135.333
11661.195, 58.644, -130.966
11830.812, 59.472, -127.276
12002.895, 60.476, -124.667
12177.480, 61.649, -123.756
12354.606, 62.927, -125.409
12534.309, 64.132, -130.586
12716.624, 64.936, -139.559
12901.592, 65.004, -150.505
13089.250, 64.293, -159.874
13279.637, 63.130, -165.215
13472.794, 61.920, -166.693
13668.760, 60.846, -165.493
13867.577, 59.976, -162.322
14069.285, 59.360, -157.805
14273.928, 59.013, -152.443
14481.547, 58.946, -146.610
14692.186, 59.187, -140.618
14905.889, 59.789, -134.833
15122.700, 60.839, -129.834
15342.664, 62.493, -126.804
15565.829, 64.899, -128.724
15792.239, 67.537, -142.593
16021.942, 68.295, -172.119
16254.986, 65.915, 163.492
16491.422, 62.631, 157.296
16731.295, 60.208, 156.612
16974.656, 58.168, 160.058
17221.559, 56.750, 165.952
17472.053, 55.937, 172.531
17726.189, 55.733, 178.699
17984.021, 56.237, -177.108
18245.605, 57.554, -178.558
18510.994, 59.053, 166.405
18780.242, 58.396, 135.091
19053.408, 54.209, 111.955
19330.547, 48.346, 108.181
19611.715, 42.161, 118.801
19896.975, 35.409, 148.475
