* Measurement data measured by REW V5.19
* Source: ASIO MOTU M Series, In 1
* Format: 1M Log Swept Sine, 1 sweep at -3.0 dBFS  With no timing reference
* Dated: 13 Mar, 2023 1:02:42 PM
* REW Settings:
*  C-weighting compensation: Off
*  Target level: 75.0 dB
* Note: ; 
* Measurement: Mar 13 13:02:42
* Smoothing: 1/48 octave
* Frequency Step: 1/48 octave
* Start Frequency: 10.1 Hz
*
* Freq(Hz), SPL(dB), Phase(degrees)
10.145, 71.603, -97.215
10.293, 71.657, -97.918
10.443, 71.713, -98.861
10.595, 71.800, -100.092
10.749, 71.891, -101.373
10.905, 71.960, -102.344
11.064, 72.023, -103.207
11.225, 72.093, -104.197
11.388, 72.167, -105.242
11.554, 72.238, -106.256
11.722, 72.307, -107.253
11.892, 72.373, -108.244
12.065, 72.438, -109.230
12.241, 72.501, -110.235
12.419, 72.562, -111.246
12.599, 72.620, -112.226
12.782, 72.675, -113.191
12.968, 72.729, -114.160
13.157, 72.782, -115.115
13.348, 72.832, -116.045
13.543, 72.883, -116.964
13.740, 72.933, -117.874
13.939, 72.984, -118.777
14.142, 73.035, -119.673
14.348, 73.085, -120.568
14.557, 73.135, -121.464
14.768, 73.183, -122.363
14.983, 73.230, -123.261
15.201, 73.275, -124.156
15.422, 73.318, -125.048
15.646, 73.359, -125.930
15.874, 73.398, -126.801
16.105, 73.436, -127.660
16.339, 73.472, -128.506
16.577, 73.508, -129.340
16.818, 73.544, -130.163
17.063, 73.579, -130.978
17.311, 73.614, -131.787
17.563, 73.649, -132.591
17.818, 73.684, -133.393
18.077, 73.717, -134.194
18.340, 73.750, -134.993
18.607, 73.781, -135.789
18.877, 73.810, -136.580
19.152, 73.838, -137.364
19.431, 73.864, -138.138
19.713, 73.889, -138.900
20.000, 73.914, -139.652
20.291, 73.939, -140.397
20.586, 73.963, -141.137
20.885, 73.987, -141.875
21.189, 74.010, -142.612
21.497, 74.032, -143.347
21.810, 74.052, -144.077
22.127, 74.072, -144.801
22.449, 74.090, -145.517
22.776, 74.108, -146.227
23.107, 74.126, -146.934
23.443, 74.143, -147.640
23.784, 74.159, -148.344
24.130, 74.174, -149.046
24.481, 74.188, -149.744
24.837, 74.200, -150.434
25.198, 74.210, -151.112
25.565, 74.221, -151.778
25.937, 74.232, -152.433
26.314, 74.244, -153.084
26.697, 74.256, -153.737
27.085, 74.268, -154.397
27.479, 74.279, -155.059
27.879, 74.287, -155.718
28.284, 74.293, -156.366
28.696, 74.299, -157.002
29.113, 74.305, -157.628
29.537, 74.311, -158.253
29.966, 74.316, -158.876
30.402, 74.320, -159.497
30.844, 74.323, -160.112
31.293, 74.325, -160.721
31.748, 74.326, -161.327
32.210, 74.327, -161.931
32.678, 74.327, -162.531
33.154, 74.325, -163.123
33.636, 74.324, -163.709
34.125, 74.323, -164.294
34.621, 74.321, -164.880
35.125, 74.317, -165.466
35.636, 74.313, -166.047
36.154, 74.307, -166.619
36.680, 74.302, -167.183
37.214, 74.297, -167.746
37.755, 74.291, -168.314
38.304, 74.284, -168.886
38.861, 74.273, -169.447
39.427, 74.262, -169.992
40.000, 74.252, -170.526
40.582, 74.243, -171.062
41.172, 74.232, -171.603
41.771, 74.220, -172.140
42.379, 74.207, -172.668
42.995, 74.193, -173.186
43.620, 74.180, -173.698
44.255, 74.168, -174.204
44.898, 74.156, -174.713
45.552, 74.145, -175.229
46.214, 74.132, -175.752
46.886, 74.118, -176.276
47.568, 74.103, -176.798
48.260, 74.087, -177.315
48.962, 74.070, -177.835
49.674, 74.051, -178.357
50.397, 74.030, -178.869
51.130, 74.009, -179.369
51.874, 73.988, -179.874
52.628, 73.965, 179.618
53.394, 73.939, 179.124
54.170, 73.915, 178.637
54.958, 73.889, 178.146
55.758, 73.862, 177.656
56.569, 73.834, 177.165
57.391, 73.803, 176.679
58.226, 73.772, 176.207
59.073, 73.740, 175.727
59.932, 73.705, 175.245
60.804, 73.668, 174.784
61.688, 73.630, 174.335
62.586, 73.591, 173.893
63.496, 73.550, 173.477
64.420, 73.510, 173.082
65.357, 73.470, 172.702
66.307, 73.431, 172.356
67.272, 73.397, 172.026
68.250, 73.367, 171.695
69.243, 73.341, 171.345
70.250, 73.316, 170.961
71.272, 73.290, 170.571
72.309, 73.267, 170.127
73.360, 73.234, 169.652
74.427, 73.197, 169.220
75.510, 73.163, 168.783
76.608, 73.126, 168.320
77.723, 73.082, 167.865
78.853, 73.035, 167.454
80.000, 72.993, 167.063
81.164, 72.953, 166.635
82.344, 72.907, 166.180
83.542, 72.857, 165.756
84.757, 72.806, 165.325
85.990, 72.750, 164.912
87.241, 72.692, 164.523
88.510, 72.630, 164.146
89.797, 72.566, 163.802
91.103, 72.504, 163.483
92.428, 72.444, 163.186
93.773, 72.393, 162.878
95.137, 72.342, 162.525
96.520, 72.287, 162.167
97.924, 72.227, 161.824
99.349, 72.164, 161.506
100.794, 72.098, 161.164
102.260, 72.024, 160.820
103.747, 71.950, 160.503
105.256, 71.879, 160.191
106.787, 71.814, 159.881
108.340, 71.745, 159.552
109.916, 71.672, 159.262
111.515, 71.596, 158.932
113.137, 71.506, 158.603
114.783, 71.409, 158.285
116.452, 71.304, 158.013
118.146, 71.192, 157.800
119.865, 71.080, 157.695
121.608, 70.968, 157.560
123.377, 70.850, 157.504
125.171, 70.735, 157.486
126.992, 70.622, 157.507
128.839, 70.506, 157.558
130.713, 70.382, 157.644
132.615, 70.249, 157.787
134.543, 70.103, 158.020
136.500, 69.949, 158.415
138.486, 69.792, 159.017
140.500, 69.639, 159.846
142.544, 69.495, 160.956
144.617, 69.380, 162.398
146.721, 69.317, 164.148
148.855, 69.328, 166.105
151.020, 69.440, 168.148
153.217, 69.667, 169.895
155.445, 69.975, 171.074
157.706, 70.326, 171.516
160.000, 70.665, 171.184
162.327, 70.956, 170.242
164.688, 71.180, 168.894
167.084, 71.330, 167.350
169.514, 71.419, 165.765
171.980, 71.457, 164.224
174.481, 71.455, 162.782
177.019, 71.426, 161.473
179.594, 71.376, 160.278
182.206, 71.308, 159.203
184.856, 71.229, 158.227
187.545, 71.142, 157.333
190.273, 71.051, 156.507
193.041, 70.954, 155.776
195.849, 70.854, 155.123
198.697, 70.752, 154.510
201.587, 70.651, 153.947
204.520, 70.548, 153.442
207.494, 70.444, 152.977
210.512, 70.340, 152.534
213.574, 70.236, 152.114
216.681, 70.130, 151.721
219.833, 70.022, 151.356
223.030, 69.911, 151.023
226.274, 69.794, 150.693
229.565, 69.684, 150.413
232.905, 69.577, 150.131
236.292, 69.463, 149.895
239.729, 69.345, 149.687
243.216, 69.229, 149.487
246.754, 69.111, 149.304
250.343, 68.991, 149.173
253.984, 68.871, 149.090
257.678, 68.748, 149.015
261.426, 68.628, 148.968
265.229, 68.508, 148.952
269.087, 68.385, 148.971
273.001, 68.266, 149.055
276.972, 68.154, 149.143
281.000, 68.048, 149.316
285.088, 67.957, 149.534
289.234, 67.854, 149.604
293.441, 67.757, 149.715
297.710, 67.673, 149.789
302.040, 67.588, 149.815
306.433, 67.496, 149.800
310.890, 67.394, 149.774
315.412, 67.287, 149.757
320.000, 67.178, 149.738
324.655, 67.060, 149.741
329.377, 66.938, 149.779
334.168, 66.811, 149.867
339.028, 66.679, 149.969
343.959, 66.543, 150.076
348.962, 66.402, 150.237
354.038, 66.258, 150.440
359.188, 66.111, 150.693
364.412, 65.960, 150.992
369.713, 65.803, 151.347
375.090, 65.644, 151.785
380.546, 65.485, 152.305
386.081, 65.324, 152.915
391.697, 65.165, 153.639
397.395, 65.011, 154.475
403.175, 64.866, 155.430
409.039, 64.736, 156.489
414.989, 64.625, 157.623
421.025, 64.535, 158.828
427.149, 64.469, 160.063
433.362, 64.427, 161.274
439.665, 64.409, 162.436
446.060, 64.408, 163.513
452.548, 64.422, 164.468
459.131, 64.447, 165.294
465.809, 64.474, 166.005
472.584, 64.499, 166.579
479.458, 64.514, 167.047
486.432, 64.518, 167.467
493.507, 64.509, 167.864
500.686, 64.492, 168.266
507.968, 64.469, 168.685
515.357, 64.441, 169.132
522.853, 64.412, 169.610
530.458, 64.383, 170.109
538.174, 64.356, 170.617
546.002, 64.330, 171.127
553.943, 64.305, 171.642
562.001, 64.280, 172.167
570.175, 64.256, 172.697
578.469, 64.234, 173.226
586.883, 64.213, 173.750
595.419, 64.192, 174.276
604.080, 64.171, 174.790
612.866, 64.149, 175.305
621.780, 64.125, 175.831
630.824, 64.102, 176.359
640.000, 64.078, 176.897
649.309, 64.057, 177.445
658.753, 64.035, 177.993
668.335, 64.014, 178.546
678.056, 63.994, 179.096
687.919, 63.973, 179.646
697.925, 63.950, -179.784
708.076, 63.926, -179.212
718.376, 63.902, -178.635
728.825, 63.878, -178.041
739.426, 63.853, -177.433
750.181, 63.828, -176.811
761.093, 63.801, -176.175
772.163, 63.773, -175.504
783.394, 63.745, -174.803
794.789, 63.718, -174.067
806.349, 63.694, -173.296
818.078, 63.672, -172.488
829.977, 63.654, -171.653
842.050, 63.640, -170.793
854.297, 63.631, -169.897
866.724, 63.627, -168.988
879.330, 63.628, -168.058
892.120, 63.632, -167.106
905.097, 63.641, -166.132
918.262, 63.656, -165.136
931.618, 63.675, -164.113
945.169, 63.701, -163.065
958.917, 63.736, -161.988
972.864, 63.781, -160.889
987.015, 63.837, -159.785
1001.371, 63.904, -158.689
1015.937, 63.983, -157.609
1030.714, 64.073, -156.556
1045.706, 64.173, -155.543
1060.916, 64.281, -154.578
1076.347, 64.396, -153.674
1092.003, 64.517, -152.820
1107.887, 64.641, -152.024
1124.001, 64.768, -151.283
1140.350, 64.896, -150.589
1156.937, 65.025, -149.936
1173.765, 65.154, -149.326
1190.838, 65.283, -148.746
1208.159, 65.413, -148.203
1225.732, 65.543, -147.688
1243.561, 65.673, -147.195
1261.649, 65.805, -146.728
1280.000, 65.937, -146.286
1298.618, 66.070, -145.865
1317.507, 66.205, -145.474
1336.670, 66.340, -145.114
1356.113, 66.476, -144.785
1375.838, 66.612, -144.485
1395.850, 66.747, -144.216
1416.153, 66.881, -143.974
1436.751, 67.014, -143.756
1457.649, 67.146, -143.560
1478.851, 67.276, -143.384
1500.362, 67.405, -143.225
1522.185, 67.532, -143.079
1544.326, 67.659, -142.943
1566.789, 67.785, -142.816
1589.578, 67.911, -142.698
1612.699, 68.037, -142.590
1636.156, 68.164, -142.491
1659.955, 68.292, -142.404
1684.099, 68.420, -142.328
1708.595, 68.550, -142.266
1733.447, 68.681, -142.221
1758.661, 68.813, -142.195
1784.241, 68.946, -142.189
1810.193, 69.080, -142.206
1836.523, 69.215, -142.243
1863.236, 69.351, -142.298
1890.338, 69.488, -142.377
1917.833, 69.626, -142.484
1945.729, 69.765, -142.620
1974.030, 69.904, -142.782
2002.743, 70.044, -142.980
2031.873, 70.185, -143.213
2061.428, 70.326, -143.488
2091.412, 70.465, -143.805
2121.832, 70.603, -144.167
2152.695, 70.737, -144.573
2184.007, 70.868, -145.021
2215.774, 70.996, -145.510
2248.003, 71.116, -146.031
2280.701, 71.230, -146.581
2313.874, 71.337, -147.153
2347.530, 71.437, -147.740
2381.676, 71.529, -148.334
2416.318, 71.615, -148.931
2451.464, 71.694, -149.521
2487.122, 71.768, -150.098
2523.298, 71.837, -150.656
2560.000, 71.902, -151.191
2597.236, 71.965, -151.703
2635.014, 72.026, -152.196
2673.341, 72.088, -152.678
2712.226, 72.149, -153.153
2751.676, 72.210, -153.625
2791.700, 72.270, -154.095
2832.306, 72.328, -154.573
2873.503, 72.382, -155.054
2915.299, 72.434, -155.527
2957.703, 72.481, -155.983
3000.724, 72.526, -156.412
3044.370, 72.571, -156.809
3088.652, 72.616, -157.170
3133.577, 72.665, -157.498
3179.156, 72.717, -157.795
3225.398, 72.777, -158.066
3272.312, 72.844, -158.320
3319.909, 72.922, -158.566
3368.198, 73.011, -158.821
3417.190, 73.112, -159.102
3466.894, 73.227, -159.427
3517.321, 73.356, -159.814
3568.482, 73.498, -160.289
3620.387, 73.654, -160.872
3673.046, 73.823, -161.600
3726.472, 74.002, -162.507
3780.675, 74.186, -163.622
3835.666, 74.372, -164.979
3891.457, 74.555, -166.607
3948.060, 74.724, -168.525
4005.486, 74.868, -170.742
4063.747, 74.978, -173.258
4122.855, 75.042, -176.044
4182.824, 75.047, -179.065
4243.664, 74.980, 177.736
4305.390, 74.827, 174.494
4368.013, 74.582, 171.383
4431.547, 74.254, 168.574
4496.005, 73.860, 166.215
4561.401, 73.425, 164.397
4627.749, 72.979, 163.127
4695.061, 72.548, 162.301
4763.352, 72.142, 161.709
4832.637, 71.740, 161.189
4902.929, 71.315, 160.816
4974.244, 70.866, 160.775
5046.596, 70.410, 161.141
5120.000, 69.965, 161.906
5194.472, 69.539, 163.045
5270.027, 69.141, 164.529
5346.682, 68.775, 166.327
5424.451, 68.451, 168.418
5503.352, 68.172, 170.732
5583.399, 67.941, 173.250
5664.612, 67.762, 175.930
5747.006, 67.636, 178.723
5830.598, 67.566, -178.406
5915.406, 67.553, -175.494
6001.447, 67.600, -172.589
6088.740, 67.707, -169.728
6177.303, 67.878, -166.951
6267.154, 68.116, -164.331
6358.312, 68.422, -161.935
6450.796, 68.796, -159.851
6544.625, 69.237, -158.189
6639.818, 69.738, -157.069
6736.397, 70.287, -156.626
6834.380, 70.868, -157.016
6933.789, 71.446, -158.385
7034.643, 71.976, -160.818
7136.964, 72.394, -164.262
7240.773, 72.645, -168.443
7346.093, 72.692, -172.870
7452.944, 72.546, -177.008
7561.350, 72.250, 179.564
7671.332, 71.857, 177.067
7782.915, 71.422, 175.556
7896.120, 70.995, 174.991
8010.971, 70.629, 175.326
8127.493, 70.392, 176.131
8245.711, 70.227, 176.764
8365.647, 70.083, 177.627
8487.328, 70.027, 178.787
8610.779, 70.088, 179.918
8736.026, 70.271, -179.329
8863.095, 70.561, -179.328
8992.011, 70.917, 179.530
9122.803, 71.265, 176.906
9255.497, 71.490, 172.694
9390.121, 71.468, 167.279
9526.704, 71.118, 161.600
9665.273, 70.461, 156.761
9805.857, 69.597, 153.511
9948.487, 68.658, 152.045
10093.191, 67.750, 152.167
10240.000, 66.944, 153.491
10388.944, 66.278, 155.588
10540.055, 65.762, 158.074
10693.363, 65.410, 160.560
10848.902, 65.178, 162.457
11006.703, 64.987, 163.651
11166.799, 64.771, 164.154
11329.224, 64.477, 164.219
11494.012, 64.061, 164.049
11661.195, 63.481, 164.337
11830.812, 62.796, 165.771
12002.895, 62.103, 168.588
12177.480, 61.493, 172.703
12354.606, 61.036, 177.860
12534.309, 60.785, -176.288
12716.624, 60.783, -170.151
12901.592, 61.059, -164.223
13089.250, 61.621, -159.100
13279.637, 62.445, -155.477
13472.794, 63.455, -154.065
13668.760, 64.507, -155.408
13867.577, 65.421, -159.451
14069.285, 66.076, -165.401
14273.928, 66.480, -172.340
14481.547, 66.713, 179.844
14692.186, 66.760, 170.269
14905.889, 66.358, 158.404
15122.700, 65.182, 146.188
15342.664, 63.240, 137.297
15565.829, 60.927, 133.630
15792.239, 58.659, 134.563
16021.942, 56.652, 138.737
16254.986, 54.971, 145.257
16491.422, 53.740, 153.192
16731.295, 52.846, 161.080
16974.656, 52.213, 169.485
17221.559, 51.913, 178.085
17472.053, 51.964, -173.577
17726.189, 52.393, -166.013
17984.021, 53.213, -159.977
18245.605, 54.347, -156.351
18510.994, 55.874, -154.190
18780.242, 58.480, -157.640
19053.408, 60.471, -175.438
19330.547, 60.906, 160.118
19611.715, 59.941, 135.468
19896.975, 57.918, 115.251
