* Measurement data measured by REW V5.19
* Source: ASIO MOTU M Series, In 1
* Format: 1M Log Swept Sine, 1 sweep at -3.0 dBFS  With no timing reference
* Dated: 10 Mar, 2023 2:07:18 PM
* REW Settings:
*  C-weighting compensation: Off
*  Target level: 75.0 dB
* Note: ; 
* Measurement: Mar 10 14:07:18
* Smoothing: 1/48 octave
* Frequency Step: 1/48 octave
* Start Frequency: 10.1 Hz
*
* Freq(Hz), SPL(dB), Phase(degrees)
10.145, 61.487, -112.523
10.293, 61.537, -112.902
10.443, 61.589, -113.437
10.595, 61.676, -114.164
10.749, 61.769, -114.965
10.905, 61.848, -115.670
11.064, 61.920, -116.375
11.225, 61.992, -117.188
11.388, 62.061, -118.067
11.554, 62.119, -118.934
11.722, 62.168, -119.794
11.892, 62.210, -120.619
12.065, 62.244, -121.410
12.241, 62.277, -122.162
12.419, 62.308, -122.873
12.599, 62.340, -123.533
12.782, 62.373, -124.158
12.968, 62.411, -124.776
13.157, 62.450, -125.388
13.348, 62.491, -125.998
13.543, 62.530, -126.608
13.740, 62.566, -127.218
13.939, 62.600, -127.804
14.142, 62.632, -128.361
14.348, 62.663, -128.870
14.557, 62.698, -129.338
14.768, 62.739, -129.768
14.983, 62.790, -130.186
15.201, 62.849, -130.621
15.422, 62.916, -131.099
15.646, 62.987, -131.651
15.874, 63.056, -132.276
16.105, 63.119, -132.974
16.339, 63.170, -133.712
16.577, 63.210, -134.459
16.818, 63.237, -135.186
17.063, 63.256, -135.860
17.311, 63.272, -136.476
17.563, 63.288, -137.038
17.818, 63.307, -137.562
18.077, 63.330, -138.074
18.340, 63.354, -138.585
18.607, 63.379, -139.099
18.877, 63.403, -139.609
19.152, 63.425, -140.100
19.431, 63.448, -140.561
19.713, 63.476, -140.998
20.000, 63.509, -141.427
20.291, 63.549, -141.875
20.586, 63.594, -142.367
20.885, 63.637, -142.917
21.189, 63.674, -143.515
21.497, 63.701, -144.131
21.810, 63.716, -144.717
22.127, 63.722, -145.231
22.449, 63.727, -145.648
22.776, 63.740, -145.975
23.107, 63.766, -146.254
23.443, 63.807, -146.550
23.784, 63.858, -146.918
24.130, 63.909, -147.378
24.481, 63.951, -147.908
24.837, 63.980, -148.451
25.198, 64.000, -148.955
25.565, 64.017, -149.402
25.937, 64.039, -149.816
26.314, 64.065, -150.243
26.697, 64.090, -150.710
27.085, 64.109, -151.204
27.479, 64.120, -151.684
27.879, 64.127, -152.117
28.284, 64.138, -152.511
28.696, 64.154, -152.901
29.113, 64.172, -153.315
29.537, 64.188, -153.745
29.966, 64.201, -154.163
30.402, 64.217, -154.554
30.844, 64.237, -154.939
31.293, 64.262, -155.351
31.748, 64.286, -155.798
32.210, 64.305, -156.255
32.678, 64.321, -156.694
33.154, 64.338, -157.110
33.636, 64.355, -157.521
34.125, 64.372, -157.941
34.621, 64.386, -158.362
35.125, 64.397, -158.764
35.636, 64.407, -159.141
36.154, 64.418, -159.506
36.680, 64.430, -159.874
37.214, 64.441, -160.245
37.755, 64.451, -160.612
38.304, 64.461, -160.969
38.861, 64.473, -161.331
39.427, 64.485, -161.713
40.000, 64.495, -162.111
40.582, 64.502, -162.504
41.172, 64.509, -162.882
41.771, 64.516, -163.256
42.379, 64.523, -163.630
42.995, 64.530, -163.994
43.620, 64.539, -164.357
44.255, 64.548, -164.739
44.898, 64.552, -165.129
45.552, 64.552, -165.492
46.214, 64.554, -165.824
46.886, 64.558, -166.159
47.568, 64.562, -166.507
48.260, 64.563, -166.854
48.962, 64.563, -167.198
49.674, 64.562, -167.527
50.397, 64.562, -167.844
51.130, 64.564, -168.185
51.874, 64.561, -168.541
52.628, 64.554, -168.853
53.394, 64.554, -169.144
54.170, 64.557, -169.471
54.958, 64.556, -169.810
55.758, 64.553, -170.136
56.569, 64.551, -170.457
57.391, 64.550, -170.776
58.226, 64.548, -171.120
59.073, 64.539, -171.460
59.932, 64.529, -171.754
60.804, 64.524, -172.057
61.688, 64.516, -172.384
62.586, 64.505, -172.691
63.496, 64.495, -172.973
64.420, 64.490, -173.252
65.357, 64.487, -173.565
66.307, 64.478, -173.892
67.272, 64.468, -174.205
68.250, 64.456, -174.523
69.243, 64.441, -174.833
70.250, 64.426, -175.137
71.272, 64.408, -175.442
72.309, 64.391, -175.732
73.360, 64.374, -176.038
74.427, 64.353, -176.338
75.510, 64.334, -176.610
76.608, 64.314, -176.895
77.723, 64.290, -177.168
78.853, 64.266, -177.421
80.000, 64.241, -177.675
81.164, 64.214, -177.928
82.344, 64.185, -178.161
83.542, 64.157, -178.382
84.757, 64.130, -178.605
85.990, 64.102, -178.818
87.241, 64.076, -179.024
88.510, 64.050, -179.231
89.797, 64.022, -179.434
91.103, 63.993, -179.619
92.428, 63.964, -179.802
93.773, 63.933, -179.996
95.137, 63.898, 179.808
96.520, 63.859, 179.631
97.924, 63.821, 179.480
99.349, 63.782, 179.356
100.794, 63.750, 179.257
102.260, 63.719, 179.137
103.747, 63.689, 179.015
105.256, 63.658, 178.868
106.787, 63.627, 178.704
108.340, 63.589, 178.534
109.916, 63.546, 178.410
111.515, 63.504, 178.347
113.137, 63.462, 178.274
114.783, 63.423, 178.264
116.452, 63.393, 178.231
118.146, 63.367, 178.208
119.865, 63.348, 178.104
121.608, 63.299, 178.012
123.377, 63.261, 178.002
125.171, 63.219, 177.938
126.992, 63.178, 177.900
128.839, 63.142, 177.868
130.713, 63.107, 177.852
132.615, 63.073, 177.858
134.543, 63.043, 177.873
136.500, 63.013, 177.852
138.486, 62.985, 177.748
140.500, 62.945, 177.605
142.544, 62.903, 177.443
144.617, 62.851, 177.317
146.721, 62.785, 177.177
148.855, 62.718, 177.046
151.020, 62.646, 177.043
153.217, 62.579, 177.072
155.445, 62.480, 177.179
157.706, 62.386, 177.364
160.000, 62.290, 177.561
162.327, 62.197, 177.750
164.688, 62.097, 178.075
167.084, 62.000, 178.451
169.514, 61.902, 178.856
171.980, 61.813, 179.391
174.481, 61.727, -179.920
177.019, 61.637, -179.102
179.594, 61.547, -178.144
182.206, 61.475, -176.974
184.856, 61.431, -175.633
187.545, 61.433, -174.195
190.273, 61.484, -172.738
193.041, 61.593, -171.281
195.849, 61.755, -169.876
198.697, 61.988, -168.801
201.587, 62.248, -168.168
204.520, 62.521, -167.975
207.494, 62.783, -168.319
210.512, 62.992, -169.067
213.574, 63.153, -170.030
216.681, 63.262, -171.232
219.833, 63.321, -172.394
223.030, 63.360, -173.399
226.274, 63.337, -174.385
229.565, 63.302, -175.328
232.905, 63.254, -176.112
236.292, 63.192, -176.816
239.729, 63.113, -177.414
243.216, 63.020, -177.840
246.754, 62.924, -178.208
250.343, 62.829, -178.519
253.984, 62.730, -178.678
257.678, 62.634, -178.770
261.426, 62.542, -178.796
265.229, 62.453, -178.744
269.087, 62.367, -178.649
273.001, 62.283, -178.515
276.972, 62.205, -178.377
281.000, 62.130, -178.221
285.088, 62.054, -178.045
289.234, 61.978, -177.872
293.441, 61.899, -177.699
297.710, 61.813, -177.483
302.040, 61.725, -177.201
306.433, 61.632, -176.933
310.890, 61.537, -176.558
315.412, 61.439, -176.101
320.000, 61.353, -175.396
324.655, 61.310, -174.880
329.377, 61.243, -174.482
334.168, 61.162, -174.025
339.028, 61.082, -173.509
343.959, 61.002, -172.908
348.962, 60.919, -172.333
354.038, 60.830, -171.693
359.188, 60.735, -170.973
364.412, 60.639, -170.133
369.713, 60.539, -169.152
375.090, 60.448, -168.016
380.546, 60.361, -166.738
386.081, 60.292, -165.339
391.697, 60.230, -163.778
397.395, 60.196, -162.012
403.175, 60.206, -160.097
409.039, 60.264, -158.087
414.989, 60.388, -156.061
421.025, 60.572, -154.231
427.149, 60.800, -152.728
433.362, 61.059, -151.618
439.665, 61.328, -150.934
446.060, 61.575, -150.641
452.548, 61.783, -150.611
459.131, 61.958, -150.726
465.809, 62.107, -150.892
472.584, 62.229, -151.053
479.458, 62.337, -151.267
486.432, 62.426, -151.458
493.507, 62.499, -151.646
500.686, 62.548, -151.722
507.968, 62.574, -151.884
515.357, 62.588, -151.851
522.853, 62.602, -151.694
530.458, 62.624, -151.422
538.174, 62.655, -151.055
546.002, 62.698, -150.699
553.943, 62.750, -150.338
562.001, 62.811, -150.023
570.175, 62.875, -149.766
578.469, 62.935, -149.540
586.883, 62.992, -149.343
595.419, 63.044, -149.164
604.080, 63.091, -148.992
612.866, 63.132, -148.810
621.780, 63.166, -148.606
630.824, 63.199, -148.358
640.000, 63.234, -148.068
649.309, 63.269, -147.762
658.753, 63.306, -147.414
668.335, 63.344, -147.056
678.056, 63.385, -146.700
687.919, 63.429, -146.358
697.925, 63.473, -146.013
708.076, 63.514, -145.668
718.376, 63.556, -145.302
728.825, 63.597, -144.926
739.426, 63.638, -144.506
750.181, 63.677, -144.071
761.093, 63.717, -143.592
772.163, 63.761, -143.088
783.394, 63.813, -142.584
794.789, 63.868, -142.055
806.349, 63.924, -141.519
818.078, 63.985, -140.983
829.977, 64.050, -140.442
842.050, 64.117, -139.896
854.297, 64.187, -139.327
866.724, 64.264, -138.749
879.330, 64.346, -138.156
892.120, 64.431, -137.541
905.097, 64.523, -136.926
918.262, 64.621, -136.315
931.618, 64.727, -135.716
945.169, 64.840, -135.135
958.917, 64.958, -134.577
972.864, 65.083, -134.059
987.015, 65.212, -133.574
1001.371, 65.344, -133.126
1015.937, 65.475, -132.715
1030.714, 65.606, -132.325
1045.706, 65.735, -131.922
1060.916, 65.871, -131.541
1076.347, 66.017, -131.195
1092.003, 66.166, -130.894
1107.887, 66.313, -130.635
1124.001, 66.457, -130.427
1140.350, 66.595, -130.245
1156.937, 66.725, -130.055
1173.765, 66.851, -129.812
1190.838, 66.982, -129.508
1208.159, 67.124, -129.168
1225.732, 67.278, -128.833
1243.561, 67.442, -128.539
1261.649, 67.611, -128.288
1280.000, 67.786, -128.105
1298.618, 67.967, -127.970
1317.507, 68.151, -127.887
1336.670, 68.334, -127.829
1356.113, 68.515, -127.804
1375.838, 68.695, -127.790
1395.850, 68.881, -127.805
1416.153, 69.075, -127.848
1436.751, 69.274, -127.919
1457.649, 69.475, -128.027
1478.851, 69.684, -128.173
1500.362, 69.903, -128.387
1522.185, 70.129, -128.660
1544.326, 70.359, -129.013
1566.789, 70.591, -129.456
1589.578, 70.831, -130.005
1612.699, 71.078, -130.687
1636.156, 71.324, -131.499
1659.955, 71.566, -132.467
1684.099, 71.801, -133.591
1708.595, 72.026, -134.885
1733.447, 72.240, -136.349
1758.661, 72.436, -137.980
1784.241, 72.604, -139.743
1810.193, 72.739, -141.623
1836.523, 72.839, -143.579
1863.236, 72.902, -145.565
1890.338, 72.927, -147.528
1917.833, 72.914, -149.414
1945.729, 72.869, -151.178
1974.030, 72.796, -152.780
2002.743, 72.702, -154.198
2031.873, 72.593, -155.417
2061.428, 72.477, -156.437
2091.412, 72.360, -157.269
2121.832, 72.247, -157.927
2152.695, 72.140, -158.437
2184.007, 72.044, -158.824
2215.774, 71.957, -159.110
2248.003, 71.882, -159.312
2280.701, 71.818, -159.440
2313.874, 71.764, -159.498
2347.530, 71.726, -159.494
2381.676, 71.708, -159.461
2416.318, 71.706, -159.431
2451.464, 71.719, -159.443
2487.122, 71.742, -159.517
2523.298, 71.768, -159.653
2560.000, 71.798, -159.839
2597.236, 71.832, -160.078
2635.014, 71.864, -160.348
2673.341, 71.893, -160.646
2712.226, 71.921, -160.963
2751.676, 71.947, -161.293
2791.700, 71.971, -161.632
2832.306, 71.995, -161.975
2873.503, 72.014, -162.315
2915.299, 72.032, -162.648
2957.703, 72.054, -162.972
3000.724, 72.078, -163.283
3044.370, 72.108, -163.585
3088.652, 72.135, -163.866
3133.577, 72.167, -164.138
3179.156, 72.209, -164.398
3225.398, 72.262, -164.651
3272.312, 72.327, -164.894
3319.909, 72.403, -165.133
3368.198, 72.500, -165.377
3417.190, 72.620, -165.649
3466.894, 72.773, -165.988
3517.321, 72.970, -166.476
3568.482, 73.219, -167.211
3620.387, 73.525, -168.362
3673.046, 73.880, -170.151
3726.472, 74.264, -172.898
3780.675, 74.625, -176.944
3835.666, 74.861, 177.534
3891.457, 74.845, 170.822
3948.060, 74.487, 163.814
4005.486, 73.803, 157.631
4063.747, 72.892, 153.042
4122.855, 71.873, 150.209
4182.824, 70.838, 148.924
4243.664, 69.831, 148.897
4305.390, 68.869, 149.916
4368.013, 67.956, 151.886
4431.547, 67.100, 154.809
4496.005, 66.324, 158.741
4561.401, 65.664, 163.727
4627.749, 65.182, 169.705
4695.061, 64.951, 176.381
4763.352, 65.027, -176.841
4832.637, 65.414, -170.780
4902.929, 66.043, -166.217
4974.244, 66.792, -163.629
5046.596, 67.525, -163.057
5120.000, 68.135, -164.156
5194.472, 68.557, -166.335
5270.027, 68.779, -168.956
5346.682, 68.816, -171.477
5424.451, 68.715, -173.555
5503.352, 68.526, -175.031
5583.399, 68.291, -175.882
5664.612, 68.046, -176.163
5747.006, 67.814, -175.961
5830.598, 67.607, -175.377
5915.406, 67.435, -174.505
6001.447, 67.307, -173.440
6088.740, 67.230, -172.246
6177.303, 67.206, -170.978
6267.154, 67.235, -169.744
6358.312, 67.321, -168.635
6450.796, 67.462, -167.752
6544.625, 67.654, -167.222
6639.818, 67.893, -167.184
6736.397, 68.154, -167.778
6834.380, 68.412, -169.113
6933.789, 68.621, -171.217
7034.643, 68.741, -174.028
7136.964, 68.737, -177.375
7240.773, 68.577, 179.051
7346.093, 68.247, 175.673
7452.944, 67.769, 172.912
7561.350, 67.194, 171.045
7671.332, 66.579, 170.133
7782.915, 65.976, 170.132
7896.120, 65.416, 170.948
8010.971, 64.932, 172.406
8127.493, 64.552, 174.263
8245.711, 64.285, 176.257
8365.647, 64.130, 178.078
8487.328, 64.069, 179.428
8610.779, 64.065, -179.933
8736.026, 64.077, 179.798
8863.095, 63.984, 178.238
8992.011, 63.661, 176.392
9122.803, 63.145, 175.058
9255.497, 62.488, 174.794
9390.121, 61.785, 175.892
9526.704, 61.127, 178.275
9665.273, 60.580, -178.347
9805.857, 60.189, -174.330
9948.487, 59.980, -170.032
10093.191, 59.961, -165.807
10240.000, 60.128, -162.028
10388.944, 60.476, -159.170
10540.055, 60.969, -157.876
10693.363, 61.513, -158.905
10848.902, 61.870, -163.199
11006.703, 61.561, -170.004
11166.799, 60.241, -174.395
11329.224, 58.348, -169.723
11494.012, 57.306, -155.982
11661.195, 57.992, -141.283
11830.812, 59.729, -132.167
12002.895, 61.714, -129.528
12177.480, 63.574, -132.100
12354.606, 65.165, -138.557
12534.309, 66.435, -147.937
12716.624, 67.380, -159.794
12901.592, 67.933, -174.257
13089.250, 67.878, 168.834
13279.637, 66.966, 151.537
13472.794, 65.235, 137.178
13668.760, 63.019, 127.673
13867.577, 60.689, 122.888
14069.285, 58.497, 121.663
14273.928, 56.532, 122.928
14481.547, 54.814, 125.968
14692.186, 53.333, 130.390
14905.889, 52.112, 135.971
15122.700, 51.180, 142.605
15342.664, 50.625, 150.197
15565.829, 50.635, 158.335
15792.239, 51.503, 165.031
16021.942, 53.081, 165.409
16254.986, 54.284, 157.055
16491.422, 54.691, 145.541
16731.295, 54.538, 132.918
16974.656, 53.859, 119.994
17221.559, 52.529, 107.362
17472.053, 50.638, 98.261
17726.189, 48.713, 91.963
17984.021, 46.826, 83.237
18245.605, 43.563, 71.467
18510.994, 37.262, 92.409
18780.242, 36.653, 137.720
19053.408, 39.284, 146.216
19330.547, 39.810, 145.997
19611.715, 40.068, 149.908
19896.975, 40.535, 154.137
