* Measurement data measured by REW V5.19
* Source: ASIO MOTU M Series, In 1
* Format: 1M Log Swept Sine, 1 sweep at -3.0 dBFS  With no timing reference
* Dated: 7 Feb, 2023 4:28:03 PM
* REW Settings:
*  C-weighting compensation: Off
*  Target level: 75.0 dB
* Note: ; 
* Measurement: Feb 7 16:28:03
* Smoothing: 1/48 octave
* Frequency Step: 1/48 octave
* Start Frequency: 10.1 Hz
*
* Freq(Hz), SPL(dB), Phase(degrees)
10.145, 61.639, -110.916
10.293, 61.678, -111.521
10.443, 61.718, -112.340
10.595, 61.778, -113.419
10.749, 61.838, -114.549
10.905, 61.878, -115.418
11.064, 61.908, -116.192
11.225, 61.941, -117.050
11.388, 61.974, -117.934
11.554, 62.003, -118.760
11.722, 62.030, -119.541
11.892, 62.057, -120.289
12.065, 62.084, -121.009
12.241, 62.114, -121.732
12.419, 62.147, -122.450
12.599, 62.180, -123.149
12.782, 62.214, -123.846
12.968, 62.249, -124.565
13.157, 62.283, -125.290
13.348, 62.315, -126.014
13.543, 62.345, -126.739
13.740, 62.374, -127.466
13.939, 62.399, -128.183
14.142, 62.424, -128.888
14.348, 62.446, -129.575
14.557, 62.469, -130.248
14.768, 62.492, -130.906
14.983, 62.515, -131.551
15.201, 62.540, -132.186
15.422, 62.565, -132.816
15.646, 62.592, -133.445
15.874, 62.619, -134.073
16.105, 62.646, -134.702
16.339, 62.672, -135.330
16.577, 62.697, -135.952
16.818, 62.722, -136.566
17.063, 62.745, -137.169
17.311, 62.768, -137.761
17.563, 62.791, -138.343
17.818, 62.814, -138.917
18.077, 62.835, -139.484
18.340, 62.856, -140.042
18.607, 62.875, -140.588
18.877, 62.893, -141.117
19.152, 62.910, -141.626
19.431, 62.929, -142.121
19.713, 62.949, -142.613
20.000, 62.971, -143.111
20.291, 62.991, -143.623
20.586, 63.008, -144.144
20.885, 63.021, -144.660
21.189, 63.031, -145.152
21.497, 63.043, -145.615
21.810, 63.058, -146.067
22.127, 63.079, -146.542
22.449, 63.101, -147.074
22.776, 63.116, -147.663
23.107, 63.118, -148.265
23.443, 63.105, -148.806
23.784, 63.087, -149.218
24.130, 63.079, -149.492
24.481, 63.094, -149.700
24.837, 63.134, -149.960
25.198, 63.184, -150.360
25.565, 63.227, -150.900
25.937, 63.251, -151.488
26.314, 63.256, -152.010
26.697, 63.258, -152.409
27.085, 63.269, -152.725
27.479, 63.292, -153.048
27.879, 63.316, -153.426
28.284, 63.331, -153.822
28.696, 63.338, -154.162
29.113, 63.349, -154.423
29.537, 63.374, -154.677
29.966, 63.408, -155.026
30.402, 63.436, -155.497
30.844, 63.446, -156.016
31.293, 63.441, -156.478
31.748, 63.435, -156.851
32.210, 63.440, -157.191
32.678, 63.453, -157.571
33.154, 63.466, -158.003
33.636, 63.472, -158.441
34.125, 63.476, -158.826
34.621, 63.485, -159.150
35.125, 63.508, -159.462
35.636, 63.538, -159.834
36.154, 63.560, -160.275
36.680, 63.564, -160.688
37.214, 63.560, -160.959
37.755, 63.572, -161.130
38.304, 63.602, -161.369
38.861, 63.624, -161.757
39.427, 63.623, -162.178
40.000, 63.609, -162.508
40.582, 63.602, -162.769
41.172, 63.605, -163.047
41.771, 63.617, -163.392
42.379, 63.629, -163.834
42.995, 63.629, -164.308
43.620, 63.626, -164.666
44.255, 63.647, -164.956
44.898, 63.680, -165.376
45.552, 63.691, -165.817
46.214, 63.699, -166.048
46.886, 63.735, -166.311
47.568, 63.739, -166.804
48.260, 63.679, -167.005
48.962, 63.657, -166.677
49.674, 63.722, -166.596
50.397, 63.761, -167.189
51.130, 63.706, -167.786
51.874, 63.654, -167.923
52.628, 63.672, -168.312
53.394, 63.600, -169.339
54.170, 63.366, -169.162
54.958, 63.399, -167.118
55.758, 63.827, -166.865
56.569, 64.021, -169.385
57.391, 63.846, -170.874
58.226, 63.758, -170.647
59.073, 63.781, -170.796
59.932, 63.761, -170.956
60.804, 63.789, -171.035
61.688, 63.805, -171.511
62.586, 63.785, -171.868
63.496, 63.784, -172.186
64.420, 63.778, -172.507
65.357, 63.785, -172.773
66.307, 63.793, -173.112
67.272, 63.789, -173.467
68.250, 63.767, -173.769
69.243, 63.743, -173.964
70.250, 63.732, -174.149
71.272, 63.734, -174.444
72.309, 63.723, -174.871
73.360, 63.702, -175.141
74.427, 63.710, -175.388
75.510, 63.708, -175.713
76.608, 63.700, -175.946
77.723, 63.692, -176.165
78.853, 63.687, -176.398
80.000, 63.676, -176.738
81.164, 63.658, -176.984
82.344, 63.662, -177.250
83.542, 63.654, -177.524
84.757, 63.650, -177.671
85.990, 63.645, -177.852
87.241, 63.606, -178.035
88.510, 63.581, -177.859
89.797, 63.636, -178.174
91.103, 63.610, -178.899
92.428, 63.572, -179.251
93.773, 63.558, -179.574
95.137, 63.524, -179.782
96.520, 63.509, -179.791
97.924, 63.491, -180.000
99.349, 63.462, 179.890
100.794, 63.455, 179.506
102.260, 63.412, 179.189
103.747, 63.390, 179.030
105.256, 63.389, 178.887
106.787, 63.368, 178.609
108.340, 63.343, 178.477
109.916, 63.309, 178.268
111.515, 63.295, 178.205
113.137, 63.285, 177.980
114.783, 63.259, 177.772
116.452, 63.222, 177.643
118.146, 63.196, 177.568
119.865, 63.173, 177.430
121.608, 63.153, 177.312
123.377, 63.119, 177.204
125.171, 63.089, 177.138
126.992, 63.039, 177.042
128.839, 63.023, 177.241
130.713, 63.036, 177.340
132.615, 63.064, 177.312
134.543, 63.082, 177.151
136.500, 63.095, 176.935
138.486, 63.115, 176.699
140.500, 63.116, 176.515
142.544, 63.113, 176.363
144.617, 63.087, 176.095
146.721, 63.069, 175.800
148.855, 63.062, 175.344
151.020, 63.015, 175.097
153.217, 63.004, 175.030
155.445, 62.973, 174.792
157.706, 62.918, 174.671
160.000, 62.885, 174.623
162.327, 62.849, 174.604
164.688, 62.815, 174.587
167.084, 62.779, 174.626
169.514, 62.760, 174.724
171.980, 62.736, 174.858
174.481, 62.716, 175.037
177.019, 62.720, 175.192
179.594, 62.748, 175.314
182.206, 62.800, 175.421
184.856, 62.860, 175.330
187.545, 62.905, 175.042
190.273, 62.939, 174.613
193.041, 62.970, 174.146
195.849, 62.975, 173.595
198.697, 62.945, 173.089
201.587, 62.902, 172.636
204.520, 62.858, 172.295
207.494, 62.808, 172.091
210.512, 62.777, 171.901
213.574, 62.749, 171.682
216.681, 62.726, 171.561
219.833, 62.702, 171.423
223.030, 62.675, 171.245
226.274, 62.655, 171.016
229.565, 62.636, 170.705
232.905, 62.612, 170.430
236.292, 62.586, 170.147
239.729, 62.549, 169.856
243.216, 62.505, 169.567
246.754, 62.457, 169.232
250.343, 62.402, 168.985
253.984, 62.350, 168.773
257.678, 62.287, 168.552
261.426, 62.228, 168.403
265.229, 62.169, 168.279
269.087, 62.108, 168.152
273.001, 62.048, 168.088
276.972, 61.988, 168.018
281.000, 61.926, 167.955
285.088, 61.865, 167.907
289.234, 61.805, 167.921
293.441, 61.749, 167.930
297.710, 61.695, 167.955
302.040, 61.640, 168.007
306.433, 61.594, 168.051
310.890, 61.548, 168.038
315.412, 61.496, 168.008
320.000, 61.443, 168.009
324.655, 61.388, 167.988
329.377, 61.330, 167.956
334.168, 61.274, 167.986
339.028, 61.211, 168.003
343.959, 61.147, 168.068
348.962, 61.078, 168.110
354.038, 61.009, 168.202
359.188, 60.939, 168.289
364.412, 60.865, 168.439
369.713, 60.792, 168.604
375.090, 60.721, 168.785
380.546, 60.651, 169.035
386.081, 60.575, 169.293
391.697, 60.502, 169.581
397.395, 60.425, 169.902
403.175, 60.353, 170.288
409.039, 60.284, 170.727
414.989, 60.218, 171.171
421.025, 60.154, 171.717
427.149, 60.093, 172.252
433.362, 60.044, 172.843
439.665, 60.001, 173.478
446.060, 59.961, 174.130
452.548, 59.934, 174.783
459.131, 59.915, 175.475
465.809, 59.904, 176.157
472.584, 59.901, 176.840
479.458, 59.905, 177.509
486.432, 59.917, 178.160
493.507, 59.935, 178.818
500.686, 59.965, 179.439
507.968, 59.999, 179.997
515.357, 60.039, -179.472
522.853, 60.084, -178.981
530.458, 60.126, -178.566
538.174, 60.163, -178.181
546.002, 60.199, -177.819
553.943, 60.233, -177.455
562.001, 60.260, -177.081
570.175, 60.292, -176.680
578.469, 60.325, -176.242
586.883, 60.360, -175.833
595.419, 60.409, -175.408
604.080, 60.457, -175.042
612.866, 60.510, -174.692
621.780, 60.565, -174.373
630.824, 60.617, -174.113
640.000, 60.662, -173.858
649.309, 60.701, -173.638
658.753, 60.745, -173.415
668.335, 60.780, -173.133
678.056, 60.811, -172.854
687.919, 60.841, -172.540
697.925, 60.876, -172.202
708.076, 60.917, -171.832
718.376, 60.959, -171.443
728.825, 61.004, -171.039
739.426, 61.056, -170.664
750.181, 61.106, -170.307
761.093, 61.162, -169.942
772.163, 61.218, -169.590
783.394, 61.277, -169.237
794.789, 61.333, -168.872
806.349, 61.392, -168.507
818.078, 61.450, -168.139
829.977, 61.508, -167.768
842.050, 61.565, -167.358
854.297, 61.628, -166.948
866.724, 61.694, -166.493
879.330, 61.764, -166.024
892.120, 61.836, -165.555
905.097, 61.909, -165.079
918.262, 61.989, -164.581
931.618, 62.072, -164.060
945.169, 62.160, -163.527
958.917, 62.253, -162.985
972.864, 62.351, -162.406
987.015, 62.458, -161.818
1001.371, 62.571, -161.230
1015.937, 62.690, -160.577
1030.714, 62.822, -159.926
1045.706, 62.963, -159.258
1060.916, 63.116, -158.602
1076.347, 63.281, -157.943
1092.003, 63.463, -157.296
1107.887, 63.660, -156.678
1124.001, 63.870, -156.119
1140.350, 64.097, -155.630
1156.937, 64.337, -155.230
1173.765, 64.589, -154.948
1190.838, 64.848, -154.794
1208.159, 65.111, -154.786
1225.732, 65.372, -154.909
1243.561, 65.625, -155.159
1261.649, 65.868, -155.513
1280.000, 66.098, -155.949
1298.618, 66.313, -156.431
1317.507, 66.515, -156.929
1336.670, 66.704, -157.418
1356.113, 66.886, -157.877
1375.838, 67.060, -158.304
1395.850, 67.230, -158.683
1416.153, 67.399, -159.008
1436.751, 67.571, -159.295
1457.649, 67.746, -159.541
1478.851, 67.926, -159.747
1500.362, 68.113, -159.928
1522.185, 68.309, -160.088
1544.326, 68.514, -160.238
1566.789, 68.730, -160.386
1589.578, 68.957, -160.542
1612.699, 69.197, -160.722
1636.156, 69.448, -160.937
1659.955, 69.713, -161.202
1684.099, 69.990, -161.527
1708.595, 70.280, -161.933
1733.447, 70.580, -162.430
1758.661, 70.891, -163.034
1784.241, 71.212, -163.763
1810.193, 71.540, -164.634
1836.523, 71.873, -165.661
1863.236, 72.208, -166.858
1890.338, 72.542, -168.247
1917.833, 72.870, -169.832
1945.729, 73.187, -171.617
1974.030, 73.487, -173.607
2002.743, 73.763, -175.786
2031.873, 74.012, -178.137
2061.428, 74.225, 179.369
2091.412, 74.399, 176.774
2121.832, 74.531, 174.114
2152.695, 74.618, 171.448
2184.007, 74.663, 168.823
2215.774, 74.665, 166.293
2248.003, 74.631, 163.902
2280.701, 74.565, 161.680
2313.874, 74.476, 159.648
2347.530, 74.367, 157.816
2381.676, 74.244, 156.170
2416.318, 74.111, 154.704
2451.464, 73.970, 153.407
2487.122, 73.820, 152.270
2523.298, 73.666, 151.287
2560.000, 73.508, 150.459
2597.236, 73.350, 149.782
2635.014, 73.195, 149.250
2673.341, 73.043, 148.860
2712.226, 72.899, 148.602
2751.676, 72.768, 148.469
2791.700, 72.649, 148.459
2832.306, 72.542, 148.560
2873.503, 72.451, 148.761
2915.299, 72.378, 149.056
2957.703, 72.322, 149.432
3000.724, 72.284, 149.871
3044.370, 72.266, 150.366
3088.652, 72.267, 150.898
3133.577, 72.288, 151.453
3179.156, 72.327, 152.018
3225.398, 72.388, 152.582
3272.312, 72.470, 153.127
3319.909, 72.575, 153.636
3368.198, 72.705, 154.086
3417.190, 72.860, 154.449
3466.894, 73.041, 154.695
3517.321, 73.249, 154.772
3568.482, 73.483, 154.630
3620.387, 73.741, 154.200
3673.046, 74.019, 153.398
3726.472, 74.307, 152.133
3780.675, 74.591, 150.308
3835.666, 74.849, 147.832
3891.457, 75.046, 144.650
3948.060, 75.142, 140.783
4005.486, 75.092, 136.371
4063.747, 74.860, 131.698
4122.855, 74.424, 127.172
4182.824, 73.792, 123.240
4243.664, 72.993, 120.285
4305.390, 72.071, 118.586
4368.013, 71.077, 118.308
4431.547, 70.059, 119.552
4496.005, 69.072, 122.396
4561.401, 68.181, 126.880
4627.749, 67.477, 132.916
4695.061, 67.071, 140.088
4763.352, 67.050, 147.498
4832.637, 67.409, 153.860
4902.929, 68.004, 158.045
4974.244, 68.613, 159.697
5046.596, 69.050, 159.369
5120.000, 69.229, 158.127
5194.472, 69.168, 156.960
5270.027, 68.939, 156.466
5346.682, 68.623, 156.840
5424.451, 68.277, 158.043
5503.352, 67.942, 159.947
5583.399, 67.640, 162.414
5664.612, 67.383, 165.326
5747.006, 67.178, 168.580
5830.598, 67.032, 172.105
5915.406, 66.949, 175.827
6001.447, 66.934, 179.671
6088.740, 66.990, -176.429
6177.303, 67.126, -172.541
6267.154, 67.349, -168.785
6358.312, 67.663, -165.359
6450.796, 68.038, -162.514
6544.625, 68.418, -160.046
6639.818, 68.900, -157.416
6736.397, 69.578, -156.065
6834.380, 70.247, -156.599
6933.789, 70.810, -158.767
7034.643, 71.170, -162.345
7136.964, 71.238, -166.718
7240.773, 70.983, -170.903
7346.093, 70.464, -173.937
7452.944, 69.811, -175.344
7561.350, 69.145, -175.333
7671.332, 68.508, -174.246
7782.915, 67.934, -172.235
7896.120, 67.459, -169.569
8010.971, 67.097, -166.552
8127.493, 66.852, -163.458
8245.711, 66.709, -160.607
8365.647, 66.646, -158.274
8487.328, 66.618, -156.712
8610.779, 66.558, -156.034
8736.026, 66.385, -156.078
8863.095, 66.039, -156.345
8992.011, 65.519, -156.115
9122.803, 64.895, -154.808
9255.497, 64.284, -152.272
9390.121, 63.795, -148.874
9526.704, 63.487, -145.385
9665.273, 63.330, -142.648
9805.857, 63.219, -141.180
9948.487, 63.040, -140.976
10093.191, 62.718, -141.719
10240.000, 62.209, -143.152
10388.944, 61.450, -145.014
10540.055, 60.359, -146.532
10693.363, 58.968, -146.549
10848.902, 57.350, -144.494
11006.703, 55.628, -139.617
11166.799, 53.992, -132.065
11329.224, 52.559, -122.418
11494.012, 51.401, -111.285
11661.195, 50.558, -99.231
11830.812, 50.060, -86.831
12002.895, 49.936, -74.735
12177.480, 50.195, -63.869
12354.606, 50.793, -55.524
12534.309, 51.530, -51.397
12716.624, 51.921, -52.463
12901.592, 51.429, -56.233
13089.250, 50.000, -57.357
13279.637, 48.141, -53.039
13472.794, 46.377, -43.992
13668.760, 44.961, -31.977
13867.577, 43.948, -18.347
14069.285, 43.326, -4.108
14273.928, 43.055, 10.143
14481.547, 43.096, 23.950
14692.186, 43.456, 37.067
14905.889, 44.171, 48.979
15122.700, 45.298, 58.583
15342.664, 46.770, 63.502
15565.829, 48.017, 60.685
15792.239, 48.139, 51.906
16021.942, 46.910, 44.083
16254.986, 44.629, 42.281
16491.422, 42.060, 49.690
16731.295, 40.046, 62.574
16974.656, 38.767, 78.427
17221.559, 38.320, 94.652
17472.053, 38.729, 108.991
17726.189, 39.943, 117.732
17984.021, 41.196, 114.647
18245.605, 40.663, 100.546
18510.994, 37.721, 92.347
18780.242, 33.938, 96.574
19053.408, 30.437, 106.831
19330.547, 26.930, 119.234
19611.715, 22.355, 141.522
19896.975, 17.995, -173.009
