* Measurement data measured by REW V5.19
* Source: ASIO MOTU M Series, In 1
* Format: 1M Log Swept Sine, 1 sweep at -3.0 dBFS  With no timing reference
* Dated: 7 Feb, 2023 4:53:15 PM
* REW Settings:
*  C-weighting compensation: Off
*  Target level: 75.0 dB
* Note: ; 
* Measurement: Feb 7 16:53:15
* Smoothing: 1/48 octave
* Frequency Step: 1/48 octave
* Start Frequency: 10.1 Hz
*
* Freq(Hz), SPL(dB), Phase(degrees)
10.145, 64.185, -111.544
10.293, 64.216, -112.155
10.443, 64.249, -112.975
10.595, 64.298, -114.047
10.749, 64.350, -115.163
10.905, 64.388, -116.010
11.064, 64.421, -116.761
11.225, 64.458, -117.616
11.388, 64.496, -118.513
11.554, 64.531, -119.370
11.722, 64.564, -120.200
11.892, 64.595, -121.007
12.065, 64.624, -121.791
12.241, 64.653, -122.571
12.419, 64.683, -123.336
12.599, 64.712, -124.060
12.782, 64.741, -124.761
12.968, 64.774, -125.463
13.157, 64.808, -126.158
13.348, 64.843, -126.845
13.543, 64.879, -127.538
13.740, 64.914, -128.242
13.939, 64.947, -128.951
14.142, 64.978, -129.660
14.348, 65.005, -130.362
14.557, 65.029, -131.047
14.768, 65.050, -131.711
14.983, 65.071, -132.345
15.201, 65.092, -132.955
15.422, 65.115, -133.545
15.646, 65.140, -134.127
15.874, 65.167, -134.711
16.105, 65.195, -135.303
16.339, 65.222, -135.908
16.577, 65.246, -136.519
16.818, 65.266, -137.127
17.063, 65.284, -137.719
17.311, 65.299, -138.287
17.563, 65.315, -138.828
17.818, 65.332, -139.347
18.077, 65.353, -139.857
18.340, 65.375, -140.373
18.607, 65.399, -140.905
18.877, 65.422, -141.455
19.152, 65.442, -142.019
19.431, 65.458, -142.580
19.713, 65.469, -143.123
20.000, 65.479, -143.639
20.291, 65.489, -144.125
20.586, 65.502, -144.589
20.885, 65.519, -145.049
21.189, 65.540, -145.523
21.497, 65.561, -146.029
21.810, 65.580, -146.567
22.127, 65.593, -147.127
22.449, 65.597, -147.677
22.776, 65.594, -148.182
23.107, 65.587, -148.613
23.443, 65.586, -148.963
23.784, 65.597, -149.261
24.130, 65.622, -149.564
24.481, 65.659, -149.931
24.837, 65.698, -150.392
25.198, 65.729, -150.926
25.565, 65.749, -151.473
25.937, 65.759, -151.973
26.314, 65.769, -152.401
26.697, 65.787, -152.791
27.085, 65.812, -153.200
27.479, 65.838, -153.664
27.879, 65.855, -154.161
28.284, 65.862, -154.630
28.696, 65.864, -155.026
29.113, 65.871, -155.355
29.537, 65.886, -155.672
29.966, 65.904, -156.021
30.402, 65.918, -156.402
30.844, 65.927, -156.774
31.293, 65.933, -157.110
31.748, 65.943, -157.423
32.210, 65.958, -157.754
32.678, 65.973, -158.127
33.154, 65.982, -158.522
33.636, 65.986, -158.904
34.125, 65.990, -159.257
34.621, 65.998, -159.604
35.125, 66.009, -159.969
35.636, 66.017, -160.349
36.154, 66.024, -160.718
36.680, 66.032, -161.066
37.214, 66.044, -161.419
37.755, 66.053, -161.788
38.304, 66.058, -162.144
38.861, 66.063, -162.448
39.427, 66.075, -162.731
40.000, 66.092, -163.063
40.582, 66.101, -163.443
41.172, 66.100, -163.781
41.771, 66.102, -164.046
42.379, 66.116, -164.319
42.995, 66.131, -164.667
43.620, 66.137, -165.039
44.255, 66.139, -165.366
44.898, 66.146, -165.666
45.552, 66.157, -165.980
46.214, 66.168, -166.310
46.886, 66.178, -166.644
47.568, 66.188, -166.988
48.260, 66.195, -167.337
48.962, 66.197, -167.696
49.674, 66.189, -168.031
50.397, 66.178, -168.265
51.130, 66.182, -168.429
51.874, 66.201, -168.688
52.628, 66.209, -169.064
53.394, 66.201, -169.394
54.170, 66.197, -169.637
54.958, 66.201, -169.890
55.758, 66.208, -170.175
56.569, 66.215, -170.486
57.391, 66.216, -170.817
58.226, 66.214, -171.126
59.073, 66.214, -171.436
59.932, 66.209, -171.751
60.804, 66.204, -172.021
61.688, 66.206, -172.320
62.586, 66.203, -172.669
63.496, 66.193, -172.986
64.420, 66.186, -173.258
65.357, 66.187, -173.515
66.307, 66.193, -173.825
67.272, 66.191, -174.143
68.250, 66.188, -174.400
69.243, 66.192, -174.658
70.250, 66.194, -174.968
71.272, 66.181, -175.249
72.309, 66.178, -175.442
73.360, 66.182, -175.741
74.427, 66.171, -176.057
75.510, 66.162, -176.316
76.608, 66.156, -176.574
77.723, 66.156, -176.865
78.853, 66.140, -177.227
80.000, 66.113, -177.441
81.164, 66.111, -177.615
82.344, 66.111, -177.932
83.542, 66.097, -178.238
84.757, 66.084, -178.489
85.990, 66.070, -178.720
87.241, 66.055, -178.913
88.510, 66.050, -179.090
89.797, 66.040, -179.425
91.103, 66.011, -179.662
92.428, 66.000, -179.908
93.773, 65.981, 179.819
95.137, 65.957, 179.622
96.520, 65.952, 179.490
97.924, 65.936, 179.084
99.349, 65.878, 178.884
100.794, 65.866, 178.753
102.260, 65.849, 178.440
103.747, 65.831, 178.181
105.256, 65.810, 177.947
106.787, 65.787, 177.765
108.340, 65.763, 177.558
109.916, 65.731, 177.356
111.515, 65.704, 177.163
113.137, 65.676, 176.935
114.783, 65.641, 176.782
116.452, 65.609, 176.662
118.146, 65.579, 176.562
119.865, 65.545, 176.450
121.608, 65.503, 176.349
123.377, 65.456, 176.285
125.171, 65.417, 176.183
126.992, 65.368, 176.040
128.839, 65.306, 176.339
130.713, 65.333, 176.625
132.615, 65.325, 176.945
134.543, 65.348, 177.286
136.500, 65.385, 177.453
138.486, 65.447, 177.451
140.500, 65.522, 177.237
142.544, 65.583, 176.884
144.617, 65.623, 176.386
146.721, 65.644, 175.743
148.855, 65.620, 175.203
151.020, 65.610, 174.810
153.217, 65.569, 174.450
155.445, 65.516, 174.140
157.706, 65.470, 173.831
160.000, 65.419, 173.572
162.327, 65.375, 173.414
164.688, 65.329, 173.294
167.084, 65.284, 173.234
169.514, 65.263, 173.206
171.980, 65.247, 173.077
174.481, 65.220, 173.025
177.019, 65.198, 172.856
179.594, 65.167, 172.685
182.206, 65.146, 172.590
184.856, 65.128, 172.562
187.545, 65.107, 172.480
190.273, 65.073, 172.410
193.041, 65.048, 172.363
195.849, 65.039, 172.401
198.697, 65.044, 172.442
201.587, 65.047, 172.422
204.520, 65.055, 172.355
207.494, 65.074, 172.217
210.512, 65.102, 171.948
213.574, 65.107, 171.526
216.681, 65.094, 171.096
219.833, 65.073, 170.643
223.030, 65.038, 170.271
226.274, 64.998, 169.917
229.565, 64.949, 169.594
232.905, 64.903, 169.350
236.292, 64.853, 169.106
239.729, 64.804, 168.897
243.216, 64.752, 168.725
246.754, 64.700, 168.549
250.343, 64.659, 168.387
253.984, 64.606, 168.226
257.678, 64.550, 168.069
261.426, 64.504, 167.938
265.229, 64.455, 167.801
269.087, 64.404, 167.669
273.001, 64.353, 167.542
276.972, 64.303, 167.413
281.000, 64.243, 167.279
285.088, 64.191, 167.198
289.234, 64.135, 167.139
293.441, 64.074, 167.071
297.710, 64.007, 167.016
302.040, 63.942, 166.963
306.433, 63.885, 166.952
310.890, 63.828, 166.942
315.412, 63.763, 166.924
320.000, 63.703, 166.912
324.655, 63.641, 166.898
329.377, 63.579, 166.882
334.168, 63.512, 166.890
339.028, 63.439, 166.944
343.959, 63.378, 166.950
348.962, 63.309, 167.032
354.038, 63.236, 167.103
359.188, 63.163, 167.182
364.412, 63.087, 167.277
369.713, 63.005, 167.413
375.090, 62.927, 167.578
380.546, 62.839, 167.738
386.081, 62.754, 167.963
391.697, 62.671, 168.206
397.395, 62.579, 168.501
403.175, 62.490, 168.836
409.039, 62.399, 169.223
414.989, 62.307, 169.664
421.025, 62.214, 170.178
427.149, 62.128, 170.762
433.362, 62.042, 171.421
439.665, 61.963, 172.128
446.060, 61.889, 172.957
452.548, 61.819, 173.890
459.131, 61.770, 174.900
465.809, 61.737, 175.982
472.584, 61.733, 177.157
479.458, 61.755, 178.278
486.432, 61.808, 179.383
493.507, 61.895, -179.606
500.686, 62.003, -178.769
507.968, 62.119, -178.175
515.357, 62.237, -177.806
522.853, 62.341, -177.635
530.458, 62.421, -177.578
538.174, 62.481, -177.599
546.002, 62.512, -177.618
553.943, 62.530, -177.575
562.001, 62.535, -177.444
570.175, 62.539, -177.209
578.469, 62.544, -176.907
586.883, 62.555, -176.509
595.419, 62.578, -176.058
604.080, 62.613, -175.647
612.866, 62.662, -175.237
621.780, 62.718, -174.876
630.824, 62.778, -174.601
640.000, 62.835, -174.381
649.309, 62.887, -174.222
658.753, 62.934, -174.108
668.335, 62.970, -173.977
678.056, 63.003, -173.857
687.919, 63.032, -173.705
697.925, 63.059, -173.532
708.076, 63.086, -173.329
718.376, 63.117, -173.120
728.825, 63.146, -172.889
739.426, 63.176, -172.647
750.181, 63.204, -172.423
761.093, 63.236, -172.170
772.163, 63.265, -171.933
783.394, 63.294, -171.688
794.789, 63.322, -171.413
806.349, 63.353, -171.118
818.078, 63.384, -170.814
829.977, 63.412, -170.470
842.050, 63.446, -170.099
854.297, 63.482, -169.716
866.724, 63.521, -169.308
879.330, 63.565, -168.864
892.120, 63.612, -168.407
905.097, 63.662, -167.931
918.262, 63.717, -167.447
931.618, 63.775, -166.948
945.169, 63.839, -166.422
958.917, 63.908, -165.868
972.864, 63.983, -165.296
987.015, 64.066, -164.704
1001.371, 64.154, -164.081
1015.937, 64.251, -163.438
1030.714, 64.362, -162.776
1045.706, 64.484, -162.112
1060.916, 64.619, -161.436
1076.347, 64.768, -160.756
1092.003, 64.931, -160.090
1107.887, 65.113, -159.474
1124.001, 65.312, -158.902
1140.350, 65.529, -158.408
1156.937, 65.762, -158.030
1173.765, 66.006, -157.775
1190.838, 66.260, -157.674
1208.159, 66.518, -157.740
1225.732, 66.774, -157.966
1243.561, 67.023, -158.354
1261.649, 67.259, -158.867
1280.000, 67.478, -159.483
1298.618, 67.679, -160.162
1317.507, 67.864, -160.874
1336.670, 68.032, -161.582
1356.113, 68.186, -162.264
1375.838, 68.330, -162.905
1395.850, 68.467, -163.495
1416.153, 68.601, -164.026
1436.751, 68.734, -164.489
1457.649, 68.869, -164.897
1478.851, 69.007, -165.251
1500.362, 69.154, -165.568
1522.185, 69.309, -165.856
1544.326, 69.473, -166.127
1566.789, 69.649, -166.390
1589.578, 69.836, -166.663
1612.699, 70.034, -166.948
1636.156, 70.246, -167.268
1659.955, 70.472, -167.631
1684.099, 70.709, -168.046
1708.595, 70.958, -168.532
1733.447, 71.220, -169.108
1758.661, 71.495, -169.794
1784.241, 71.778, -170.602
1810.193, 72.070, -171.552
1836.523, 72.367, -172.660
1863.236, 72.667, -173.940
1890.338, 72.965, -175.403
1917.833, 73.256, -177.059
1945.729, 73.535, -178.910
1974.030, 73.798, 179.045
2002.743, 74.038, 176.819
2031.873, 74.250, 174.429
2061.428, 74.428, 171.908
2091.412, 74.570, 169.290
2121.832, 74.671, 166.625
2152.695, 74.728, 163.963
2184.007, 74.744, 161.348
2215.774, 74.720, 158.840
2248.003, 74.661, 156.477
2280.701, 74.575, 154.300
2313.874, 74.469, 152.316
2347.530, 74.346, 150.531
2381.676, 74.215, 148.932
2416.318, 74.078, 147.505
2451.464, 73.936, 146.229
2487.122, 73.791, 145.090
2523.298, 73.643, 144.084
2560.000, 73.491, 143.214
2597.236, 73.340, 142.471
2635.014, 73.189, 141.862
2673.341, 73.044, 141.384
2712.226, 72.905, 141.034
2751.676, 72.776, 140.806
2791.700, 72.658, 140.697
2832.306, 72.554, 140.702
2873.503, 72.464, 140.807
2915.299, 72.390, 141.011
2957.703, 72.332, 141.303
3000.724, 72.292, 141.669
3044.370, 72.269, 142.105
3088.652, 72.265, 142.606
3133.577, 72.280, 143.157
3179.156, 72.317, 143.745
3225.398, 72.375, 144.359
3272.312, 72.456, 144.984
3319.909, 72.561, 145.604
3368.198, 72.691, 146.197
3417.190, 72.849, 146.741
3466.894, 73.034, 147.207
3517.321, 73.248, 147.558
3568.482, 73.491, 147.750
3620.387, 73.763, 147.727
3673.046, 74.059, 147.427
3726.472, 74.376, 146.769
3780.675, 74.703, 145.664
3835.666, 75.024, 144.022
3891.457, 75.314, 141.776
3948.060, 75.537, 138.899
4005.486, 75.655, 135.458
4063.747, 75.628, 131.665
4122.855, 75.432, 127.872
4182.824, 75.062, 124.545
4243.664, 74.550, 122.118
4305.390, 73.947, 120.888
4368.013, 73.323, 120.981
4431.547, 72.746, 122.355
4496.005, 72.280, 124.817
4561.401, 71.981, 128.035
4627.749, 71.886, 131.550
4695.061, 72.000, 134.785
4763.352, 72.289, 137.148
4832.637, 72.673, 138.147
4902.929, 73.038, 137.567
4974.244, 73.262, 135.637
5046.596, 73.261, 133.019
5120.000, 73.024, 130.541
5194.472, 72.599, 128.861
5270.027, 72.068, 128.271
5346.682, 71.499, 128.780
5424.451, 70.944, 130.234
5503.352, 70.432, 132.454
5583.399, 69.975, 135.274
5664.612, 69.580, 138.563
5747.006, 69.249, 142.224
5830.598, 68.984, 146.181
5915.406, 68.787, 150.371
6001.447, 68.659, 154.740
6088.740, 68.604, 159.236
6177.303, 68.628, 163.802
6267.154, 68.736, 168.358
6358.312, 68.934, 172.738
6450.796, 69.208, 176.757
6544.625, 69.528, -179.554
6639.818, 69.927, -175.930
6736.397, 70.482, -173.175
6834.380, 71.060, -171.915
6933.789, 71.569, -172.058
7034.643, 71.914, -173.458
7136.964, 72.006, -175.580
7240.773, 71.804, -177.493
7346.093, 71.360, -178.234
7452.944, 70.793, -177.265
7561.350, 70.230, -174.669
7671.332, 69.737, -170.736
7782.915, 69.368, -165.689
7896.120, 69.175, -159.856
8010.971, 69.181, -153.665
8127.493, 69.394, -147.516
8245.711, 69.812, -141.883
8365.647, 70.398, -137.248
8487.328, 71.084, -134.011
8610.779, 71.777, -132.360
8736.026, 72.377, -132.140
8863.095, 72.821, -132.870
8992.011, 73.103, -133.956
9122.803, 73.271, -135.002
9255.497, 73.387, -135.977
9390.121, 73.491, -137.187
9526.704, 73.569, -139.080
9665.273, 73.554, -141.978
9805.857, 73.354, -145.841
9948.487, 72.896, -150.211
10093.191, 72.163, -154.500
10240.000, 71.170, -158.326
10388.944, 69.914, -161.484
10540.055, 68.352, -163.442
10693.363, 66.514, -163.187
10848.902, 64.516, -160.195
11006.703, 62.500, -154.112
11166.799, 60.651, -145.384
11329.224, 59.065, -134.889
11494.012, 57.762, -123.438
11661.195, 56.711, -111.644
11830.812, 55.877, -99.963
12002.895, 55.205, -88.831
12177.480, 54.610, -78.694
12354.606, 53.937, -70.019
12534.309, 52.851, -62.572
12716.624, 50.828, -52.187
12901.592, 48.222, -27.027
13089.250, 48.555, 8.612
13279.637, 51.048, 31.420
13472.794, 53.164, 43.619
13668.760, 54.861, 52.254
13867.577, 56.366, 59.168
14069.285, 57.753, 64.435
14273.928, 59.005, 68.145
14481.547, 60.132, 70.653
14692.186, 61.232, 72.051
14905.889, 62.385, 71.378
15122.700, 63.499, 66.591
15342.664, 64.067, 55.507
15565.829, 63.280, 40.699
15792.239, 60.992, 30.234
16021.942, 57.853, 28.170
16254.986, 54.493, 35.048
16491.422, 51.648, 48.975
16731.295, 49.634, 65.353
16974.656, 48.200, 82.624
17221.559, 47.271, 100.430
17472.053, 46.883, 118.014
17726.189, 47.111, 133.923
17984.021, 47.939, 145.086
18245.605, 48.751, 145.701
18510.994, 47.687, 135.360
18780.242, 43.423, 135.286
19053.408, 37.164, 168.902
19330.547, 34.764, -128.645
19611.715, 39.988, -72.521
19896.975, 46.108, -42.896
