* Measurement data measured by REW V5.19
* Source: ASIO MOTU M Series, In 1
* Format: 1M Log Swept Sine, 1 sweep at -3.0 dBFS  With no timing reference
* Dated: 7 Feb, 2023 4:45:47 PM
* REW Settings:
*  C-weighting compensation: Off
*  Target level: 75.0 dB
* Note: ; 
* Measurement: Feb 7 16:45:47
* Smoothing: 1/48 octave
* Frequency Step: 1/48 octave
* Start Frequency: 10.1 Hz
*
* Freq(Hz), SPL(dB), Phase(degrees)
10.145, 65.347, -119.793
10.293, 65.373, -120.306
10.443, 65.399, -120.997
10.595, 65.442, -121.903
10.749, 65.487, -122.852
10.905, 65.523, -123.585
11.064, 65.556, -124.248
11.225, 65.591, -125.009
11.388, 65.627, -125.816
11.554, 65.658, -126.597
11.722, 65.687, -127.360
11.892, 65.714, -128.107
12.065, 65.737, -128.838
12.241, 65.760, -129.565
12.419, 65.781, -130.281
12.599, 65.802, -130.961
12.782, 65.822, -131.620
12.968, 65.843, -132.275
13.157, 65.864, -132.918
13.348, 65.886, -133.543
13.543, 65.908, -134.161
13.740, 65.930, -134.772
13.939, 65.952, -135.375
14.142, 65.975, -135.969
14.348, 65.998, -136.552
14.557, 66.022, -137.129
14.768, 66.048, -137.703
14.983, 66.075, -138.280
15.201, 66.103, -138.865
15.422, 66.130, -139.466
15.646, 66.155, -140.082
15.874, 66.177, -140.707
16.105, 66.193, -141.334
16.339, 66.203, -141.939
16.577, 66.210, -142.507
16.818, 66.214, -143.026
17.063, 66.221, -143.491
17.311, 66.235, -143.920
17.563, 66.257, -144.339
17.818, 66.287, -144.779
18.077, 66.323, -145.278
18.340, 66.356, -145.845
18.607, 66.383, -146.469
18.877, 66.399, -147.121
19.152, 66.401, -147.755
19.431, 66.394, -148.323
19.713, 66.384, -148.809
20.000, 66.379, -149.221
20.291, 66.383, -149.593
20.586, 66.395, -149.970
20.885, 66.413, -150.383
21.189, 66.431, -150.837
21.497, 66.443, -151.306
21.810, 66.451, -151.754
22.127, 66.459, -152.167
22.449, 66.473, -152.558
22.776, 66.492, -152.968
23.107, 66.512, -153.427
23.443, 66.525, -153.928
23.784, 66.526, -154.420
24.130, 66.518, -154.833
24.481, 66.511, -155.133
24.837, 66.519, -155.357
25.198, 66.546, -155.602
25.565, 66.582, -155.957
25.937, 66.609, -156.429
26.314, 66.614, -156.924
26.697, 66.603, -157.309
27.085, 66.596, -157.525
27.479, 66.614, -157.657
27.879, 66.661, -157.889
28.284, 66.712, -158.347
28.696, 66.739, -158.992
29.113, 66.728, -159.638
29.537, 66.694, -160.098
29.966, 66.667, -160.348
30.402, 66.665, -160.524
30.844, 66.684, -160.785
31.293, 66.700, -161.162
31.748, 66.704, -161.557
32.210, 66.704, -161.892
32.678, 66.714, -162.197
33.154, 66.731, -162.557
33.636, 66.740, -162.973
34.125, 66.737, -163.351
34.621, 66.735, -163.629
35.125, 66.748, -163.876
35.636, 66.769, -164.205
36.154, 66.778, -164.616
36.680, 66.768, -164.977
37.214, 66.759, -165.194
37.755, 66.771, -165.367
38.304, 66.797, -165.662
38.861, 66.812, -166.094
39.427, 66.806, -166.514
40.000, 66.797, -166.826
40.582, 66.801, -167.115
41.172, 66.809, -167.471
41.771, 66.809, -167.844
42.379, 66.808, -168.158
42.995, 66.816, -168.456
43.620, 66.823, -168.783
44.255, 66.826, -169.082
44.898, 66.833, -169.348
45.552, 66.841, -169.652
46.214, 66.838, -169.952
46.886, 66.837, -170.180
47.568, 66.849, -170.481
48.260, 66.840, -170.931
48.962, 66.798, -171.234
49.674, 66.779, -171.251
50.397, 66.814, -171.392
51.130, 66.842, -171.865
51.874, 66.837, -172.306
52.628, 66.846, -172.635
53.394, 66.857, -173.135
54.170, 66.827, -173.575
54.958, 66.805, -173.676
55.758, 66.828, -173.832
56.569, 66.835, -174.195
57.391, 66.822, -174.424
58.226, 66.830, -174.599
59.073, 66.839, -174.895
59.932, 66.839, -175.159
60.804, 66.850, -175.431
61.688, 66.852, -175.802
62.586, 66.831, -176.095
63.496, 66.823, -176.219
64.420, 66.841, -176.522
65.357, 66.813, -177.077
66.307, 66.750, -177.292
67.272, 66.737, -177.477
68.250, 66.699, -177.844
69.243, 66.673, -177.937
70.250, 66.666, -178.196
71.272, 66.659, -178.175
72.309, 66.736, -178.496
73.360, 66.709, -179.404
74.427, 66.592, -179.565
75.510, 66.575, -179.005
76.608, 66.699, -179.114
77.723, 66.716, 179.977
78.853, 66.687, 179.685
80.000, 66.689, 179.235
81.164, 66.633, 178.998
82.344, 66.625, 178.927
83.542, 66.589, 178.472
84.757, 66.525, 178.316
85.990, 66.508, 177.997
87.241, 66.481, 177.732
88.510, 66.505, 177.329
89.797, 66.473, 176.916
91.103, 66.467, 176.843
92.428, 66.442, 176.586
93.773, 66.399, 176.543
95.137, 66.382, 176.397
96.520, 66.338, 176.045
97.924, 66.290, 176.028
99.349, 66.293, 176.046
100.794, 66.316, 175.686
102.260, 66.252, 175.265
103.747, 66.196, 175.039
105.256, 66.141, 174.853
106.787, 66.114, 174.670
108.340, 66.093, 174.436
109.916, 66.062, 174.299
111.515, 66.032, 174.224
113.137, 65.989, 173.987
114.783, 65.920, 173.886
116.452, 65.871, 173.840
118.146, 65.829, 173.794
119.865, 65.772, 173.931
121.608, 65.706, 174.043
123.377, 65.626, 174.329
125.171, 65.570, 174.550
126.992, 65.519, 174.771
128.839, 65.558, 175.500
130.713, 65.616, 175.550
132.615, 65.628, 176.277
134.543, 65.716, 176.813
136.500, 65.845, 176.734
138.486, 65.946, 176.446
140.500, 66.049, 175.892
142.544, 66.094, 175.134
144.617, 66.109, 174.024
146.721, 66.020, 172.886
148.855, 65.963, 172.520
151.020, 66.003, 172.314
153.217, 65.983, 171.690
155.445, 65.892, 171.448
157.706, 65.819, 171.360
160.000, 65.767, 171.294
162.327, 65.701, 171.076
164.688, 65.623, 170.888
167.084, 65.563, 170.745
169.514, 65.505, 170.679
171.980, 65.449, 170.706
174.481, 65.402, 170.790
177.019, 65.350, 170.867
179.594, 65.308, 171.385
182.206, 65.329, 171.744
184.856, 65.363, 171.912
187.545, 65.400, 171.952
190.273, 65.444, 172.000
193.041, 65.501, 171.853
195.849, 65.551, 171.388
198.697, 65.611, 170.725
201.587, 65.618, 170.177
204.520, 65.624, 169.761
207.494, 65.591, 169.138
210.512, 65.537, 168.496
213.574, 65.475, 167.950
216.681, 65.405, 167.501
219.833, 65.336, 167.102
223.030, 65.264, 166.790
226.274, 65.187, 166.532
229.565, 65.111, 166.253
232.905, 65.036, 166.034
236.292, 64.964, 165.926
239.729, 64.890, 165.815
243.216, 64.819, 165.700
246.754, 64.753, 165.610
250.343, 64.684, 165.541
253.984, 64.622, 165.470
257.678, 64.558, 165.364
261.426, 64.491, 165.288
265.229, 64.423, 165.218
269.087, 64.355, 165.138
273.001, 64.289, 165.038
276.972, 64.222, 164.961
281.000, 64.149, 164.866
285.088, 64.067, 164.824
289.234, 63.988, 164.891
293.441, 63.906, 164.887
297.710, 63.817, 164.950
302.040, 63.737, 165.022
306.433, 63.655, 165.119
310.890, 63.575, 165.217
315.412, 63.491, 165.356
320.000, 63.408, 165.479
324.655, 63.328, 165.577
329.377, 63.244, 165.713
334.168, 63.162, 165.907
339.028, 63.074, 166.070
343.959, 62.978, 166.290
348.962, 62.878, 166.538
354.038, 62.775, 166.801
359.188, 62.672, 167.144
364.412, 62.566, 167.547
369.713, 62.461, 168.030
375.090, 62.362, 168.587
380.546, 62.258, 169.248
386.081, 62.164, 169.974
391.697, 62.080, 170.822
397.395, 62.009, 171.752
403.175, 61.956, 172.717
409.039, 61.930, 173.703
414.989, 61.932, 174.665
421.025, 61.940, 175.580
427.149, 61.965, 176.453
433.362, 61.999, 177.184
439.665, 62.042, 177.781
446.060, 62.080, 178.290
452.548, 62.110, 178.752
459.131, 62.144, 179.163
465.809, 62.171, 179.541
472.584, 62.198, 179.901
479.458, 62.216, -179.759
486.432, 62.228, -179.480
493.507, 62.235, -179.168
500.686, 62.234, -178.862
507.968, 62.235, -178.515
515.357, 62.228, -178.100
522.853, 62.224, -177.666
530.458, 62.218, -177.152
538.174, 62.219, -176.617
546.002, 62.231, -176.101
553.943, 62.251, -175.586
562.001, 62.279, -175.047
570.175, 62.309, -174.571
578.469, 62.340, -174.069
586.883, 62.369, -173.604
595.419, 62.416, -173.157
604.080, 62.464, -172.775
612.866, 62.510, -172.404
621.780, 62.557, -172.129
630.824, 62.600, -171.878
640.000, 62.637, -171.648
649.309, 62.660, -171.472
658.753, 62.679, -171.234
668.335, 62.693, -170.999
678.056, 62.705, -170.727
687.919, 62.711, -170.402
697.925, 62.717, -170.025
708.076, 62.723, -169.611
718.376, 62.735, -169.195
728.825, 62.748, -168.716
739.426, 62.764, -168.245
750.181, 62.786, -167.762
761.093, 62.811, -167.251
772.163, 62.835, -166.726
783.394, 62.861, -166.187
794.789, 62.887, -165.632
806.349, 62.916, -165.036
818.078, 62.951, -164.438
829.977, 62.987, -163.810
842.050, 63.029, -163.132
854.297, 63.080, -162.454
866.724, 63.141, -161.757
879.330, 63.204, -161.071
892.120, 63.270, -160.360
905.097, 63.347, -159.653
918.262, 63.431, -158.973
931.618, 63.512, -158.251
945.169, 63.603, -157.530
958.917, 63.703, -156.787
972.864, 63.806, -156.035
987.015, 63.915, -155.268
1001.371, 64.038, -154.482
1015.937, 64.173, -153.698
1030.714, 64.320, -152.941
1045.706, 64.479, -152.188
1060.916, 64.650, -151.461
1076.347, 64.836, -150.787
1092.003, 65.038, -150.171
1107.887, 65.250, -149.616
1124.001, 65.471, -149.131
1140.350, 65.700, -148.750
1156.937, 65.935, -148.456
1173.765, 66.176, -148.275
1190.838, 66.423, -148.210
1208.159, 66.670, -148.250
1225.732, 66.915, -148.400
1243.561, 67.160, -148.664
1261.649, 67.394, -149.016
1280.000, 67.620, -149.442
1298.618, 67.840, -149.962
1317.507, 68.044, -150.515
1336.670, 68.240, -151.119
1356.113, 68.425, -151.746
1375.838, 68.597, -152.369
1395.850, 68.762, -152.998
1416.153, 68.921, -153.619
1436.751, 69.069, -154.202
1457.649, 69.214, -154.757
1478.851, 69.358, -155.282
1500.362, 69.502, -155.774
1522.185, 69.647, -156.239
1544.326, 69.795, -156.678
1566.789, 69.947, -157.092
1589.578, 70.106, -157.504
1612.699, 70.267, -157.897
1636.156, 70.434, -158.291
1659.955, 70.611, -158.692
1684.099, 70.798, -159.117
1708.595, 70.989, -159.555
1733.447, 71.187, -160.034
1758.661, 71.395, -160.566
1784.241, 71.611, -161.154
1810.193, 71.835, -161.819
1836.523, 72.061, -162.546
1863.236, 72.288, -163.347
1890.338, 72.520, -164.237
1917.833, 72.756, -165.214
1945.729, 72.994, -166.285
1974.030, 73.235, -167.464
2002.743, 73.473, -168.755
2031.873, 73.704, -170.159
2061.428, 73.929, -171.693
2091.412, 74.141, -173.337
2121.832, 74.344, -175.107
2152.695, 74.537, -176.996
2184.007, 74.709, -178.983
2215.774, 74.858, 178.941
2248.003, 74.983, 176.794
2280.701, 75.081, 174.597
2313.874, 75.150, 172.380
2347.530, 75.192, 170.153
2381.676, 75.208, 167.951
2416.318, 75.195, 165.799
2451.464, 75.155, 163.722
2487.122, 75.091, 161.734
2523.298, 75.000, 159.874
2560.000, 74.894, 158.141
2597.236, 74.771, 156.548
2635.014, 74.629, 155.111
2673.341, 74.479, 153.819
2712.226, 74.322, 152.683
2751.676, 74.164, 151.699
2791.700, 74.008, 150.865
2832.306, 73.854, 150.181
2873.503, 73.705, 149.642
2915.299, 73.563, 149.251
2957.703, 73.434, 148.996
3000.724, 73.325, 148.864
3044.370, 73.233, 148.853
3088.652, 73.158, 148.940
3133.577, 73.106, 149.113
3179.156, 73.078, 149.344
3225.398, 73.081, 149.613
3272.312, 73.114, 149.891
3319.909, 73.174, 150.148
3368.198, 73.265, 150.343
3417.190, 73.389, 150.429
3466.894, 73.545, 150.357
3517.321, 73.731, 150.069
3568.482, 73.952, 149.473
3620.387, 74.192, 148.504
3673.046, 74.448, 147.048
3726.472, 74.706, 145.007
3780.675, 74.934, 142.285
3835.666, 75.097, 138.835
3891.457, 75.156, 134.684
3948.060, 75.066, 129.987
4005.486, 74.785, 125.070
4063.747, 74.301, 120.348
4122.855, 73.621, 116.279
4182.824, 72.786, 113.223
4243.664, 71.832, 111.424
4305.390, 70.813, 111.007
4368.013, 69.780, 112.020
4431.547, 68.769, 114.518
4496.005, 67.836, 118.527
4561.401, 67.048, 124.039
4627.749, 66.499, 130.846
4695.061, 66.298, 138.314
4763.352, 66.480, 145.317
4832.637, 66.960, 150.607
4902.929, 67.537, 153.520
4974.244, 68.004, 154.374
5046.596, 68.262, 154.119
5120.000, 68.309, 153.739
5194.472, 68.206, 153.830
5270.027, 68.025, 154.591
5346.682, 67.820, 155.997
5424.451, 67.625, 157.944
5503.352, 67.452, 160.325
5583.399, 67.321, 163.044
5664.612, 67.232, 166.049
5747.006, 67.189, 169.285
5830.598, 67.202, 172.699
5915.406, 67.279, 176.234
6001.447, 67.428, 179.815
6088.740, 67.654, -176.641
6177.303, 67.971, -173.257
6267.154, 68.379, -170.188
6358.312, 68.880, -167.645
6450.796, 69.459, -165.900
6544.625, 70.075, -165.320
6639.818, 70.649, -165.764
6736.397, 71.210, -167.399
6834.380, 71.605, -170.736
6933.789, 71.696, -174.910
7034.643, 71.455, -178.773
7136.964, 70.946, 178.746
7240.773, 70.331, 178.175
7346.093, 69.769, 179.315
7452.944, 69.351, -178.565
7561.350, 69.069, -176.194
7671.332, 68.878, -173.905
7782.915, 68.748, -171.737
7896.120, 68.668, -169.701
8010.971, 68.640, -167.921
8127.493, 68.652, -166.602
8245.711, 68.670, -165.979
8365.647, 68.628, -166.158
8487.328, 68.444, -166.976
8610.779, 68.059, -167.913
8736.026, 67.465, -168.209
8863.095, 66.727, -167.225
8992.011, 65.959, -164.678
9122.803, 65.267, -160.679
9255.497, 64.737, -155.648
9390.121, 64.437, -150.220
9526.704, 64.383, -145.201
9665.273, 64.527, -141.464
9805.857, 64.755, -139.754
9948.487, 64.895, -140.451
10093.191, 64.734, -143.366
10240.000, 64.073, -147.339
10388.944, 62.834, -150.244
10540.055, 61.147, -149.992
10693.363, 59.325, -145.855
10848.902, 57.590, -138.632
11006.703, 56.051, -128.818
11166.799, 54.796, -117.130
11329.224, 53.849, -104.171
11494.012, 53.224, -90.440
11661.195, 52.938, -76.312
11830.812, 53.004, -62.201
12002.895, 53.453, -48.612
12177.480, 54.317, -36.239
12354.606, 55.624, -26.291
12534.309, 57.276, -20.883
12716.624, 58.782, -22.627
12901.592, 59.266, -30.751
13089.250, 58.342, -37.632
13279.637, 56.673, -37.327
13472.794, 55.114, -30.784
13668.760, 54.058, -20.970
13867.577, 53.565, -10.238
14069.285, 53.580, -0.433
14273.928, 53.957, 6.659
14481.547, 54.357, 9.511
14692.186, 54.286, 8.358
14905.889, 53.394, 6.293
15122.700, 51.771, 7.123
15342.664, 49.782, 12.540
15565.829, 47.781, 22.438
15792.239, 46.036, 35.862
16021.942, 44.725, 51.288
16254.986, 43.789, 67.475
16491.422, 43.237, 83.567
16731.295, 42.664, 98.979
16974.656, 42.264, 117.380
17221.559, 42.482, 137.144
17472.053, 43.421, 156.515
17726.189, 45.185, 173.867
17984.021, 47.891, -173.919
18245.605, 50.999, -173.408
18510.994, 52.568, 171.528
18780.242, 51.592, 156.994
19053.408, 49.834, 152.742
19330.547, 48.063, 150.374
19611.715, 45.490, 156.023
19896.975, 44.471, 166.640
