* Measurement data measured by REW V5.19
* Source: ASIO MOTU M Series, In 1
* Format: 1M Log Swept Sine, 1 sweep at -3.0 dBFS  With no timing reference
* Dated: 7 Feb, 2023 4:02:24 PM
* REW Settings:
*  C-weighting compensation: Off
*  Target level: 75.0 dB
* Note: ; 
* Measurement: Feb 7 16:02:24
* Smoothing: 1/48 octave
* Frequency Step: 1/48 octave
* Start Frequency: 10.1 Hz
*
* Freq(Hz), SPL(dB), Phase(degrees)
10.145, 64.530, -91.684
10.293, 64.576, -92.362
10.443, 64.625, -93.266
10.595, 64.703, -94.437
10.749, 64.788, -95.658
10.905, 64.861, -96.586
11.064, 64.931, -97.423
11.225, 65.010, -98.420
11.388, 65.093, -99.503
11.554, 65.171, -100.583
11.722, 65.246, -101.674
11.892, 65.316, -102.770
12.065, 65.382, -103.871
12.241, 65.444, -104.982
12.419, 65.502, -106.088
12.599, 65.557, -107.146
12.782, 65.611, -108.173
12.968, 65.667, -109.191
13.157, 65.724, -110.191
13.348, 65.784, -111.168
13.543, 65.847, -112.147
13.740, 65.912, -113.133
13.939, 65.977, -114.131
14.142, 66.042, -115.138
14.348, 66.105, -116.154
14.557, 66.164, -117.171
14.768, 66.220, -118.184
14.983, 66.273, -119.176
15.201, 66.323, -120.145
15.422, 66.371, -121.086
15.646, 66.419, -121.998
15.874, 66.469, -122.889
16.105, 66.520, -123.765
16.339, 66.574, -124.642
16.577, 66.628, -125.529
16.818, 66.681, -126.432
17.063, 66.732, -127.354
17.311, 66.777, -128.283
17.563, 66.817, -129.209
17.818, 66.852, -130.118
18.077, 66.884, -130.999
18.340, 66.916, -131.851
18.607, 66.948, -132.685
18.877, 66.983, -133.514
19.152, 67.020, -134.356
19.431, 67.056, -135.223
19.713, 67.089, -136.109
20.000, 67.118, -137.001
20.291, 67.142, -137.881
20.586, 67.163, -138.734
20.885, 67.184, -139.556
21.189, 67.207, -140.359
21.497, 67.233, -141.161
21.810, 67.261, -141.974
22.127, 67.286, -142.794
22.449, 67.309, -143.608
22.776, 67.330, -144.398
23.107, 67.352, -145.163
23.443, 67.378, -145.921
23.784, 67.407, -146.700
24.130, 67.435, -147.524
24.481, 67.455, -148.388
24.837, 67.463, -149.257
25.198, 67.460, -150.084
25.565, 67.450, -150.833
25.937, 67.442, -151.507
26.314, 67.442, -152.140
26.697, 67.450, -152.783
27.085, 67.461, -153.471
27.479, 67.469, -154.206
27.879, 67.470, -154.959
28.284, 67.464, -155.688
28.696, 67.457, -156.363
29.113, 67.454, -156.989
29.537, 67.462, -157.605
29.966, 67.478, -158.267
30.402, 67.493, -159.000
30.844, 67.498, -159.767
31.293, 67.490, -160.487
31.748, 67.481, -161.104
32.210, 67.484, -161.653
32.678, 67.500, -162.242
33.154, 67.516, -162.941
33.636, 67.516, -163.707
34.125, 67.497, -164.429
34.621, 67.473, -165.054
35.125, 67.455, -165.635
35.636, 67.443, -166.243
36.154, 67.427, -166.885
36.680, 67.409, -167.522
37.214, 67.395, -168.160
37.755, 67.384, -168.847
38.304, 67.368, -169.589
38.861, 67.340, -170.315
39.427, 67.306, -170.949
40.000, 67.278, -171.472
40.582, 67.264, -171.949
41.172, 67.258, -172.460
41.771, 67.247, -173.012
42.379, 67.226, -173.543
42.995, 67.200, -174.059
43.620, 67.165, -174.605
44.255, 67.113, -175.117
44.898, 67.064, -175.569
45.552, 67.020, -176.136
46.214, 66.944, -176.767
46.886, 66.859, -177.048
47.568, 66.859, -177.136
48.260, 66.927, -177.797
48.962, 66.933, -178.949
49.674, 66.875, -179.773
50.397, 66.845, 179.793
51.130, 66.846, 179.382
51.874, 66.852, 178.959
52.628, 66.848, 178.417
53.394, 66.790, 177.897
54.170, 66.712, 177.711
54.958, 66.661, 177.573
55.758, 66.623, 177.233
56.569, 66.568, 176.445
57.391, 66.382, 175.665
58.226, 66.229, 176.412
59.073, 66.437, 176.766
59.932, 66.569, 174.513
60.804, 66.338, 172.991
61.688, 66.225, 173.413
62.586, 66.269, 173.238
63.496, 66.240, 172.889
64.420, 66.230, 172.704
65.357, 66.198, 172.287
66.307, 66.149, 171.956
67.272, 66.106, 171.424
68.250, 66.033, 170.832
69.243, 65.961, 170.358
70.250, 65.911, 169.908
71.272, 65.863, 169.385
72.309, 65.805, 168.973
73.360, 65.756, 168.600
74.427, 65.689, 168.218
75.510, 65.621, 167.914
76.608, 65.546, 167.542
77.723, 65.464, 167.223
78.853, 65.391, 166.873
80.000, 65.318, 166.487
81.164, 65.241, 166.129
82.344, 65.173, 165.853
83.542, 65.114, 165.522
84.757, 65.038, 165.228
85.990, 64.971, 165.047
87.241, 64.901, 164.859
88.510, 64.849, 164.603
89.797, 64.747, 164.183
91.103, 64.647, 164.109
92.428, 64.561, 163.951
93.773, 64.470, 163.855
95.137, 64.373, 163.869
96.520, 64.289, 163.838
97.924, 64.166, 163.601
99.349, 63.961, 163.810
100.794, 63.884, 164.408
102.260, 63.804, 164.377
103.747, 63.712, 164.625
105.256, 63.654, 165.062
106.787, 63.594, 165.564
108.340, 63.587, 166.298
109.916, 63.611, 166.672
111.515, 63.640, 166.826
113.137, 63.693, 166.762
114.783, 63.719, 166.350
116.452, 63.703, 166.097
118.146, 63.686, 165.777
119.865, 63.597, 165.171
121.608, 63.448, 165.072
123.377, 63.364, 165.096
125.171, 63.292, 165.161
126.992, 63.265, 165.636
128.839, 63.189, 165.768
130.713, 63.084, 166.944
132.615, 63.123, 167.592
134.543, 63.124, 167.728
136.500, 63.169, 168.029
138.486, 63.260, 168.199
140.500, 63.347, 168.164
142.544, 63.411, 167.697
144.617, 63.435, 166.947
146.721, 63.428, 166.193
148.855, 63.418, 165.532
151.020, 63.352, 164.850
153.217, 63.254, 164.284
155.445, 63.151, 163.867
157.706, 63.053, 163.611
160.000, 62.954, 163.497
162.327, 62.857, 163.454
164.688, 62.771, 163.483
167.084, 62.692, 163.546
169.514, 62.620, 163.601
171.980, 62.554, 163.576
174.481, 62.490, 163.523
177.019, 62.414, 163.496
179.594, 62.343, 163.572
182.206, 62.275, 163.651
184.856, 62.209, 163.736
187.545, 62.138, 163.773
190.273, 62.065, 163.847
193.041, 62.010, 163.948
195.849, 61.957, 164.068
198.697, 61.914, 164.302
201.587, 61.850, 164.293
204.520, 61.792, 164.337
207.494, 61.736, 164.222
210.512, 61.665, 164.216
213.574, 61.587, 164.190
216.681, 61.503, 164.180
219.833, 61.421, 164.259
223.030, 61.335, 164.343
226.274, 61.255, 164.452
229.565, 61.176, 164.586
232.905, 61.084, 164.705
236.292, 60.995, 164.808
239.729, 60.910, 164.948
243.216, 60.812, 165.133
246.754, 60.704, 165.291
250.343, 60.603, 165.601
253.984, 60.501, 165.927
257.678, 60.398, 166.294
261.426, 60.300, 166.789
265.229, 60.211, 167.227
269.087, 60.131, 167.723
273.001, 60.057, 168.303
276.972, 59.987, 168.809
281.000, 59.935, 169.280
285.088, 59.878, 169.665
289.234, 59.811, 169.957
293.441, 59.743, 170.365
297.710, 59.661, 170.625
302.040, 59.575, 170.906
306.433, 59.494, 171.363
310.890, 59.391, 171.798
315.412, 59.280, 172.237
320.000, 59.173, 172.845
324.655, 59.063, 173.444
329.377, 58.952, 174.047
334.168, 58.840, 174.825
339.028, 58.731, 175.739
343.959, 58.624, 176.640
348.962, 58.514, 177.608
354.038, 58.413, 178.700
359.188, 58.323, 179.932
364.412, 58.249, -178.689
369.713, 58.199, -177.257
375.090, 58.173, -175.777
380.546, 58.189, -174.226
386.081, 58.232, -172.646
391.697, 58.306, -171.320
397.395, 58.408, -170.206
403.175, 58.491, -169.344
409.039, 58.582, -168.705
414.989, 58.647, -168.117
421.025, 58.687, -167.469
427.149, 58.718, -166.835
433.362, 58.749, -166.199
439.665, 58.778, -165.635
446.060, 58.799, -164.932
452.548, 58.818, -164.299
459.131, 58.845, -163.632
465.809, 58.872, -162.980
472.584, 58.899, -162.278
479.458, 58.911, -161.538
486.432, 58.934, -160.745
493.507, 58.955, -159.878
500.686, 58.990, -158.965
507.968, 59.036, -158.112
515.357, 59.089, -157.260
522.853, 59.143, -156.444
530.458, 59.212, -155.687
538.174, 59.287, -154.858
546.002, 59.358, -154.149
553.943, 59.433, -153.442
562.001, 59.503, -152.773
570.175, 59.571, -152.138
578.469, 59.639, -151.452
586.883, 59.715, -150.739
595.419, 59.799, -150.048
604.080, 59.896, -149.352
612.866, 60.008, -148.745
621.780, 60.124, -148.314
630.824, 60.225, -148.003
640.000, 60.315, -147.781
649.309, 60.389, -147.578
658.753, 60.444, -147.343
668.335, 60.488, -147.047
678.056, 60.526, -146.727
687.919, 60.559, -146.346
697.925, 60.596, -145.901
708.076, 60.633, -145.401
718.376, 60.670, -144.889
728.825, 60.706, -144.339
739.426, 60.745, -143.766
750.181, 60.795, -143.179
761.093, 60.843, -142.572
772.163, 60.893, -141.961
783.394, 60.943, -141.317
794.789, 60.998, -140.662
806.349, 61.054, -140.010
818.078, 61.116, -139.369
829.977, 61.177, -138.684
842.050, 61.245, -138.005
854.297, 61.312, -137.293
866.724, 61.385, -136.590
879.330, 61.459, -135.880
892.120, 61.538, -135.150
905.097, 61.623, -134.410
918.262, 61.711, -133.684
931.618, 61.804, -132.957
945.169, 61.902, -132.247
958.917, 62.005, -131.544
972.864, 62.111, -130.857
987.015, 62.218, -130.194
1001.371, 62.323, -129.550
1015.937, 62.425, -128.882
1030.714, 62.529, -128.216
1045.706, 62.632, -127.529
1060.916, 62.738, -126.816
1076.347, 62.847, -126.069
1092.003, 62.965, -125.293
1107.887, 63.090, -124.508
1124.001, 63.224, -123.714
1140.350, 63.367, -122.920
1156.937, 63.515, -122.144
1173.765, 63.670, -121.389
1190.838, 63.833, -120.664
1208.159, 64.003, -119.968
1225.732, 64.176, -119.285
1243.561, 64.352, -118.636
1261.649, 64.534, -118.001
1280.000, 64.720, -117.381
1298.618, 64.911, -116.788
1317.507, 65.107, -116.221
1336.670, 65.307, -115.678
1356.113, 65.512, -115.154
1375.838, 65.723, -114.663
1395.850, 65.938, -114.194
1416.153, 66.158, -113.756
1436.751, 66.381, -113.341
1457.649, 66.609, -112.959
1478.851, 66.842, -112.613
1500.362, 67.080, -112.300
1522.185, 67.322, -112.012
1544.326, 67.568, -111.752
1566.789, 67.819, -111.523
1589.578, 68.075, -111.322
1612.699, 68.338, -111.148
1636.156, 68.608, -111.014
1659.955, 68.886, -110.917
1684.099, 69.171, -110.862
1708.595, 69.466, -110.862
1733.447, 69.770, -110.920
1758.661, 70.083, -111.050
1784.241, 70.405, -111.255
1810.193, 70.735, -111.549
1836.523, 71.076, -111.943
1863.236, 71.424, -112.446
1890.338, 71.781, -113.068
1917.833, 72.146, -113.833
1945.729, 72.517, -114.746
1974.030, 72.892, -115.831
2002.743, 73.270, -117.106
2031.873, 73.646, -118.583
2061.428, 74.019, -120.284
2091.412, 74.383, -122.219
2121.832, 74.733, -124.395
2152.695, 75.064, -126.817
2184.007, 75.367, -129.482
2215.774, 75.635, -132.366
2248.003, 75.863, -135.448
2280.701, 76.043, -138.680
2313.874, 76.170, -142.009
2347.530, 76.242, -145.373
2381.676, 76.257, -148.703
2416.318, 76.220, -151.929
2451.464, 76.134, -154.994
2487.122, 76.008, -157.854
2523.298, 75.848, -160.479
2560.000, 75.663, -162.855
2597.236, 75.460, -164.980
2635.014, 75.244, -166.859
2673.341, 75.020, -168.497
2712.226, 74.796, -169.909
2751.676, 74.572, -171.111
2791.700, 74.355, -172.118
2832.306, 74.144, -172.945
2873.503, 73.941, -173.602
2915.299, 73.752, -174.106
2957.703, 73.578, -174.474
3000.724, 73.421, -174.729
3044.370, 73.283, -174.890
3088.652, 73.162, -174.978
3133.577, 73.061, -175.015
3179.156, 72.979, -175.027
3225.398, 72.914, -175.033
3272.312, 72.867, -175.056
3319.909, 72.831, -175.103
3368.198, 72.800, -175.165
3417.190, 72.771, -175.191
3466.894, 72.749, -175.097
3517.321, 72.751, -174.820
3568.482, 72.803, -174.407
3620.387, 72.922, -174.016
3673.046, 73.109, -173.843
3726.472, 73.350, -174.036
3780.675, 73.630, -174.684
3835.666, 73.932, -175.851
3891.457, 74.244, -177.585
3948.060, 74.547, -179.951
4005.486, 74.820, 177.024
4063.747, 75.035, 173.325
4122.855, 75.159, 169.005
4182.824, 75.166, 164.209
4243.664, 75.029, 159.150
4305.390, 74.737, 154.103
4368.013, 74.297, 149.380
4431.547, 73.731, 145.222
4496.005, 73.071, 141.779
4561.401, 72.353, 139.126
4627.749, 71.609, 137.232
4695.061, 70.861, 136.008
4763.352, 70.119, 135.375
4832.637, 69.395, 135.257
4902.929, 68.691, 135.583
4974.244, 68.002, 136.321
5046.596, 67.325, 137.509
5120.000, 66.672, 139.275
5194.472, 66.084, 141.619
5270.027, 65.593, 144.238
5346.682, 65.173, 146.813
5424.451, 64.785, 149.407
5503.352, 64.429, 152.125
5583.399, 64.111, 154.968
5664.612, 63.836, 157.902
5747.006, 63.597, 160.918
5830.598, 63.402, 164.038
5915.406, 63.253, 167.210
6001.447, 63.149, 170.412
6088.740, 63.095, 173.634
6177.303, 63.093, 176.839
6267.154, 63.146, 179.995
6358.312, 63.255, -176.940
6450.796, 63.422, -174.010
6544.625, 63.654, -171.275
6639.818, 63.948, -168.795
6736.397, 64.310, -166.671
6834.380, 64.739, -165.021
6933.789, 65.228, -163.985
7034.643, 65.766, -163.740
7136.964, 66.329, -164.489
7240.773, 66.874, -166.423
7346.093, 67.337, -169.639
7452.944, 67.638, -174.040
7561.350, 67.702, -179.211
7671.332, 67.491, 175.554
7782.915, 67.021, 171.021
7896.120, 66.365, 167.745
8010.971, 65.616, 165.925
8127.493, 64.855, 165.426
8245.711, 64.127, 166.047
8365.647, 63.458, 167.573
8487.328, 62.863, 169.852
8610.779, 62.353, 172.758
8736.026, 61.943, 176.162
8863.095, 61.643, 179.948
8992.011, 61.459, -175.993
9122.803, 61.404, -171.783
9255.497, 61.494, -167.550
9390.121, 61.742, -163.453
9526.704, 62.168, -159.704
9665.273, 62.799, -156.621
9805.857, 63.656, -154.710
9948.487, 64.748, -154.792
10093.191, 66.005, -158.200
10240.000, 67.145, -166.558
10388.944, 67.625, -179.994
10540.055, 66.999, 165.408
10693.363, 65.464, 154.956
10848.902, 63.576, 149.838
11006.703, 61.720, 149.084
11166.799, 60.080, 151.232
11329.224, 58.692, 155.211
11494.012, 57.545, 160.358
11661.195, 56.622, 166.274
11830.812, 55.905, 172.700
12002.895, 55.384, 179.447
12177.480, 55.058, -173.629
12354.606, 54.937, -166.679
12534.309, 55.034, -159.880
12716.624, 55.376, -153.485
12901.592, 55.995, -147.876
13089.250, 56.933, -143.677
13279.637, 58.208, -142.010
13472.794, 59.720, -144.841
13668.760, 61.004, -154.629
13867.577, 61.223, -170.405
14069.285, 59.998, 175.166
14273.928, 57.925, 167.808
14481.547, 55.787, 166.831
14692.186, 53.924, 169.757
14905.889, 52.378, 174.986
15122.700, 51.127, -178.192
15342.664, 50.189, -170.102
15565.829, 49.627, -161.256
15792.239, 49.483, -152.395
16021.942, 49.773, -144.234
16254.986, 50.550, -137.462
16491.422, 51.889, -133.954
16731.295, 53.540, -137.154
16974.656, 54.658, -150.124
17221.559, 54.056, -168.376
17472.053, 51.775, -179.796
17726.189, 49.041, 178.817
17984.021, 46.696, -176.271
18245.605, 44.940, -168.199
18510.994, 43.795, -158.720
18780.242, 43.280, -149.052
19053.408, 43.527, -140.732
19330.547, 44.649, -137.536
19611.715, 45.913, -147.696
19896.975, 45.181, -169.801
