* Measurement data measured by REW V5.19
* Source: ASIO MOTU M Series, In 1
* Format: 128k Log Swept Sine, 1 sweep at -3.0 dBFS  With no timing reference
* Dated: 8 Mar, 2023 3:42:55 PM
* REW Settings:
*  C-weighting compensation: Off
*  Target level: 75.0 dB
* Note: ; 
* Measurement: Mar 8 15:42:55
* Smoothing: 1/48 octave
* Frequency Step: 1/48 octave
* Start Frequency: 10.1 Hz
*
* Freq(Hz), SPL(dB), Phase(degrees)
10.145, 69.909, -119.604
10.293, 69.908, -119.882
10.443, 69.908, -120.210
10.595, 69.922, -120.566
10.749, 69.955, -120.899
10.905, 70.017, -121.069
11.064, 70.103, -121.211
11.225, 70.205, -121.565
11.388, 70.322, -122.086
11.554, 70.438, -122.799
11.722, 70.552, -123.702
11.892, 70.643, -124.776
12.065, 70.711, -126.010
12.241, 70.744, -127.314
12.419, 70.743, -128.658
12.599, 70.710, -129.898
12.782, 70.650, -131.019
12.968, 70.576, -131.945
13.157, 70.501, -132.692
13.348, 70.439, -133.234
13.543, 70.403, -133.704
13.740, 70.398, -134.136
13.939, 70.421, -134.694
14.142, 70.464, -135.405
14.348, 70.513, -136.347
14.557, 70.552, -137.469
14.768, 70.573, -138.751
14.983, 70.567, -140.063
15.201, 70.541, -141.335
15.422, 70.500, -142.494
15.646, 70.461, -143.500
15.874, 70.433, -144.389
16.105, 70.427, -145.199
16.339, 70.443, -146.039
16.577, 70.471, -146.947
16.818, 70.504, -147.949
17.063, 70.526, -149.015
17.311, 70.535, -150.060
17.563, 70.532, -151.021
17.818, 70.523, -151.842
18.077, 70.522, -152.519
18.340, 70.537, -153.115
18.607, 70.566, -153.699
18.877, 70.603, -154.328
19.152, 70.637, -155.026
19.431, 70.655, -155.745
19.713, 70.658, -156.411
20.000, 70.650, -156.965
20.291, 70.645, -157.394
20.586, 70.653, -157.745
20.885, 70.680, -158.108
21.189, 70.720, -158.582
21.497, 70.762, -159.225
21.810, 70.790, -160.026
22.127, 70.796, -160.930
22.449, 70.775, -161.858
22.776, 70.733, -162.734
23.107, 70.678, -163.502
23.443, 70.621, -164.137
23.784, 70.575, -164.660
24.130, 70.550, -165.130
24.481, 70.547, -165.636
24.837, 70.557, -166.246
25.198, 70.566, -166.972
25.565, 70.563, -167.753
25.937, 70.546, -168.496
26.314, 70.523, -169.132
26.697, 70.506, -169.665
27.085, 70.503, -170.160
27.479, 70.506, -170.687
27.879, 70.506, -171.261
28.284, 70.496, -171.839
28.696, 70.479, -172.375
29.113, 70.460, -172.862
29.537, 70.445, -173.343
29.966, 70.431, -173.866
30.402, 70.412, -174.441
30.844, 70.383, -175.037
31.293, 70.348, -175.610
31.748, 70.313, -176.143
32.210, 70.285, -176.665
32.678, 70.264, -177.224
33.154, 70.242, -177.832
33.636, 70.214, -178.446
34.125, 70.184, -179.006
34.621, 70.158, -179.511
35.125, 70.141, 179.987
35.636, 70.124, 179.460
36.154, 70.103, 178.939
36.680, 70.082, 178.447
37.214, 70.066, 177.941
37.755, 70.045, 177.370
38.304, 70.010, 176.774
38.861, 69.964, 176.246
39.427, 69.921, 175.800
40.000, 69.889, 175.358
40.582, 69.860, 174.866
41.172, 69.826, 174.357
41.771, 69.788, 173.880
42.379, 69.753, 173.432
42.995, 69.719, 172.967
43.620, 69.675, 172.480
44.255, 69.617, 172.079
44.898, 69.566, 171.844
45.552, 69.552, 171.583
46.214, 69.547, 170.995
46.886, 69.494, 170.216
47.568, 69.405, 169.716
48.260, 69.362, 169.429
48.962, 69.354, 168.797
49.674, 69.287, 167.920
50.397, 69.173, 167.479
51.130, 69.112, 167.431
51.874, 69.101, 167.184
52.628, 69.068, 166.758
53.394, 69.023, 166.436
54.170, 68.987, 166.091
54.958, 68.936, 165.662
55.758, 68.873, 165.291
56.569, 68.814, 164.951
57.391, 68.760, 164.585
58.226, 68.710, 164.180
59.073, 68.654, 163.727
59.932, 68.589, 163.324
60.804, 68.529, 162.990
61.688, 68.472, 162.636
62.586, 68.406, 162.315
63.496, 68.346, 162.056
64.420, 68.290, 161.738
65.357, 68.226, 161.423
66.307, 68.170, 161.125
67.272, 68.106, 160.730
68.250, 68.024, 160.436
69.243, 67.955, 160.219
70.250, 67.886, 159.974
71.272, 67.826, 159.745
72.309, 67.763, 159.384
73.360, 67.680, 159.100
74.427, 67.615, 158.878
75.510, 67.544, 158.563
76.608, 67.472, 158.326
77.723, 67.395, 158.006
78.853, 67.297, 157.841
80.000, 67.222, 157.751
81.164, 67.148, 157.615
82.344, 67.084, 157.435
83.542, 67.011, 157.163
84.757, 66.927, 156.845
85.990, 66.821, 156.621
87.241, 66.734, 156.526
88.510, 66.658, 156.371
89.797, 66.579, 156.189
91.103, 66.489, 156.111
92.428, 66.407, 156.097
93.773, 66.321, 156.118
95.137, 66.238, 156.130
96.520, 66.148, 156.100
97.924, 66.059, 156.066
99.349, 65.962, 155.990
100.794, 65.877, 156.168
102.260, 65.827, 156.209
103.747, 65.761, 156.290
105.256, 65.698, 156.414
106.787, 65.631, 156.570
108.340, 65.568, 156.647
109.916, 65.499, 156.632
111.515, 65.438, 156.544
113.137, 65.380, 156.390
114.783, 65.318, 156.274
116.452, 65.258, 156.131
118.146, 65.171, 155.949
119.865, 65.068, 155.785
121.608, 64.956, 155.682
123.377, 64.849, 155.617
125.171, 64.724, 155.609
126.992, 64.598, 155.767
128.839, 64.471, 155.886
130.713, 64.344, 155.987
132.615, 64.215, 156.121
134.543, 64.079, 156.326
136.500, 63.936, 156.713
138.486, 63.789, 157.130
140.500, 63.625, 157.614
142.544, 63.485, 158.269
144.617, 63.359, 158.805
146.721, 63.221, 159.553
148.855, 63.088, 160.606
151.020, 62.951, 161.708
153.217, 62.817, 163.273
155.445, 62.718, 164.952
157.706, 62.648, 166.970
160.000, 62.661, 169.180
162.327, 62.750, 171.404
164.688, 62.930, 173.368
167.084, 63.187, 174.928
169.514, 63.504, 175.935
171.980, 63.824, 176.422
174.481, 64.134, 176.538
177.019, 64.431, 176.393
179.594, 64.723, 175.726
182.206, 64.958, 174.572
184.856, 65.140, 173.110
187.545, 65.281, 171.380
190.273, 65.344, 169.518
193.041, 65.330, 167.729
195.849, 65.264, 166.035
198.697, 65.159, 164.539
201.587, 65.015, 163.370
204.520, 64.853, 162.484
207.494, 64.687, 161.739
210.512, 64.526, 161.185
213.574, 64.360, 160.849
216.681, 64.198, 160.678
219.833, 64.041, 160.558
223.030, 63.895, 160.557
226.274, 63.759, 160.649
229.565, 63.623, 160.842
232.905, 63.492, 161.048
236.292, 63.382, 161.304
239.729, 63.288, 161.617
243.216, 63.208, 161.923
246.754, 63.140, 162.210
250.343, 63.078, 162.408
253.984, 63.013, 162.537
257.678, 62.944, 162.576
261.426, 62.869, 162.577
265.229, 62.786, 162.583
269.087, 62.684, 162.620
273.001, 62.577, 162.654
276.972, 62.471, 162.739
281.000, 62.345, 162.950
285.088, 62.228, 163.190
289.234, 62.111, 163.448
293.441, 61.995, 163.818
297.710, 61.874, 164.227
302.040, 61.747, 164.608
306.433, 61.636, 164.956
310.890, 61.516, 165.422
315.412, 61.403, 165.891
320.000, 61.289, 166.431
324.655, 61.176, 167.005
329.377, 61.069, 167.623
334.168, 60.952, 168.201
339.028, 60.836, 168.855
343.959, 60.729, 169.527
348.962, 60.615, 170.353
354.038, 60.488, 171.275
359.188, 60.360, 172.098
364.412, 60.234, 173.084
369.713, 60.115, 174.141
375.090, 60.000, 175.311
380.546, 59.891, 176.614
386.081, 59.804, 178.052
391.697, 59.730, 179.718
397.395, 59.684, -178.559
403.175, 59.683, -176.866
409.039, 59.713, -175.124
414.989, 59.754, -173.557
421.025, 59.832, -172.116
427.149, 59.923, -170.769
433.362, 60.025, -169.595
439.665, 60.118, -168.548
446.060, 60.223, -167.459
452.548, 60.336, -166.530
459.131, 60.450, -165.625
465.809, 60.570, -164.818
472.584, 60.694, -164.182
479.458, 60.821, -163.649
486.432, 60.940, -163.283
493.507, 61.033, -163.028
500.686, 61.108, -162.788
507.968, 61.165, -162.623
515.357, 61.209, -162.388
522.853, 61.235, -162.055
530.458, 61.250, -161.646
538.174, 61.262, -161.161
546.002, 61.279, -160.547
553.943, 61.312, -159.843
562.001, 61.360, -159.137
570.175, 61.417, -158.448
578.469, 61.485, -157.783
586.883, 61.556, -157.110
595.419, 61.634, -156.495
604.080, 61.719, -155.903
612.866, 61.805, -155.386
621.780, 61.899, -154.892
630.824, 62.004, -154.498
640.000, 62.100, -154.202
649.309, 62.190, -153.989
658.753, 62.273, -153.821
668.335, 62.340, -153.685
678.056, 62.396, -153.561
687.919, 62.445, -153.409
697.925, 62.484, -153.254
708.076, 62.519, -153.065
718.376, 62.551, -152.813
728.825, 62.578, -152.549
739.426, 62.600, -152.254
750.181, 62.624, -151.934
761.093, 62.645, -151.564
772.163, 62.667, -151.169
783.394, 62.690, -150.734
794.789, 62.713, -150.281
806.349, 62.739, -149.782
818.078, 62.766, -149.215
829.977, 62.797, -148.646
842.050, 62.835, -148.044
854.297, 62.878, -147.433
866.724, 62.926, -146.808
879.330, 62.978, -146.162
892.120, 63.036, -145.513
905.097, 63.099, -144.865
918.262, 63.168, -144.214
931.618, 63.242, -143.557
945.169, 63.322, -142.914
958.917, 63.407, -142.288
972.864, 63.496, -141.676
987.015, 63.589, -141.047
1001.371, 63.693, -140.399
1015.937, 63.809, -139.769
1030.714, 63.936, -139.206
1045.706, 64.072, -138.734
1060.916, 64.210, -138.353
1076.347, 64.349, -138.049
1092.003, 64.489, -137.821
1107.887, 64.628, -137.678
1124.001, 64.768, -137.627
1140.350, 64.902, -137.709
1156.937, 65.030, -137.959
1173.765, 65.134, -138.412
1190.838, 65.190, -139.051
1208.159, 65.171, -139.712
1225.732, 65.065, -140.023
1243.561, 64.917, -139.573
1261.649, 64.818, -138.337
1280.000, 64.825, -136.764
1298.618, 64.924, -135.305
1317.507, 65.073, -134.160
1336.670, 65.238, -133.299
1356.113, 65.404, -132.656
1375.838, 65.565, -132.145
1395.850, 65.720, -131.728
1416.153, 65.870, -131.367
1436.751, 66.018, -131.058
1457.649, 66.163, -130.779
1478.851, 66.306, -130.531
1500.362, 66.450, -130.312
1522.185, 66.595, -130.134
1544.326, 66.739, -130.002
1566.789, 66.882, -129.929
1589.578, 67.023, -129.918
1612.699, 67.159, -129.980
1636.156, 67.287, -130.125
1659.955, 67.397, -130.359
1684.099, 67.482, -130.651
1708.595, 67.528, -130.917
1733.447, 67.534, -130.972
1758.661, 67.522, -130.637
1784.241, 67.537, -129.899
1810.193, 67.607, -128.958
1836.523, 67.728, -128.053
1863.236, 67.882, -127.302
1890.338, 68.050, -126.705
1917.833, 68.222, -126.222
1945.729, 68.396, -125.821
1974.030, 68.570, -125.478
2002.743, 68.746, -125.187
2031.873, 68.923, -124.935
2061.428, 69.100, -124.723
2091.412, 69.275, -124.534
2121.832, 69.450, -124.355
2152.695, 69.626, -124.176
2184.007, 69.803, -123.994
2215.774, 69.983, -123.797
2248.003, 70.167, -123.567
2280.701, 70.360, -123.274
2313.874, 70.573, -122.923
2347.530, 70.815, -122.565
2381.676, 71.091, -122.280
2416.318, 71.399, -122.160
2451.464, 71.733, -122.288
2487.122, 72.081, -122.732
2523.298, 72.425, -123.530
2560.000, 72.746, -124.655
2597.236, 73.030, -126.006
2635.014, 73.273, -127.469
2673.341, 73.483, -128.956
2712.226, 73.665, -130.421
2751.676, 73.830, -131.846
2791.700, 73.980, -133.240
2832.306, 74.120, -134.614
2873.503, 74.250, -135.976
2915.299, 74.373, -137.334
2957.703, 74.490, -138.692
3000.724, 74.600, -140.069
3044.370, 74.705, -141.480
3088.652, 74.800, -142.937
3133.577, 74.883, -144.442
3179.156, 74.951, -145.973
3225.398, 75.000, -147.501
3272.312, 75.038, -149.050
3319.909, 75.054, -150.549
3368.198, 75.063, -151.990
3417.190, 75.062, -153.433
3466.894, 75.045, -154.866
3517.321, 75.017, -156.302
3568.482, 74.982, -157.675
3620.387, 74.927, -158.969
3673.046, 74.863, -160.222
3726.472, 74.787, -161.392
3780.675, 74.704, -162.481
3835.666, 74.614, -163.496
3891.457, 74.518, -164.420
3948.060, 74.418, -165.247
4005.486, 74.317, -165.978
4063.747, 74.218, -166.618
4122.855, 74.121, -167.167
4182.824, 74.031, -167.623
4243.664, 73.951, -167.999
4305.390, 73.885, -168.325
4368.013, 73.834, -168.645
4431.547, 73.794, -168.986
4496.005, 73.763, -169.367
4561.401, 73.735, -169.799
4627.749, 73.708, -170.277
4695.061, 73.679, -170.791
4763.352, 73.645, -171.318
4832.637, 73.608, -171.838
4902.929, 73.569, -172.337
4974.244, 73.532, -172.823
5046.596, 73.497, -173.316
5120.000, 73.461, -173.827
5194.472, 73.421, -174.342
5270.027, 73.377, -174.824
5346.682, 73.335, -175.261
5424.451, 73.300, -175.682
5503.352, 73.272, -176.131
5583.399, 73.246, -176.626
5664.612, 73.218, -177.172
5747.006, 73.183, -177.750
5830.598, 73.142, -178.331
5915.406, 73.095, -178.889
6001.447, 73.049, -179.412
6088.740, 73.007, -179.906
6177.303, 72.976, 179.618
6267.154, 72.959, 179.099
6358.312, 72.954, 178.484
6450.796, 72.958, 177.745
6544.625, 72.967, 176.852
6639.818, 72.978, 175.776
6736.397, 72.984, 174.483
6834.380, 72.977, 172.958
6933.789, 72.948, 171.191
7034.643, 72.887, 169.194
7136.964, 72.783, 166.992
7240.773, 72.626, 164.635
7346.093, 72.408, 162.201
7452.944, 72.123, 159.788
7561.350, 71.772, 157.507
7671.332, 71.361, 155.454
7782.915, 70.898, 153.696
7896.120, 70.393, 152.278
8010.971, 69.853, 151.242
8127.493, 69.288, 150.612
8245.711, 68.707, 150.421
8365.647, 68.121, 150.664
8487.328, 67.537, 151.333
8610.779, 66.965, 152.415
8736.026, 66.412, 153.888
8863.095, 65.884, 155.726
8992.011, 65.389, 157.897
9122.803, 64.934, 160.368
9255.497, 64.522, 163.096
9390.121, 64.156, 166.034
9526.704, 63.837, 169.147
9665.273, 63.567, 172.433
9805.857, 63.353, 175.862
9948.487, 63.201, 179.407
10093.191, 63.116, -176.973
10240.000, 63.104, -173.319
10388.944, 63.173, -169.671
10540.055, 63.331, -166.111
10693.363, 63.578, -162.680
10848.902, 63.946, -159.404
11006.703, 64.448, -156.627
11166.799, 65.082, -154.583
11329.224, 65.853, -153.643
11494.012, 66.720, -154.499
11661.195, 67.554, -157.689
11830.812, 68.195, -163.235
12002.895, 68.465, -170.622
12177.480, 68.246, -178.391
12354.606, 67.585, 175.227
12534.309, 66.668, 171.245
12716.624, 65.693, 169.703
12901.592, 64.801, 170.131
13089.250, 64.073, 171.965
13279.637, 63.550, 174.730
13472.794, 63.269, 177.982
13668.760, 63.253, -178.805
13867.577, 63.511, -176.174
14069.285, 64.050, -174.772
14273.928, 64.874, -175.566
14481.547, 65.896, 179.640
14692.186, 66.676, 168.610
14905.889, 66.451, 152.581
15122.700, 64.912, 138.202
15342.664, 62.590, 130.353
15565.829, 60.174, 128.503
15792.239, 58.000, 130.526
16021.942, 56.137, 134.914
16254.986, 54.549, 141.100
16491.422, 53.382, 149.110
16731.295, 52.701, 155.834
16974.656, 52.061, 162.380
17221.559, 51.696, 169.571
17472.053, 51.730, 176.466
17726.189, 52.240, -177.981
17984.021, 53.357, -175.674
18245.605, 55.017, 178.672
18510.994, 56.002, 158.072
18780.242, 54.316, 129.208
19053.408, 49.858, 113.256
19330.547, 44.451, 112.678
19611.715, 38.711, 124.386
19896.975, 32.323, 155.227
