* Measurement data measured by REW V5.19
* Source: ASIO MOTU M Series, In 1
* Format: 1M Log Swept Sine, 1 sweep at -3.0 dBFS  With no timing reference
* Dated: 14 Mar, 2023 4:31:24 PM
* REW Settings:
*  C-weighting compensation: Off
*  Target level: 75.0 dB
* Note: ; 
* Measurement: Mar 14 16:31:24
* Smoothing: 1/48 octave
* Frequency Step: 1/48 octave
* Start Frequency: 10.1 Hz
*
* Freq(Hz), SPL(dB), Phase(degrees)
10.145, 67.255, 46.755
10.293, 67.275, 46.215
10.443, 67.296, 45.489
10.595, 67.326, 44.537
10.749, 67.356, 43.545
10.905, 67.373, 42.794
11.064, 67.384, 42.133
11.225, 67.397, 41.399
11.388, 67.409, 40.644
11.554, 67.420, 39.939
11.722, 67.430, 39.273
11.892, 67.442, 38.632
12.065, 67.455, 38.014
12.241, 67.470, 37.389
12.419, 67.487, 36.764
12.599, 67.506, 36.152
12.782, 67.525, 35.539
12.968, 67.545, 34.902
13.157, 67.564, 34.256
13.348, 67.581, 33.608
13.543, 67.596, 32.957
13.740, 67.608, 32.304
13.939, 67.617, 31.663
14.142, 67.624, 31.037
14.348, 67.629, 30.433
14.557, 67.635, 29.847
14.768, 67.643, 29.278
14.983, 67.653, 28.717
15.201, 67.665, 28.155
15.422, 67.680, 27.580
15.646, 67.696, 26.984
15.874, 67.710, 26.367
16.105, 67.722, 25.728
16.339, 67.730, 25.082
16.577, 67.733, 24.443
16.818, 67.732, 23.822
17.063, 67.729, 23.232
17.311, 67.727, 22.672
17.563, 67.726, 22.138
17.818, 67.729, 21.618
18.077, 67.734, 21.099
18.340, 67.740, 20.578
18.607, 67.746, 20.057
18.877, 67.751, 19.546
19.152, 67.756, 19.055
19.431, 67.763, 18.588
19.713, 67.776, 18.130
20.000, 67.793, 17.657
20.291, 67.811, 17.145
20.586, 67.827, 16.587
20.885, 67.834, 15.997
21.189, 67.828, 15.420
21.497, 67.810, 14.914
21.810, 67.791, 14.516
22.127, 67.778, 14.217
22.449, 67.782, 13.962
22.776, 67.801, 13.670
23.107, 67.828, 13.280
23.443, 67.850, 12.782
23.784, 67.859, 12.223
24.130, 67.853, 11.680
24.481, 67.838, 11.204
24.837, 67.827, 10.794
25.198, 67.824, 10.401
25.565, 67.828, 9.966
25.937, 67.830, 9.470
26.314, 67.824, 8.946
26.697, 67.811, 8.446
27.085, 67.797, 7.996
27.479, 67.788, 7.579
27.879, 67.786, 7.153
28.284, 67.787, 6.696
28.696, 67.784, 6.223
29.113, 67.780, 5.763
29.537, 67.775, 5.331
29.966, 67.774, 4.908
30.402, 67.775, 4.476
30.844, 67.774, 4.035
31.293, 67.769, 3.605
31.748, 67.763, 3.206
32.210, 67.759, 2.832
32.678, 67.758, 2.455
33.154, 67.759, 2.052
33.636, 67.756, 1.619
34.125, 67.748, 1.177
34.621, 67.734, 0.756
35.125, 67.721, 0.364
35.636, 67.712, -0.022
36.154, 67.706, -0.431
36.680, 67.698, -0.866
37.214, 67.686, -1.303
37.755, 67.674, -1.726
38.304, 67.663, -2.137
38.861, 67.653, -2.546
39.427, 67.644, -2.955
40.000, 67.635, -3.362
40.582, 67.624, -3.766
41.172, 67.612, -4.157
41.771, 67.602, -4.539
42.379, 67.594, -4.932
42.995, 67.583, -5.346
43.620, 67.570, -5.764
44.255, 67.556, -6.177
44.898, 67.543, -6.600
45.552, 67.527, -7.030
46.214, 67.509, -7.434
46.886, 67.496, -7.815
47.568, 67.487, -8.214
48.260, 67.477, -8.639
48.962, 67.463, -9.046
49.674, 67.450, -9.415
50.397, 67.442, -9.786
51.130, 67.434, -10.197
51.874, 67.419, -10.634
52.628, 67.397, -11.045
53.394, 67.376, -11.419
54.170, 67.360, -11.815
54.958, 67.339, -12.256
55.758, 67.311, -12.663
56.569, 67.292, -13.016
57.391, 67.284, -13.426
58.226, 67.269, -13.895
59.073, 67.249, -14.331
59.932, 67.232, -14.744
60.804, 67.214, -15.169
61.688, 67.194, -15.585
62.586, 67.174, -15.993
63.496, 67.152, -16.405
64.420, 67.128, -16.815
65.357, 67.106, -17.220
66.307, 67.084, -17.656
67.272, 67.056, -18.098
68.250, 67.030, -18.505
69.243, 67.008, -18.937
70.250, 66.980, -19.380
71.272, 66.952, -19.792
72.309, 66.926, -20.217
73.360, 66.896, -20.641
74.427, 66.869, -21.043
75.510, 66.843, -21.484
76.608, 66.811, -21.907
77.723, 66.791, -22.326
78.853, 66.759, -22.832
80.000, 66.719, -23.217
81.164, 66.691, -23.594
82.344, 66.666, -23.998
83.542, 66.631, -24.474
84.757, 66.599, -24.867
85.990, 66.566, -25.442
87.241, 66.509, -25.801
88.510, 66.507, -26.185
89.797, 66.465, -26.900
91.103, 66.373, -27.198
92.428, 66.336, -27.177
93.773, 66.329, -27.487
95.137, 66.289, -27.905
96.520, 66.248, -28.366
97.924, 66.208, -28.881
99.349, 66.164, -29.496
100.794, 66.116, -29.984
102.260, 66.081, -30.408
103.747, 66.046, -30.876
105.256, 65.990, -31.245
106.787, 65.941, -31.620
108.340, 65.885, -31.985
109.916, 65.842, -32.393
111.515, 65.794, -32.851
113.137, 65.743, -33.240
114.783, 65.696, -33.581
116.452, 65.647, -33.918
118.146, 65.602, -34.271
119.865, 65.556, -34.653
121.608, 65.510, -35.056
123.377, 65.466, -35.420
125.171, 65.422, -35.810
126.992, 65.373, -36.187
128.839, 65.322, -36.527
130.713, 65.279, -36.856
132.615, 65.234, -37.208
134.543, 65.193, -37.547
136.500, 65.146, -37.874
138.486, 65.109, -38.210
140.500, 65.068, -38.614
142.544, 65.026, -38.983
144.617, 64.994, -39.372
146.721, 64.954, -39.848
148.855, 64.904, -40.289
151.020, 64.857, -40.771
153.217, 64.801, -41.263
155.445, 64.743, -41.667
157.706, 64.685, -42.104
160.000, 64.615, -42.563
162.327, 64.547, -42.953
164.688, 64.495, -43.492
167.084, 64.383, -43.649
169.514, 64.377, -43.826
171.980, 64.305, -44.456
174.481, 64.225, -44.736
177.019, 64.140, -44.922
179.594, 64.045, -45.200
182.206, 63.961, -45.536
184.856, 63.903, -45.734
187.545, 63.838, -45.767
190.273, 63.755, -45.785
193.041, 63.682, -45.795
195.849, 63.632, -45.723
198.697, 63.589, -45.551
201.587, 63.568, -45.335
204.520, 63.577, -45.151
207.494, 63.609, -45.003
210.512, 63.663, -44.996
213.574, 63.734, -45.187
216.681, 63.807, -45.608
219.833, 63.870, -46.212
223.030, 63.916, -46.972
226.274, 63.942, -47.836
229.565, 63.944, -48.754
232.905, 63.926, -49.665
236.292, 63.891, -50.548
239.729, 63.843, -51.382
243.216, 63.785, -52.155
246.754, 63.720, -52.860
250.343, 63.651, -53.511
253.984, 63.582, -54.119
257.678, 63.515, -54.671
261.426, 63.449, -55.194
265.229, 63.389, -55.699
269.087, 63.330, -56.123
273.001, 63.264, -56.740
276.972, 63.208, -57.021
281.000, 63.179, -57.633
285.088, 63.115, -58.257
289.234, 63.045, -58.713
293.441, 62.981, -59.190
297.710, 62.911, -59.683
302.040, 62.840, -60.198
306.433, 62.769, -60.691
310.890, 62.701, -61.078
315.412, 62.620, -61.467
320.000, 62.548, -61.893
324.655, 62.474, -62.264
329.377, 62.401, -62.629
334.168, 62.325, -62.912
339.028, 62.246, -63.247
343.959, 62.177, -63.569
348.962, 62.105, -63.851
354.038, 62.033, -64.095
359.188, 61.960, -64.329
364.412, 61.887, -64.549
369.713, 61.813, -64.731
375.090, 61.740, -64.884
380.546, 61.669, -65.011
386.081, 61.601, -65.095
391.697, 61.535, -65.133
397.395, 61.470, -65.130
403.175, 61.410, -65.093
409.039, 61.356, -65.021
414.989, 61.306, -64.904
421.025, 61.263, -64.746
427.149, 61.230, -64.564
433.362, 61.207, -64.365
439.665, 61.191, -64.143
446.060, 61.184, -63.923
452.548, 61.187, -63.692
459.131, 61.198, -63.446
465.809, 61.223, -63.204
472.584, 61.262, -62.995
479.458, 61.312, -62.816
486.432, 61.371, -62.695
493.507, 61.439, -62.670
500.686, 61.509, -62.726
507.968, 61.578, -62.834
515.357, 61.646, -63.000
522.853, 61.711, -63.210
530.458, 61.772, -63.458
538.174, 61.830, -63.734
546.002, 61.881, -64.024
553.943, 61.926, -64.322
562.001, 61.960, -64.594
570.175, 61.994, -64.771
578.469, 62.028, -64.964
586.883, 62.073, -65.095
595.419, 62.119, -65.131
604.080, 62.177, -65.136
612.866, 62.249, -65.145
621.780, 62.335, -65.173
630.824, 62.431, -65.267
640.000, 62.534, -65.440
649.309, 62.639, -65.675
658.753, 62.741, -65.965
668.335, 62.839, -66.294
678.056, 62.933, -66.642
687.919, 63.024, -66.986
697.925, 63.115, -67.308
708.076, 63.207, -67.621
718.376, 63.303, -67.919
728.825, 63.402, -68.216
739.426, 63.507, -68.515
750.181, 63.617, -68.827
761.093, 63.731, -69.161
772.163, 63.849, -69.519
783.394, 63.969, -69.906
794.789, 64.089, -70.313
806.349, 64.210, -70.748
818.078, 64.333, -71.203
829.977, 64.456, -71.663
842.050, 64.581, -72.130
854.297, 64.707, -72.598
866.724, 64.837, -73.068
879.330, 64.970, -73.548
892.120, 65.108, -74.052
905.097, 65.249, -74.583
918.262, 65.393, -75.138
931.618, 65.539, -75.726
945.169, 65.687, -76.344
958.917, 65.837, -76.990
972.864, 65.987, -77.663
987.015, 66.139, -78.367
1001.371, 66.290, -79.100
1015.937, 66.441, -79.865
1030.714, 66.594, -80.666
1045.706, 66.748, -81.494
1060.916, 66.900, -82.351
1076.347, 67.051, -83.241
1092.003, 67.201, -84.162
1107.887, 67.349, -85.116
1124.001, 67.494, -86.098
1140.350, 67.636, -87.105
1156.937, 67.775, -88.133
1173.765, 67.909, -89.178
1190.838, 68.040, -90.236
1208.159, 68.168, -91.299
1225.732, 68.292, -92.365
1243.561, 68.413, -93.425
1261.649, 68.533, -94.485
1280.000, 68.654, -95.544
1298.618, 68.775, -96.609
1317.507, 68.897, -97.682
1336.670, 69.019, -98.775
1356.113, 69.142, -99.897
1375.838, 69.264, -101.047
1395.850, 69.383, -102.226
1416.153, 69.499, -103.433
1436.751, 69.612, -104.663
1457.649, 69.719, -105.910
1478.851, 69.823, -107.168
1500.362, 69.922, -108.434
1522.185, 70.017, -109.708
1544.326, 70.109, -110.987
1566.789, 70.197, -112.269
1589.578, 70.283, -113.556
1612.699, 70.365, -114.844
1636.156, 70.442, -116.130
1659.955, 70.516, -117.409
1684.099, 70.588, -118.682
1708.595, 70.660, -119.949
1733.447, 70.731, -121.215
1758.661, 70.802, -122.489
1784.241, 70.873, -123.777
1810.193, 70.945, -125.089
1836.523, 71.015, -126.434
1863.236, 71.082, -127.813
1890.338, 71.144, -129.225
1917.833, 71.200, -130.669
1945.729, 71.248, -132.133
1974.030, 71.289, -133.614
2002.743, 71.322, -135.103
2031.873, 71.349, -136.593
2061.428, 71.368, -138.085
2091.412, 71.380, -139.576
2121.832, 71.385, -141.062
2152.695, 71.383, -142.542
2184.007, 71.373, -144.009
2215.774, 71.353, -145.452
2248.003, 71.328, -146.875
2280.701, 71.294, -148.262
2313.874, 71.254, -149.611
2347.530, 71.209, -150.912
2381.676, 71.160, -152.168
2416.318, 71.109, -153.386
2451.464, 71.058, -154.567
2487.122, 71.006, -155.727
2523.298, 70.953, -156.882
2560.000, 70.895, -158.029
2597.236, 70.830, -159.160
2635.014, 70.756, -160.256
2673.341, 70.675, -161.301
2712.226, 70.589, -162.284
2751.676, 70.501, -163.201
2791.700, 70.409, -164.046
2832.306, 70.315, -164.815
2873.503, 70.221, -165.510
2915.299, 70.129, -166.127
2957.703, 70.039, -166.666
3000.724, 69.954, -167.129
3044.370, 69.876, -167.519
3088.652, 69.806, -167.846
3133.577, 69.743, -168.116
3179.156, 69.690, -168.332
3225.398, 69.648, -168.498
3272.312, 69.620, -168.619
3319.909, 69.606, -168.708
3368.198, 69.609, -168.778
3417.190, 69.628, -168.846
3466.894, 69.665, -168.921
3517.321, 69.722, -169.020
3568.482, 69.801, -169.173
3620.387, 69.902, -169.408
3673.046, 70.025, -169.759
3726.472, 70.168, -170.267
3780.675, 70.329, -170.967
3835.666, 70.502, -171.894
3891.457, 70.686, -173.088
3948.060, 70.873, -174.591
4005.486, 71.056, -176.455
4063.747, 71.222, -178.734
4122.855, 71.347, 178.540
4182.824, 71.405, 175.380
4243.664, 71.362, 171.912
4305.390, 71.192, 168.432
4368.013, 70.901, 165.373
4431.547, 70.554, 163.028
4496.005, 70.227, 161.201
4561.401, 69.931, 159.406
4627.749, 69.615, 157.434
4695.061, 69.236, 155.455
4763.352, 68.785, 153.729
4832.637, 68.278, 152.441
4902.929, 67.736, 151.697
4974.244, 67.183, 151.521
5046.596, 66.635, 151.886
5120.000, 66.108, 152.753
5194.472, 65.610, 154.079
5270.027, 65.151, 155.823
5346.682, 64.737, 157.945
5424.451, 64.373, 160.410
5503.352, 64.066, 163.183
5583.399, 63.826, 166.223
5664.612, 63.663, 169.466
5747.006, 63.583, 172.854
5830.598, 63.597, 176.308
5915.406, 63.718, 179.719
6001.447, 63.955, -177.080
6088.740, 64.318, -174.329
6177.303, 64.803, -172.361
6267.154, 65.383, -171.635
6358.312, 65.976, -172.623
6450.796, 66.438, -175.508
6544.625, 66.611, -179.762
6639.818, 66.408, 175.909
6736.397, 65.891, 172.908
6834.380, 65.221, 171.933
6933.789, 64.558, 172.902
7034.643, 64.003, 175.347
7136.964, 63.605, 178.753
7240.773, 63.377, -177.306
7346.093, 63.317, -173.159
7452.944, 63.416, -169.061
7561.350, 63.663, -165.222
7671.332, 64.045, -161.825
7782.915, 64.550, -159.059
7896.120, 65.159, -157.119
8010.971, 65.848, -156.242
8127.493, 66.569, -156.682
8245.711, 67.252, -158.581
8365.647, 67.811, -161.878
8487.328, 68.163, -166.197
8610.779, 68.267, -170.885
8736.026, 68.128, -175.225
8863.095, 67.801, -178.650
8992.011, 67.365, 179.231
9122.803, 66.938, 178.511
9255.497, 66.622, 178.752
9390.121, 66.456, 179.351
9526.704, 66.445, 179.798
9665.273, 66.585, 179.523
9805.857, 66.829, 177.808
9948.487, 67.051, 173.900
10093.191, 67.018, 167.490
10240.000, 66.442, 159.616
10388.944, 65.175, 153.015
10540.055, 63.374, 150.797
10693.363, 61.526, 154.355
10848.902, 60.161, 161.584
11006.703, 59.330, 170.071
11166.799, 58.945, 178.676
11329.224, 58.936, -173.291
11494.012, 59.231, -166.456
11661.195, 59.740, -161.365
11830.812, 60.312, -158.419
12002.895, 60.776, -157.236
12177.480, 61.075, -156.775
12354.606, 61.255, -156.391
12534.309, 61.373, -155.675
12716.624, 61.535, -154.565
12901.592, 61.823, -153.483
13089.250, 62.269, -153.129
13279.637, 62.830, -154.405
13472.794, 63.353, -158.010
13668.760, 63.616, -163.877
13867.577, 63.414, -170.580
14069.285, 62.800, -175.932
14273.928, 62.005, -179.070
14481.547, 61.206, 179.914
14692.186, 60.568, -179.251
14905.889, 60.266, -177.312
15122.700, 60.459, -175.605
15342.664, 61.261, -176.378
15565.829, 62.548, 176.503
15792.239, 63.550, 158.488
16021.942, 62.927, 130.319
16254.986, 59.727, 105.053
16491.422, 54.813, 98.216
16731.295, 50.740, 98.000
16974.656, 46.717, 102.846
17221.559, 43.145, 112.702
17472.053, 40.145, 124.464
17726.189, 37.526, 137.086
17984.021, 35.124, 150.264
18245.605, 32.787, 164.039
18510.994, 30.385, 178.867
18780.242, 27.634, -163.909
19053.408, 24.132, -137.684
19330.547, 21.005, -85.555
19611.715, 25.440, -22.001
19896.975, 31.006, 8.888
