* Measurement data measured by REW V5.19
* Source: ASIO MOTU M Series, In 1
* Format: 1M Log Swept Sine, 1 sweep at -3.0 dBFS  With no timing reference
* Dated: 27 Mar, 2023 5:27:23 PM
* REW Settings:
*  C-weighting compensation: Off
*  Target level: 75.0 dB
* Note: ; 
* Measurement: Mar 27 17:27:23
* Smoothing: 1/48 octave
* Frequency Step: 1/48 octave
* Start Frequency: 10.1 Hz
*
* Freq(Hz), SPL(dB), Phase(degrees)
10.145, 60.508, -81.161
10.293, 60.578, -81.837
10.443, 60.651, -82.742
10.595, 60.768, -83.920
10.749, 60.893, -85.150
10.905, 60.997, -86.094
11.064, 61.095, -86.947
11.225, 61.203, -87.951
11.388, 61.314, -89.033
11.554, 61.420, -90.101
11.722, 61.521, -91.167
11.892, 61.616, -92.228
12.065, 61.707, -93.283
12.241, 61.794, -94.341
12.419, 61.877, -95.391
12.599, 61.957, -96.396
12.782, 62.035, -97.376
12.968, 62.114, -98.355
13.157, 62.192, -99.327
13.348, 62.270, -100.287
13.543, 62.346, -101.252
13.740, 62.419, -102.225
13.939, 62.489, -103.199
14.142, 62.555, -104.168
14.348, 62.615, -105.119
14.557, 62.672, -106.046
14.768, 62.725, -106.943
14.983, 62.778, -107.803
15.201, 62.832, -108.633
15.422, 62.887, -109.441
15.646, 62.946, -110.241
15.874, 63.007, -111.042
16.105, 63.069, -111.852
16.339, 63.130, -112.674
16.577, 63.190, -113.503
16.818, 63.248, -114.334
17.063, 63.303, -115.159
17.311, 63.357, -115.975
17.563, 63.410, -116.782
17.818, 63.462, -117.580
18.077, 63.513, -118.370
18.340, 63.564, -119.147
18.607, 63.613, -119.909
18.877, 63.664, -120.652
19.152, 63.716, -121.383
19.431, 63.772, -122.119
19.713, 63.830, -122.883
20.000, 63.884, -123.686
20.291, 63.929, -124.517
20.586, 63.961, -125.336
20.885, 63.978, -126.079
21.189, 63.990, -126.680
21.497, 64.010, -127.120
21.810, 64.055, -127.458
22.127, 64.132, -127.822
22.449, 64.233, -128.351
22.776, 64.336, -129.127
23.107, 64.417, -130.124
23.443, 64.458, -131.207
23.784, 64.459, -132.199
24.130, 64.439, -132.965
24.481, 64.426, -133.490
24.837, 64.438, -133.886
25.198, 64.477, -134.317
25.565, 64.528, -134.885
25.937, 64.569, -135.568
26.314, 64.594, -136.263
26.697, 64.609, -136.871
27.085, 64.630, -137.385
27.479, 64.668, -137.887
27.879, 64.714, -138.467
28.284, 64.755, -139.137
28.696, 64.780, -139.822
29.113, 64.794, -140.431
29.537, 64.809, -140.932
29.966, 64.836, -141.382
30.402, 64.873, -141.860
30.844, 64.909, -142.396
31.293, 64.936, -142.949
31.748, 64.955, -143.457
32.210, 64.974, -143.898
32.678, 65.001, -144.315
33.154, 65.033, -144.773
33.636, 65.061, -145.294
34.125, 65.077, -145.830
34.621, 65.085, -146.311
35.125, 65.097, -146.724
35.636, 65.118, -147.126
36.154, 65.145, -147.583
36.680, 65.169, -148.090
37.214, 65.186, -148.589
37.755, 65.204, -149.043
38.304, 65.228, -149.481
38.861, 65.257, -149.949
39.427, 65.283, -150.443
40.000, 65.304, -150.921
40.582, 65.327, -151.367
41.172, 65.352, -151.825
41.771, 65.373, -152.318
42.379, 65.383, -152.794
42.995, 65.389, -153.195
43.620, 65.404, -153.559
44.255, 65.425, -153.971
44.898, 65.441, -154.446
45.552, 65.448, -154.933
46.214, 65.447, -155.389
46.886, 65.444, -155.787
47.568, 65.447, -156.136
48.260, 65.459, -156.503
48.962, 65.470, -156.910
49.674, 65.476, -157.302
50.397, 65.485, -157.673
51.130, 65.494, -158.069
51.874, 65.495, -158.455
52.628, 65.497, -158.785
53.394, 65.504, -159.116
54.170, 65.505, -159.475
54.958, 65.496, -159.769
55.758, 65.492, -159.947
56.569, 65.503, -160.106
57.391, 65.515, -160.299
58.226, 65.526, -160.455
59.073, 65.545, -160.580
59.932, 65.570, -160.708
60.804, 65.605, -160.846
61.688, 65.649, -161.062
62.586, 65.692, -161.349
63.496, 65.734, -161.692
64.420, 65.769, -162.123
65.357, 65.792, -162.563
66.307, 65.812, -163.042
67.272, 65.814, -163.566
68.250, 65.809, -163.979
69.243, 65.817, -164.435
70.250, 65.802, -164.932
71.272, 65.787, -165.142
72.309, 65.821, -165.367
73.360, 65.842, -165.865
74.427, 65.820, -166.270
75.510, 65.794, -166.487
76.608, 65.768, -166.678
77.723, 65.736, -166.817
78.853, 65.719, -166.945
80.000, 65.705, -167.172
81.164, 65.690, -167.361
82.344, 65.688, -167.474
83.542, 65.702, -167.585
84.757, 65.712, -167.641
85.990, 65.744, -167.643
87.241, 65.777, -167.750
88.510, 65.801, -167.827
89.797, 65.849, -167.728
91.103, 65.950, -167.936
92.428, 66.005, -168.372
93.773, 66.060, -168.687
95.137, 66.114, -169.170
96.520, 66.144, -169.778
97.924, 66.149, -170.442
99.349, 66.136, -171.046
100.794, 66.118, -171.595
102.260, 66.093, -172.064
103.747, 66.064, -172.466
105.256, 66.025, -172.788
106.787, 65.987, -173.005
108.340, 65.962, -173.150
109.916, 65.944, -173.279
111.515, 65.941, -173.338
113.137, 65.951, -173.433
114.783, 65.968, -173.563
116.452, 65.988, -173.799
118.146, 66.004, -174.096
119.865, 66.016, -174.436
121.608, 66.021, -174.815
123.377, 66.015, -175.190
125.171, 66.004, -175.543
126.992, 65.987, -175.894
128.839, 65.961, -176.223
130.713, 65.927, -176.531
132.615, 65.885, -176.769
134.543, 65.843, -176.919
136.500, 65.805, -176.989
138.486, 65.771, -176.989
140.500, 65.746, -176.883
142.544, 65.742, -176.738
144.617, 65.753, -176.612
146.721, 65.775, -176.511
148.855, 65.811, -176.457
151.020, 65.852, -176.532
153.217, 65.890, -176.671
155.445, 65.924, -176.829
157.706, 65.960, -176.966
160.000, 66.002, -177.116
162.327, 66.057, -177.330
164.688, 66.119, -177.652
167.084, 66.183, -178.098
169.514, 66.238, -178.680
171.980, 66.278, -179.376
174.481, 66.295, 179.823
177.019, 66.286, 179.013
179.594, 66.260, 178.249
182.206, 66.216, 177.537
184.856, 66.158, 176.929
187.545, 66.094, 176.418
190.273, 66.029, 175.986
193.041, 65.959, 175.637
195.849, 65.889, 175.380
198.697, 65.828, 175.169
201.587, 65.772, 175.037
204.520, 65.720, 174.952
207.494, 65.679, 174.860
210.512, 65.654, 174.774
213.574, 65.635, 174.654
216.681, 65.620, 174.441
219.833, 65.620, 174.069
223.030, 65.592, 173.885
226.274, 65.566, 173.658
229.565, 65.530, 173.288
232.905, 65.491, 172.949
236.292, 65.439, 172.628
239.729, 65.378, 172.342
243.216, 65.319, 172.156
246.754, 65.259, 172.009
250.343, 65.205, 171.895
253.984, 65.156, 171.810
257.678, 65.110, 171.730
261.426, 65.069, 171.631
265.229, 65.034, 171.495
269.087, 64.997, 171.314
273.001, 64.956, 171.100
276.972, 64.906, 170.869
281.000, 64.858, 170.610
285.088, 64.803, 170.386
289.234, 64.743, 170.192
293.441, 64.673, 170.010
297.710, 64.598, 169.861
302.040, 64.521, 169.741
306.433, 64.444, 169.613
310.890, 64.365, 169.489
315.412, 64.281, 169.413
320.000, 64.193, 169.374
324.655, 64.104, 169.362
329.377, 64.004, 169.378
334.168, 63.902, 169.485
339.028, 63.803, 169.653
343.959, 63.697, 169.871
348.962, 63.591, 170.100
354.038, 63.493, 170.403
359.188, 63.390, 170.790
364.412, 63.288, 171.228
369.713, 63.184, 171.774
375.090, 63.086, 172.435
380.546, 63.000, 173.180
386.081, 62.931, 174.002
391.697, 62.881, 174.920
397.395, 62.853, 175.877
403.175, 62.850, 176.819
409.039, 62.870, 177.743
414.989, 62.908, 178.556
421.025, 62.961, 179.262
427.149, 63.021, 179.846
433.362, 63.084, -179.715
439.665, 63.138, -179.352
446.060, 63.186, -179.069
452.548, 63.227, -178.826
459.131, 63.264, -178.584
465.809, 63.298, -178.342
472.584, 63.333, -178.117
479.458, 63.368, -177.919
486.432, 63.400, -177.755
493.507, 63.427, -177.615
500.686, 63.446, -177.478
507.968, 63.466, -177.329
515.357, 63.483, -177.187
522.853, 63.501, -176.976
530.458, 63.519, -176.733
538.174, 63.545, -176.537
546.002, 63.569, -176.340
553.943, 63.594, -176.147
562.001, 63.623, -176.012
570.175, 63.650, -175.895
578.469, 63.674, -175.752
586.883, 63.697, -175.658
595.419, 63.712, -175.569
604.080, 63.721, -175.454
612.866, 63.728, -175.345
621.780, 63.734, -175.210
630.824, 63.738, -175.041
640.000, 63.741, -174.834
649.309, 63.747, -174.564
658.753, 63.759, -174.287
668.335, 63.776, -173.978
678.056, 63.800, -173.678
687.919, 63.828, -173.387
697.925, 63.858, -173.107
708.076, 63.892, -172.857
718.376, 63.926, -172.629
728.825, 63.958, -172.410
739.426, 63.992, -172.196
750.181, 64.025, -171.994
761.093, 64.053, -171.784
772.163, 64.077, -171.542
783.394, 64.103, -171.298
794.789, 64.131, -171.052
806.349, 64.154, -170.750
818.078, 64.179, -170.427
829.977, 64.212, -170.088
842.050, 64.248, -169.713
854.297, 64.286, -169.309
866.724, 64.329, -168.893
879.330, 64.376, -168.470
892.120, 64.427, -168.030
905.097, 64.485, -167.601
918.262, 64.549, -167.164
931.618, 64.617, -166.716
945.169, 64.692, -166.269
958.917, 64.774, -165.812
972.864, 64.859, -165.342
987.015, 64.949, -164.875
1001.371, 65.048, -164.399
1015.937, 65.158, -163.966
1030.714, 65.276, -163.540
1045.706, 65.396, -163.139
1060.916, 65.523, -162.758
1076.347, 65.660, -162.435
1092.003, 65.799, -162.127
1107.887, 65.939, -161.840
1124.001, 66.087, -161.595
1140.350, 66.240, -161.374
1156.937, 66.397, -161.186
1173.765, 66.557, -160.986
1190.838, 66.727, -160.874
1208.159, 66.905, -160.810
1225.732, 67.082, -160.755
1243.561, 67.262, -160.747
1261.649, 67.444, -160.783
1280.000, 67.631, -160.854
1298.618, 67.824, -160.987
1317.507, 68.015, -161.152
1336.670, 68.205, -161.350
1356.113, 68.401, -161.597
1375.838, 68.601, -161.877
1395.850, 68.804, -162.196
1416.153, 69.011, -162.551
1436.751, 69.226, -162.961
1457.649, 69.441, -163.407
1478.851, 69.658, -163.903
1500.362, 69.878, -164.454
1522.185, 70.100, -165.045
1544.326, 70.329, -165.697
1566.789, 70.568, -166.399
1589.578, 70.816, -167.171
1612.699, 71.070, -168.021
1636.156, 71.332, -168.976
1659.955, 71.604, -170.081
1684.099, 71.886, -171.360
1708.595, 72.170, -172.839
1733.447, 72.453, -174.538
1758.661, 72.730, -176.486
1784.241, 72.987, -178.663
1810.193, 73.221, 178.910
1836.523, 73.426, 176.248
1863.236, 73.596, 173.380
1890.338, 73.722, 170.333
1917.833, 73.793, 167.173
1945.729, 73.804, 163.954
1974.030, 73.753, 160.762
2002.743, 73.650, 157.648
2031.873, 73.492, 154.710
2061.428, 73.282, 152.004
2091.412, 73.030, 149.580
2121.832, 72.745, 147.481
2152.695, 72.439, 145.716
2184.007, 72.117, 144.304
2215.774, 71.789, 143.242
2248.003, 71.469, 142.503
2280.701, 71.155, 142.087
2313.874, 70.856, 141.963
2347.530, 70.576, 142.110
2381.676, 70.320, 142.498
2416.318, 70.091, 143.104
2451.464, 69.895, 143.897
2487.122, 69.735, 144.839
2523.298, 69.607, 145.917
2560.000, 69.523, 147.071
2597.236, 69.476, 148.289
2635.014, 69.467, 149.528
2673.341, 69.499, 150.754
2712.226, 69.569, 151.932
2751.676, 69.677, 153.028
2791.700, 69.818, 154.013
2832.306, 69.996, 154.841
2873.503, 70.209, 155.484
2915.299, 70.451, 155.906
2957.703, 70.719, 156.066
3000.724, 71.010, 155.926
3044.370, 71.315, 155.440
3088.652, 71.621, 154.575
3133.577, 71.926, 153.277
3179.156, 72.213, 151.526
3225.398, 72.467, 149.312
3272.312, 72.667, 146.658
3319.909, 72.794, 143.624
3368.198, 72.834, 140.310
3417.190, 72.775, 136.860
3466.894, 72.611, 133.429
3517.321, 72.338, 130.188
3568.482, 71.970, 127.236
3620.387, 71.527, 124.762
3673.046, 71.020, 122.859
3726.472, 70.462, 121.494
3780.675, 69.874, 120.710
3835.666, 69.267, 120.502
3891.457, 68.654, 120.865
3948.060, 68.036, 121.802
4005.486, 67.418, 123.326
4063.747, 66.808, 125.473
4122.855, 66.216, 128.317
4182.824, 65.656, 131.957
4243.664, 65.168, 136.488
4305.390, 64.807, 141.930
4368.013, 64.653, 148.025
4431.547, 64.763, 154.030
4496.005, 65.081, 158.915
4561.401, 65.424, 162.242
4627.749, 65.622, 164.819
4695.061, 65.698, 167.975
4763.352, 65.837, 172.281
4832.637, 66.208, 177.091
4902.929, 66.818, -178.847
4974.244, 67.530, -176.326
5046.596, 68.188, -175.211
5120.000, 68.722, -174.813
5194.472, 69.145, -174.471
5270.027, 69.515, -173.854
5346.682, 69.890, -172.952
5424.451, 70.289, -171.893
5503.352, 70.726, -170.789
5583.399, 71.214, -169.705
5664.612, 71.770, -168.746
5747.006, 72.410, -168.098
5830.598, 73.140, -168.028
5915.406, 73.952, -168.882
6001.447, 74.808, -171.066
6088.740, 75.636, -174.964
6177.303, 76.318, 179.250
6267.154, 76.702, 171.927
6358.312, 76.683, 164.136
6450.796, 76.274, 157.172
6544.625, 75.586, 151.891
6639.818, 74.748, 148.449
6736.397, 73.803, 146.659
6834.380, 72.617, 147.782
6933.789, 71.910, 156.681
7034.643, 72.854, 160.484
7136.964, 73.059, 157.260
7240.773, 72.866, 155.534
7346.093, 72.646, 154.555
7452.944, 72.395, 153.651
7561.350, 72.078, 152.823
7671.332, 71.679, 152.331
7782.915, 71.213, 152.463
7896.120, 70.721, 153.424
8010.971, 70.256, 155.239
8127.493, 69.865, 157.757
8245.711, 69.580, 160.751
8365.647, 69.416, 163.958
8487.328, 69.381, 167.088
8610.779, 69.472, 169.784
8736.026, 69.661, 171.642
8863.095, 69.883, 172.279
8992.011, 70.030, 171.494
9122.803, 69.970, 169.542
9255.497, 69.605, 167.290
9390.121, 68.933, 165.969
9526.704, 68.064, 166.555
9665.273, 67.158, 169.301
9805.857, 66.343, 173.998
9948.487, 65.699, -179.691
10093.191, 65.318, -171.924
10240.000, 65.341, -163.669
10388.944, 65.708, -156.220
10540.055, 66.325, -149.909
10693.363, 67.164, -145.065
10848.902, 68.165, -142.323
11006.703, 69.196, -142.226
11166.799, 70.067, -144.917
11329.224, 70.569, -149.647
11494.012, 70.613, -154.784
11661.195, 70.297, -158.609
11830.812, 69.828, -160.383
12002.895, 69.397, -160.484
12177.480, 69.107, -159.592
12354.606, 69.069, -158.416
12534.309, 69.309, -158.668
12716.624, 69.614, -161.651
12901.592, 69.715, -168.008
13089.250, 69.229, -176.810
13279.637, 67.974, 175.283
13472.794, 66.181, 171.090
13668.760, 64.220, 171.116
13867.577, 62.364, 174.593
14069.285, 60.744, -179.533
14273.928, 59.402, -172.091
14481.547, 58.352, -163.667
14692.186, 57.596, -154.720
14905.889, 57.145, -145.694
15122.700, 57.017, -137.137
15342.664, 57.222, -129.836
15565.829, 57.726, -125.024
15792.239, 58.321, -124.391
16021.942, 58.476, -128.805
16254.986, 57.599, -133.891
16491.422, 56.246, -134.375
16731.295, 54.701, -131.931
16974.656, 53.220, -124.485
17221.559, 52.368, -113.944
17472.053, 52.364, -104.221
17726.189, 52.775, -98.357
17984.021, 53.233, -96.209
18245.605, 53.602, -98.619
18510.994, 53.206, -107.849
18780.242, 50.457, -113.277
19053.408, 47.267, -86.157
19330.547, 51.241, -60.154
19611.715, 54.370, -76.570
19896.975, 53.725, -100.315
