* Measurement data measured by REW V5.19
* Source: ASIO MOTU M Series, In 1
* Format: 1M Log Swept Sine, 1 sweep at -3.0 dBFS  With no timing reference
* Dated: 9 Mar, 2023 2:22:17 PM
* REW Settings:
*  C-weighting compensation: Off
*  Target level: 75.0 dB
* Note: ; 
* Measurement: Mar 9 14:22:17
* Smoothing: 1/48 octave
* Frequency Step: 1/48 octave
* Start Frequency: 10.1 Hz
*
* Freq(Hz), SPL(dB), Phase(degrees)
10.145, 56.699, 99.993
10.293, 56.773, 99.290
10.443, 56.850, 98.342
10.595, 56.969, 97.100
10.749, 57.095, 95.795
10.905, 57.193, 94.781
11.064, 57.281, 93.858
11.225, 57.378, 92.789
11.388, 57.478, 91.645
11.554, 57.569, 90.519
11.722, 57.654, 89.399
11.892, 57.731, 88.289
12.065, 57.800, 87.190
12.241, 57.863, 86.101
12.419, 57.921, 85.039
12.599, 57.972, 84.053
12.782, 58.021, 83.128
12.968, 58.071, 82.248
13.157, 58.125, 81.416
13.348, 58.184, 80.636
13.543, 58.250, 79.866
13.740, 58.323, 79.095
13.939, 58.400, 78.297
14.142, 58.481, 77.469
14.348, 58.560, 76.601
14.557, 58.636, 75.706
14.768, 58.708, 74.788
14.983, 58.772, 73.878
15.201, 58.832, 72.986
15.422, 58.889, 72.123
15.646, 58.945, 71.292
15.874, 59.003, 70.484
16.105, 59.064, 69.686
16.339, 59.126, 68.878
16.577, 59.189, 68.054
16.818, 59.248, 67.210
17.063, 59.303, 66.358
17.311, 59.351, 65.520
17.563, 59.394, 64.713
17.818, 59.433, 63.952
18.077, 59.474, 63.240
18.340, 59.518, 62.561
18.607, 59.566, 61.895
18.877, 59.618, 61.222
19.152, 59.671, 60.527
19.431, 59.721, 59.813
19.713, 59.766, 59.097
20.000, 59.806, 58.399
20.291, 59.843, 57.732
20.586, 59.880, 57.099
20.885, 59.918, 56.489
21.189, 59.959, 55.884
21.497, 60.000, 55.272
21.810, 60.040, 54.656
22.127, 60.076, 54.049
22.449, 60.111, 53.466
22.776, 60.147, 52.906
23.107, 60.187, 52.354
23.443, 60.229, 51.786
23.784, 60.271, 51.189
24.130, 60.308, 50.572
24.481, 60.339, 49.967
24.837, 60.366, 49.404
25.198, 60.396, 48.887
25.565, 60.432, 48.387
25.937, 60.475, 47.857
26.314, 60.516, 47.271
26.697, 60.549, 46.650
27.085, 60.569, 46.052
27.479, 60.583, 45.534
27.879, 60.601, 45.106
28.284, 60.631, 44.717
28.696, 60.670, 44.301
29.113, 60.711, 43.823
29.537, 60.746, 43.311
29.966, 60.773, 42.815
30.402, 60.799, 42.365
30.844, 60.828, 41.939
31.293, 60.862, 41.499
31.748, 60.894, 41.028
32.210, 60.921, 40.550
32.678, 60.944, 40.099
33.154, 60.968, 39.680
33.636, 60.995, 39.270
34.125, 61.024, 38.846
34.621, 61.051, 38.408
35.125, 61.074, 37.978
35.636, 61.097, 37.568
36.154, 61.120, 37.177
36.680, 61.145, 36.792
37.214, 61.170, 36.410
37.755, 61.196, 36.028
38.304, 61.222, 35.641
38.861, 61.246, 35.250
39.427, 61.268, 34.866
40.000, 61.289, 34.499
40.582, 61.312, 34.137
41.172, 61.335, 33.767
41.771, 61.356, 33.397
42.379, 61.375, 33.040
42.995, 61.395, 32.700
43.620, 61.416, 32.373
44.255, 61.439, 32.049
44.898, 61.461, 31.716
45.552, 61.481, 31.389
46.214, 61.502, 31.094
46.886, 61.528, 30.789
47.568, 61.548, 30.428
48.260, 61.554, 30.110
48.962, 61.565, 29.940
49.674, 61.606, 29.752
50.397, 61.651, 29.339
51.130, 61.664, 28.844
51.874, 61.659, 28.523
52.628, 61.674, 28.325
53.394, 61.707, 28.023
54.170, 61.727, 27.603
54.958, 61.726, 27.246
55.758, 61.726, 27.025
56.569, 61.741, 26.841
57.391, 61.762, 26.606
58.226, 61.779, 26.311
59.073, 61.785, 26.041
59.932, 61.796, 25.828
60.804, 61.814, 25.565
61.688, 61.825, 25.265
62.586, 61.833, 24.980
63.496, 61.835, 24.700
64.420, 61.837, 24.501
65.357, 61.851, 24.295
66.307, 61.858, 24.025
67.272, 61.859, 23.819
68.250, 61.870, 23.626
69.243, 61.880, 23.372
70.250, 61.880, 23.128
71.272, 61.880, 22.928
72.309, 61.878, 22.743
73.360, 61.876, 22.602
74.427, 61.878, 22.478
75.510, 61.876, 22.361
76.608, 61.875, 22.280
77.723, 61.871, 22.198
78.853, 61.867, 22.194
80.000, 61.872, 22.195
81.164, 61.873, 22.217
82.344, 61.880, 22.319
83.542, 61.900, 22.459
84.757, 61.935, 22.607
85.990, 61.985, 22.719
87.241, 62.047, 22.771
88.510, 62.122, 22.725
89.797, 62.199, 22.526
91.103, 62.268, 22.220
92.428, 62.323, 21.824
93.773, 62.363, 21.388
95.137, 62.389, 20.922
96.520, 62.402, 20.459
97.924, 62.410, 20.038
99.349, 62.414, 19.577
100.794, 62.400, 19.242
102.260, 62.398, 18.971
103.747, 62.387, 18.691
105.256, 62.371, 18.462
106.787, 62.354, 18.219
108.340, 62.335, 18.002
109.916, 62.317, 17.786
111.515, 62.296, 17.657
113.137, 62.283, 17.548
114.783, 62.261, 17.389
116.452, 62.238, 17.233
118.146, 62.220, 16.985
119.865, 62.174, 16.758
121.608, 62.165, 16.842
123.377, 62.159, 16.745
125.171, 62.135, 16.686
126.992, 62.100, 16.633
128.839, 62.061, 16.571
130.713, 62.024, 16.545
132.615, 61.984, 16.587
134.543, 61.944, 16.674
136.500, 61.901, 16.812
138.486, 61.869, 16.957
140.500, 61.841, 17.121
142.544, 61.811, 17.330
144.617, 61.787, 17.600
146.721, 61.751, 17.758
148.855, 61.715, 17.985
151.020, 61.690, 18.210
153.217, 61.666, 18.296
155.445, 61.619, 18.357
157.706, 61.545, 18.526
160.000, 61.463, 18.839
162.327, 61.364, 19.273
164.688, 61.249, 19.835
167.084, 61.132, 20.613
169.514, 61.020, 21.679
171.980, 60.912, 23.081
174.481, 60.821, 24.807
177.019, 60.766, 26.869
179.594, 60.773, 29.313
182.206, 60.863, 31.976
184.856, 61.055, 34.775
187.545, 61.373, 37.358
190.273, 61.807, 39.618
193.041, 62.333, 41.152
195.849, 62.894, 41.670
198.697, 63.449, 41.192
201.587, 63.919, 39.904
204.520, 64.273, 38.196
207.494, 64.540, 36.528
210.512, 64.768, 35.038
213.574, 64.958, 33.367
216.681, 65.094, 31.429
219.833, 65.287, 29.805
223.030, 65.402, 28.008
226.274, 65.432, 26.180
229.565, 65.423, 24.412
232.905, 65.373, 22.887
236.292, 65.300, 21.565
239.729, 65.215, 20.474
243.216, 65.115, 19.624
246.754, 65.014, 18.988
250.343, 64.924, 18.553
253.984, 64.843, 18.280
257.678, 64.772, 18.132
261.426, 64.715, 18.037
265.229, 64.683, 18.050
269.087, 64.665, 18.102
273.001, 64.675, 18.083
276.972, 64.698, 17.966
281.000, 64.733, 17.757
285.088, 64.766, 17.408
289.234, 64.778, 16.956
293.441, 64.777, 16.447
297.710, 64.765, 15.957
302.040, 64.741, 15.511
306.433, 64.705, 15.083
310.890, 64.666, 14.672
315.412, 64.615, 14.326
320.000, 64.558, 14.042
324.655, 64.502, 13.805
329.377, 64.445, 13.623
334.168, 64.387, 13.474
339.028, 64.325, 13.373
343.959, 64.262, 13.334
348.962, 64.198, 13.302
354.038, 64.134, 13.342
359.188, 64.071, 13.417
364.412, 64.011, 13.504
369.713, 63.951, 13.653
375.090, 63.891, 13.835
380.546, 63.831, 14.046
386.081, 63.769, 14.308
391.697, 63.709, 14.606
397.395, 63.651, 14.931
403.175, 63.597, 15.305
409.039, 63.545, 15.720
414.989, 63.494, 16.194
421.025, 63.448, 16.732
427.149, 63.407, 17.311
433.362, 63.371, 17.962
439.665, 63.344, 18.641
446.060, 63.330, 19.360
452.548, 63.325, 20.135
459.131, 63.336, 20.934
465.809, 63.356, 21.713
472.584, 63.387, 22.502
479.458, 63.426, 23.280
486.432, 63.482, 24.011
493.507, 63.543, 24.676
500.686, 63.606, 25.336
507.968, 63.670, 25.974
515.357, 63.741, 26.608
522.853, 63.814, 27.286
530.458, 63.903, 28.023
538.174, 64.021, 28.692
546.002, 64.156, 29.282
553.943, 64.304, 29.711
562.001, 64.454, 29.979
570.175, 64.599, 30.115
578.469, 64.739, 30.135
586.883, 64.869, 30.048
595.419, 64.990, 29.859
604.080, 65.099, 29.611
612.866, 65.189, 29.335
621.780, 65.266, 29.024
630.824, 65.331, 28.698
640.000, 65.383, 28.399
649.309, 65.425, 28.125
658.753, 65.459, 27.881
668.335, 65.485, 27.672
678.056, 65.505, 27.510
687.919, 65.518, 27.390
697.925, 65.528, 27.321
708.076, 65.535, 27.303
718.376, 65.540, 27.341
728.825, 65.545, 27.435
739.426, 65.551, 27.585
750.181, 65.562, 27.798
761.093, 65.582, 28.035
772.163, 65.604, 28.315
783.394, 65.631, 28.615
794.789, 65.665, 28.912
806.349, 65.707, 29.211
818.078, 65.756, 29.504
829.977, 65.805, 29.797
842.050, 65.857, 30.078
854.297, 65.912, 30.356
866.724, 65.970, 30.624
879.330, 66.030, 30.887
892.120, 66.092, 31.149
905.097, 66.156, 31.402
918.262, 66.223, 31.653
931.618, 66.292, 31.902
945.169, 66.365, 32.145
958.917, 66.440, 32.394
972.864, 66.520, 32.637
987.015, 66.605, 32.869
1001.371, 66.696, 33.084
1015.937, 66.793, 33.262
1030.714, 66.892, 33.384
1045.706, 66.991, 33.465
1060.916, 67.092, 33.476
1076.347, 67.191, 33.441
1092.003, 67.281, 33.404
1107.887, 67.368, 33.330
1124.001, 67.454, 33.248
1140.350, 67.539, 33.157
1156.937, 67.623, 33.056
1173.765, 67.701, 32.966
1190.838, 67.777, 32.867
1208.159, 67.852, 32.768
1225.732, 67.926, 32.672
1243.561, 67.999, 32.580
1261.649, 68.073, 32.489
1280.000, 68.147, 32.395
1298.618, 68.223, 32.294
1317.507, 68.299, 32.179
1336.670, 68.375, 32.049
1356.113, 68.451, 31.896
1375.838, 68.525, 31.722
1395.850, 68.596, 31.533
1416.153, 68.664, 31.335
1436.751, 68.727, 31.132
1457.649, 68.787, 30.933
1478.851, 68.845, 30.743
1500.362, 68.900, 30.571
1522.185, 68.955, 30.412
1544.326, 69.010, 30.267
1566.789, 69.066, 30.133
1589.578, 69.121, 30.008
1612.699, 69.178, 29.887
1636.156, 69.236, 29.765
1659.955, 69.293, 29.638
1684.099, 69.347, 29.528
1708.595, 69.406, 29.411
1733.447, 69.469, 29.294
1758.661, 69.528, 29.195
1784.241, 69.589, 29.097
1810.193, 69.651, 29.006
1836.523, 69.715, 28.922
1863.236, 69.781, 28.839
1890.338, 69.850, 28.756
1917.833, 69.921, 28.670
1945.729, 69.995, 28.585
1974.030, 70.071, 28.496
2002.743, 70.151, 28.404
2031.873, 70.234, 28.303
2061.428, 70.320, 28.194
2091.412, 70.408, 28.078
2121.832, 70.500, 27.948
2152.695, 70.600, 27.796
2184.007, 70.706, 27.621
2215.774, 70.818, 27.410
2248.003, 70.935, 27.149
2280.701, 71.056, 26.830
2313.874, 71.183, 26.440
2347.530, 71.309, 25.982
2381.676, 71.431, 25.468
2416.318, 71.551, 24.900
2451.464, 71.669, 24.283
2487.122, 71.787, 23.615
2523.298, 71.902, 22.892
2560.000, 72.016, 22.102
2597.236, 72.127, 21.246
2635.014, 72.234, 20.321
2673.341, 72.338, 19.323
2712.226, 72.437, 18.248
2751.676, 72.529, 17.089
2791.700, 72.613, 15.841
2832.306, 72.686, 14.501
2873.503, 72.746, 13.073
2915.299, 72.791, 11.558
2957.703, 72.817, 9.966
3000.724, 72.823, 8.303
3044.370, 72.807, 6.588
3088.652, 72.762, 4.847
3133.577, 72.694, 3.098
3179.156, 72.602, 1.361
3225.398, 72.485, -0.338
3272.312, 72.343, -1.982
3319.909, 72.177, -3.548
3368.198, 71.989, -5.014
3417.190, 71.782, -6.361
3466.894, 71.560, -7.578
3517.321, 71.323, -8.645
3568.482, 71.071, -9.560
3620.387, 70.811, -10.316
3673.046, 70.545, -10.912
3726.472, 70.276, -11.348
3780.675, 70.006, -11.627
3835.666, 69.736, -11.752
3891.457, 69.466, -11.727
3948.060, 69.206, -11.566
4005.486, 68.954, -11.273
4063.747, 68.709, -10.856
4122.855, 68.475, -10.325
4182.824, 68.251, -9.686
4243.664, 68.039, -8.951
4305.390, 67.840, -8.126
4368.013, 67.654, -7.219
4431.547, 67.481, -6.237
4496.005, 67.323, -5.188
4561.401, 67.180, -4.082
4627.749, 67.053, -2.921
4695.061, 66.941, -1.711
4763.352, 66.845, -0.461
4832.637, 66.769, 0.820
4902.929, 66.708, 2.126
4974.244, 66.661, 3.457
5046.596, 66.635, 4.795
5120.000, 66.627, 6.136
5194.472, 66.637, 7.472
5270.027, 66.666, 8.798
5346.682, 66.714, 10.106
5424.451, 66.780, 11.384
5503.352, 66.866, 12.628
5583.399, 66.971, 13.828
5664.612, 67.098, 14.975
5747.006, 67.246, 16.054
5830.598, 67.415, 17.049
5915.406, 67.608, 17.946
6001.447, 67.826, 18.726
6088.740, 68.071, 19.364
6177.303, 68.340, 19.849
6267.154, 68.634, 20.131
6358.312, 68.955, 20.172
6450.796, 69.307, 19.913
6544.625, 69.685, 19.305
6639.818, 70.087, 18.282
6736.397, 70.511, 16.766
6834.380, 70.946, 14.670
6933.789, 71.375, 11.890
7034.643, 71.782, 8.322
7136.964, 72.143, 3.849
7240.773, 72.414, -1.579
7346.093, 72.532, -7.867
7452.944, 72.440, -14.660
7561.350, 72.132, -21.324
7671.332, 71.680, -27.570
7782.915, 71.090, -33.691
7896.120, 70.305, -39.317
8010.971, 69.364, -43.906
8127.493, 68.348, -47.340
8245.711, 67.297, -49.717
8365.647, 66.241, -51.189
8487.328, 65.197, -51.892
8610.779, 64.172, -51.928
8736.026, 63.169, -51.373
8863.095, 62.193, -50.292
8992.011, 61.237, -48.646
9122.803, 60.344, -46.381
9255.497, 59.521, -44.124
9390.121, 58.695, -41.586
9526.704, 57.895, -38.644
9665.273, 57.132, -35.361
9805.857, 56.410, -31.765
9948.487, 55.732, -27.873
10093.191, 55.105, -23.708
10240.000, 54.534, -19.306
10388.944, 54.024, -14.694
10540.055, 53.574, -9.872
10693.363, 53.203, -4.936
10848.902, 52.893, 0.060
11006.703, 52.648, 5.140
11166.799, 52.472, 10.271
11329.224, 52.377, 15.407
11494.012, 52.361, 20.506
11661.195, 52.430, 25.516
11830.812, 52.604, 30.353
12002.895, 52.887, 34.905
12177.480, 53.296, 38.983
12354.606, 53.848, 42.288
12534.309, 54.536, 44.406
12716.624, 55.334, 44.740
12901.592, 56.150, 42.565
13089.250, 56.788, 37.398
13279.637, 56.986, 29.786
13472.794, 56.571, 21.738
13668.760, 55.625, 15.617
13867.577, 54.397, 12.664
14069.285, 53.147, 12.707
14273.928, 52.031, 15.005
14481.547, 51.129, 18.820
14692.186, 50.473, 23.607
14905.889, 50.081, 28.970
15122.700, 49.998, 34.490
15342.664, 50.287, 39.606
15565.829, 51.023, 43.461
15792.239, 52.292, 44.512
16021.942, 54.028, 39.682
16254.986, 55.565, 24.765
16491.422, 55.634, 0.577
16731.295, 53.732, -20.670
16974.656, 51.125, -33.031
17221.559, 48.779, -42.086
17472.053, 46.512, -52.958
17726.189, 43.588, -65.665
17984.021, 39.578, -75.277
18245.605, 34.729, -77.957
18510.994, 29.527, -73.581
18780.242, 24.207, -63.320
19053.408, 18.589, -47.013
19330.547, 12.106, -16.380
19611.715, 6.271, 64.253
19896.975, 11.429, 138.547
