* Measurement data measured by REW V5.19
* Source: ASIO MOTU M Series, In 1
* Format: 1M Log Swept Sine, 1 sweep at -3.0 dBFS  With no timing reference
* Dated: 14 Mar, 2023 5:38:45 PM
* REW Settings:
*  C-weighting compensation: Off
*  Target level: 75.0 dB
* Note: ; 
* Measurement: Mar 14 17:38:45
* Smoothing: 1/48 octave
* Frequency Step: 1/48 octave
* Start Frequency: 10.1 Hz
*
* Freq(Hz), SPL(dB), Phase(degrees)
10.145, 69.535, -111.328
10.293, 69.573, -112.119
10.443, 69.612, -113.180
10.595, 69.670, -114.569
10.749, 69.730, -116.014
10.905, 69.773, -117.112
11.064, 69.810, -118.086
11.225, 69.850, -119.192
11.388, 69.892, -120.352
11.554, 69.931, -121.464
11.722, 69.968, -122.545
11.892, 70.004, -123.609
12.065, 70.038, -124.658
12.241, 70.073, -125.725
12.419, 70.108, -126.798
12.599, 70.141, -127.844
12.782, 70.172, -128.883
12.968, 70.202, -129.940
13.157, 70.230, -130.995
13.348, 70.255, -132.037
13.543, 70.278, -133.071
13.740, 70.297, -134.097
13.939, 70.315, -135.105
14.142, 70.330, -136.093
14.348, 70.345, -137.058
14.557, 70.360, -138.006
14.768, 70.376, -138.940
14.983, 70.393, -139.864
15.201, 70.411, -140.788
15.422, 70.430, -141.719
15.646, 70.448, -142.662
15.874, 70.463, -143.615
16.105, 70.476, -144.578
16.339, 70.484, -145.538
16.577, 70.487, -146.485
16.818, 70.487, -147.411
17.063, 70.484, -148.306
17.311, 70.481, -149.172
17.563, 70.479, -150.017
17.818, 70.479, -150.850
18.077, 70.480, -151.689
18.340, 70.481, -152.540
18.607, 70.479, -153.404
18.877, 70.473, -154.271
19.152, 70.462, -155.127
19.431, 70.449, -155.954
19.713, 70.434, -156.751
20.000, 70.422, -157.528
20.291, 70.414, -158.307
20.586, 70.407, -159.110
20.885, 70.397, -159.950
21.189, 70.380, -160.816
21.497, 70.353, -161.670
21.810, 70.317, -162.468
22.127, 70.279, -163.179
22.449, 70.248, -163.810
22.776, 70.230, -164.407
23.107, 70.226, -165.033
23.443, 70.228, -165.740
23.784, 70.226, -166.534
24.130, 70.213, -167.373
24.481, 70.186, -168.191
24.837, 70.154, -168.941
25.198, 70.123, -169.625
25.565, 70.100, -170.285
25.937, 70.081, -170.971
26.314, 70.060, -171.699
26.697, 70.029, -172.435
27.085, 69.990, -173.127
27.479, 69.949, -173.745
27.879, 69.915, -174.317
28.284, 69.889, -174.904
28.696, 69.865, -175.549
29.113, 69.832, -176.242
29.537, 69.788, -176.925
29.966, 69.736, -177.544
30.402, 69.686, -178.094
30.844, 69.643, -178.621
31.293, 69.606, -179.178
31.748, 69.566, -179.773
32.210, 69.519, 179.633
32.678, 69.470, 179.084
33.154, 69.425, 178.574
33.636, 69.386, 178.047
34.125, 69.345, 177.469
34.621, 69.292, 176.883
35.125, 69.231, 176.377
35.636, 69.173, 175.971
36.154, 69.130, 175.582
36.680, 69.091, 175.121
37.214, 69.042, 174.607
37.755, 68.981, 174.140
38.304, 68.921, 173.746
38.861, 68.868, 173.342
39.427, 68.809, 172.885
40.000, 68.736, 172.462
40.582, 68.660, 172.171
41.172, 68.601, 171.956
41.771, 68.557, 171.693
42.379, 68.511, 171.374
42.995, 68.459, 171.103
43.620, 68.416, 170.911
44.255, 68.388, 170.732
44.898, 68.371, 170.517
45.552, 68.364, 170.242
46.214, 68.360, 169.865
46.886, 68.348, 169.375
47.568, 68.321, 168.834
48.260, 68.279, 168.294
48.962, 68.228, 167.777
49.674, 68.173, 167.289
50.397, 68.116, 166.802
51.130, 68.054, 166.319
51.874, 67.989, 165.893
52.628, 67.930, 165.483
53.394, 67.866, 165.073
54.170, 67.806, 164.772
54.958, 67.771, 164.416
55.758, 67.717, 163.824
56.569, 67.613, 163.365
57.391, 67.518, 163.227
58.226, 67.452, 163.074
59.073, 67.383, 162.849
59.932, 67.315, 162.655
60.804, 67.251, 162.396
61.688, 67.175, 162.122
62.586, 67.098, 161.934
63.496, 67.032, 161.750
64.420, 66.964, 161.528
65.357, 66.899, 161.346
66.307, 66.842, 161.099
67.272, 66.769, 160.800
68.250, 66.692, 160.632
69.243, 66.631, 160.452
70.250, 66.562, 160.202
71.272, 66.483, 160.005
72.309, 66.403, 159.876
73.360, 66.324, 159.784
74.427, 66.247, 159.716
75.510, 66.168, 159.653
76.608, 66.089, 159.626
77.723, 66.013, 159.615
78.853, 65.938, 159.636
80.000, 65.872, 159.733
81.164, 65.821, 159.840
82.344, 65.781, 159.942
83.542, 65.755, 159.998
84.757, 65.734, 159.931
85.990, 65.707, 159.769
87.241, 65.672, 159.528
88.510, 65.620, 159.257
89.797, 65.564, 159.022
91.103, 65.503, 158.759
92.428, 65.432, 158.529
93.773, 65.357, 158.330
95.137, 65.278, 158.161
96.520, 65.198, 158.008
97.924, 65.115, 157.863
99.349, 65.029, 157.729
100.794, 64.939, 157.628
102.260, 64.845, 157.573
103.747, 64.749, 157.568
105.256, 64.651, 157.604
106.787, 64.554, 157.701
108.340, 64.464, 157.812
109.916, 64.373, 157.915
111.515, 64.285, 158.044
113.137, 64.200, 158.151
114.783, 64.109, 158.270
116.452, 64.011, 158.411
118.146, 63.906, 158.633
119.865, 63.798, 158.931
121.608, 63.689, 159.299
123.377, 63.581, 159.759
125.171, 63.479, 160.324
126.992, 63.389, 161.012
128.839, 63.317, 161.803
130.713, 63.268, 162.659
132.615, 63.240, 163.557
134.543, 63.242, 164.473
136.500, 63.273, 165.333
138.486, 63.330, 166.113
140.500, 63.418, 166.730
142.544, 63.524, 167.097
144.617, 63.632, 167.213
146.721, 63.734, 167.113
148.855, 63.819, 166.806
151.020, 63.884, 166.349
153.217, 63.924, 165.769
155.445, 63.938, 165.113
157.706, 63.924, 164.431
160.000, 63.881, 163.786
162.327, 63.818, 163.210
164.688, 63.736, 162.720
167.084, 63.641, 162.333
169.514, 63.538, 162.053
171.980, 63.433, 161.856
174.481, 63.326, 161.753
177.019, 63.218, 161.738
179.594, 63.112, 161.796
182.206, 63.005, 161.919
184.856, 62.905, 162.115
187.545, 62.810, 162.368
190.273, 62.722, 162.678
193.041, 62.640, 163.025
195.849, 62.569, 163.396
198.697, 62.507, 163.771
201.587, 62.454, 164.150
204.520, 62.408, 164.520
207.494, 62.369, 164.846
210.512, 62.333, 165.132
213.574, 62.300, 165.387
216.681, 62.266, 165.603
219.833, 62.235, 165.785
223.030, 62.202, 165.927
226.274, 62.163, 166.049
229.565, 62.121, 166.142
232.905, 62.073, 166.218
236.292, 62.019, 166.287
239.729, 61.957, 166.374
243.216, 61.890, 166.486
246.754, 61.820, 166.616
250.343, 61.746, 166.774
253.984, 61.670, 166.972
257.678, 61.593, 167.190
261.426, 61.516, 167.438
265.229, 61.437, 167.714
269.087, 61.357, 168.014
273.001, 61.278, 168.341
276.972, 61.199, 168.686
281.000, 61.119, 169.051
285.088, 61.041, 169.437
289.234, 60.964, 169.845
293.441, 60.883, 170.275
297.710, 60.803, 170.717
302.040, 60.722, 171.189
306.433, 60.642, 171.690
310.890, 60.560, 172.213
315.412, 60.479, 172.761
320.000, 60.397, 173.336
324.655, 60.316, 173.951
329.377, 60.235, 174.605
334.168, 60.151, 175.299
339.028, 60.069, 176.023
343.959, 59.987, 176.804
348.962, 59.905, 177.647
354.038, 59.826, 178.551
359.188, 59.752, 179.519
364.412, 59.683, -179.421
369.713, 59.620, -178.287
375.090, 59.569, -177.077
380.546, 59.531, -175.777
386.081, 59.515, -174.417
391.697, 59.519, -173.020
397.395, 59.550, -171.640
403.175, 59.606, -170.296
409.039, 59.684, -169.063
414.989, 59.776, -167.968
421.025, 59.877, -167.011
427.149, 59.978, -166.174
433.362, 60.078, -165.461
439.665, 60.172, -164.851
446.060, 60.258, -164.302
452.548, 60.332, -163.809
459.131, 60.397, -163.343
465.809, 60.455, -162.871
472.584, 60.505, -162.375
479.458, 60.554, -161.867
486.432, 60.601, -161.318
493.507, 60.649, -160.750
500.686, 60.699, -160.168
507.968, 60.755, -159.574
515.357, 60.817, -158.988
522.853, 60.885, -158.424
530.458, 60.956, -157.906
538.174, 61.030, -157.438
546.002, 61.099, -157.025
553.943, 61.163, -156.658
562.001, 61.218, -156.308
570.175, 61.267, -155.946
578.469, 61.309, -155.568
586.883, 61.347, -155.152
595.419, 61.381, -154.684
604.080, 61.415, -154.164
612.866, 61.450, -153.586
621.780, 61.494, -152.954
630.824, 61.547, -152.292
640.000, 61.612, -151.617
649.309, 61.691, -150.959
658.753, 61.780, -150.358
668.335, 61.877, -149.818
678.056, 61.976, -149.361
687.919, 62.075, -148.990
697.925, 62.170, -148.692
708.076, 62.258, -148.507
718.376, 62.316, -148.435
728.825, 62.329, -148.138
739.426, 62.377, -147.481
750.181, 62.468, -146.958
761.093, 62.561, -146.625
772.163, 62.641, -146.433
783.394, 62.692, -146.335
794.789, 62.703, -146.138
806.349, 62.701, -145.647
818.078, 62.721, -144.938
829.977, 62.772, -144.190
842.050, 62.841, -143.471
854.297, 62.920, -142.794
866.724, 63.005, -142.154
879.330, 63.094, -141.537
892.120, 63.185, -140.939
905.097, 63.279, -140.352
918.262, 63.375, -139.771
931.618, 63.473, -139.186
945.169, 63.576, -138.596
958.917, 63.685, -138.008
972.864, 63.799, -137.423
987.015, 63.917, -136.841
1001.371, 64.042, -136.273
1015.937, 64.174, -135.729
1030.714, 64.312, -135.214
1045.706, 64.455, -134.734
1060.916, 64.601, -134.295
1076.347, 64.750, -133.892
1092.003, 64.902, -133.529
1107.887, 65.054, -133.194
1124.001, 65.207, -132.887
1140.350, 65.361, -132.605
1156.937, 65.515, -132.349
1173.765, 65.672, -132.118
1190.838, 65.831, -131.910
1208.159, 65.991, -131.730
1225.732, 66.152, -131.578
1243.561, 66.315, -131.454
1261.649, 66.478, -131.358
1280.000, 66.642, -131.291
1298.618, 66.807, -131.255
1317.507, 66.971, -131.240
1336.670, 67.135, -131.251
1356.113, 67.298, -131.281
1375.838, 67.460, -131.326
1395.850, 67.623, -131.387
1416.153, 67.788, -131.466
1436.751, 67.955, -131.561
1457.649, 68.124, -131.677
1478.851, 68.295, -131.818
1500.362, 68.468, -131.985
1522.185, 68.643, -132.181
1544.326, 68.821, -132.410
1566.789, 69.002, -132.677
1589.578, 69.183, -132.982
1612.699, 69.365, -133.325
1636.156, 69.549, -133.717
1659.955, 69.734, -134.154
1684.099, 69.920, -134.643
1708.595, 70.106, -135.183
1733.447, 70.292, -135.780
1758.661, 70.478, -136.437
1784.241, 70.661, -137.156
1810.193, 70.843, -137.939
1836.523, 71.021, -138.787
1863.236, 71.194, -139.698
1890.338, 71.363, -140.675
1917.833, 71.526, -141.719
1945.729, 71.682, -142.828
1974.030, 71.830, -144.001
2002.743, 71.968, -145.239
2031.873, 72.095, -146.535
2061.428, 72.210, -147.885
2091.412, 72.310, -149.279
2121.832, 72.396, -150.706
2152.695, 72.465, -152.153
2184.007, 72.518, -153.605
2215.774, 72.555, -155.048
2248.003, 72.577, -156.469
2280.701, 72.583, -157.852
2313.874, 72.576, -159.189
2347.530, 72.555, -160.469
2381.676, 72.522, -161.685
2416.318, 72.480, -162.831
2451.464, 72.429, -163.899
2487.122, 72.370, -164.884
2523.298, 72.306, -165.783
2560.000, 72.238, -166.589
2597.236, 72.168, -167.302
2635.014, 72.098, -167.917
2673.341, 72.030, -168.435
2712.226, 71.969, -168.860
2751.676, 71.918, -169.208
2791.700, 71.878, -169.507
2832.306, 71.850, -169.788
2873.503, 71.829, -170.068
2915.299, 71.814, -170.349
2957.703, 71.802, -170.618
3000.724, 71.796, -170.866
3044.370, 71.796, -171.088
3088.652, 71.805, -171.296
3133.577, 71.824, -171.501
3179.156, 71.853, -171.718
3225.398, 71.891, -171.961
3272.312, 71.937, -172.233
3319.909, 71.991, -172.533
3368.198, 72.055, -172.866
3417.190, 72.130, -173.238
3466.894, 72.218, -173.666
3517.321, 72.320, -174.173
3568.482, 72.433, -174.780
3620.387, 72.560, -175.516
3673.046, 72.696, -176.410
3726.472, 72.842, -177.496
3780.675, 72.995, -178.813
3835.666, 73.146, 179.604
3891.457, 73.288, 177.722
3948.060, 73.410, 175.530
4005.486, 73.502, 173.022
4063.747, 73.549, 170.202
4122.855, 73.535, 167.138
4182.824, 73.452, 163.927
4243.664, 73.293, 160.681
4305.390, 73.060, 157.503
4368.013, 72.756, 154.495
4431.547, 72.386, 151.742
4496.005, 71.962, 149.316
4561.401, 71.492, 147.271
4627.749, 70.990, 145.639
4695.061, 70.468, 144.425
4763.352, 69.936, 143.617
4832.637, 69.401, 143.196
4902.929, 68.868, 143.142
4974.244, 68.342, 143.439
5046.596, 67.824, 144.086
5120.000, 67.318, 145.105
5194.472, 66.833, 146.521
5270.027, 66.383, 148.341
5346.682, 65.983, 150.519
5424.451, 65.646, 152.950
5503.352, 65.374, 155.506
5583.399, 65.160, 158.109
5664.612, 64.998, 160.737
5747.006, 64.891, 163.401
5830.598, 64.853, 165.972
5915.406, 64.856, 168.254
6001.447, 64.872, 170.422
6088.740, 64.920, 172.579
6177.303, 65.013, 174.678
6267.154, 65.158, 176.631
6358.312, 65.354, 178.357
6450.796, 65.599, 179.773
6544.625, 65.892, -179.215
6639.818, 66.222, -178.726
6736.397, 66.578, -178.879
6834.380, 66.935, -179.782
6933.789, 67.262, 178.487
7034.643, 67.521, 175.923
7136.964, 67.677, 172.563
7240.773, 67.668, 168.337
7346.093, 67.341, 164.181
7452.944, 66.917, 161.264
7561.350, 66.410, 158.587
7671.332, 65.782, 156.669
7782.915, 65.088, 155.733
7896.120, 64.371, 155.763
8010.971, 63.665, 156.720
8127.493, 63.010, 158.486
8245.711, 62.415, 160.883
8365.647, 61.894, 163.798
8487.328, 61.450, 167.099
8610.779, 61.083, 170.680
8736.026, 60.793, 174.466
8863.095, 60.580, 178.392
8992.011, 60.444, -177.607
9122.803, 60.387, -173.595
9255.497, 60.409, -169.633
9390.121, 60.512, -165.786
9526.704, 60.699, -162.152
9665.273, 60.973, -158.854
9805.857, 61.329, -156.043
9948.487, 61.754, -153.900
10093.191, 62.224, -152.614
10240.000, 62.697, -152.328
10388.944, 63.114, -153.083
10540.055, 63.407, -154.656
10693.363, 63.542, -156.537
10848.902, 63.539, -158.309
11006.703, 63.411, -159.638
11166.799, 63.216, -160.214
11329.224, 63.016, -160.191
11494.012, 62.803, -159.621
11661.195, 62.605, -158.247
11830.812, 62.525, -155.872
12002.895, 62.744, -153.227
12177.480, 63.235, -152.485
12354.606, 63.619, -154.469
12534.309, 63.662, -157.399
12716.624, 63.454, -159.468
12901.592, 63.186, -160.202
13089.250, 63.009, -160.002
13279.637, 62.988, -159.626
13472.794, 63.115, -159.850
13668.760, 63.315, -161.340
13867.577, 63.452, -164.397
14069.285, 63.382, -168.686
14273.928, 63.015, -173.323
14481.547, 62.342, -177.123
14692.186, 61.515, -179.265
14905.889, 60.611, 179.870
15122.700, 59.629, -178.992
15342.664, 58.900, -174.950
15565.829, 58.655, -172.009
15792.239, 58.434, -169.888
16021.942, 58.375, -168.019
16254.986, 58.486, -167.295
16491.422, 58.683, -168.397
16731.295, 58.779, -171.977
16974.656, 58.507, -177.104
17221.559, 57.811, 178.189
17472.053, 56.839, 175.482
17726.189, 55.849, 175.103
17984.021, 55.069, 176.199
18245.605, 54.618, 177.203
18510.994, 54.440, 176.186
18780.242, 54.220, 171.797
19053.408, 53.598, 165.351
19330.547, 52.683, 158.371
19611.715, 51.397, 149.033
19896.975, 49.366, 139.675
