* Measurement data measured by REW V5.19
* Source: ASIO MOTU M Series, In 1
* Format: 1M Log Swept Sine, 1 sweep at -3.0 dBFS  With no timing reference
* Dated: 20 Mar, 2023 12:14:23 PM
* REW Settings:
*  C-weighting compensation: Off
*  Target level: 75.0 dB
* Note: ; 
* Measurement: Mar 20 12:14:23
* Smoothing: 1/48 octave
* Frequency Step: 1/48 octave
* Start Frequency: 10.1 Hz
*
* Freq(Hz), SPL(dB), Phase(degrees)
10.145, 67.439, -102.797
10.293, 67.490, -103.579
10.443, 67.542, -104.632
10.595, 67.622, -106.011
10.749, 67.704, -107.451
10.905, 67.763, -108.551
11.064, 67.813, -109.530
11.225, 67.869, -110.640
11.388, 67.926, -111.803
11.554, 67.980, -112.918
11.722, 68.032, -114.001
11.892, 68.082, -115.067
12.065, 68.130, -116.117
12.241, 68.179, -117.183
12.419, 68.227, -118.250
12.599, 68.273, -119.289
12.782, 68.317, -120.316
12.968, 68.360, -121.356
13.157, 68.402, -122.391
13.348, 68.442, -123.408
13.543, 68.480, -124.418
13.740, 68.517, -125.424
13.939, 68.553, -126.421
14.142, 68.588, -127.409
14.348, 68.621, -128.390
14.557, 68.654, -129.368
14.768, 68.684, -130.345
14.983, 68.713, -131.316
15.201, 68.740, -132.282
15.422, 68.765, -133.244
15.646, 68.786, -134.193
15.874, 68.806, -135.129
16.105, 68.824, -136.049
16.339, 68.842, -136.954
16.577, 68.859, -137.845
16.818, 68.875, -138.725
17.063, 68.892, -139.602
17.311, 68.909, -140.477
17.563, 68.925, -141.353
17.818, 68.939, -142.230
18.077, 68.951, -143.103
18.340, 68.961, -143.967
18.607, 68.969, -144.822
18.877, 68.977, -145.665
19.152, 68.984, -146.499
19.431, 68.992, -147.332
19.713, 68.998, -148.167
20.000, 69.004, -149.006
20.291, 69.006, -149.846
20.586, 69.005, -150.679
20.885, 69.001, -151.496
21.189, 68.996, -152.288
21.497, 68.990, -153.057
21.810, 68.985, -153.807
22.127, 68.982, -154.550
22.449, 68.980, -155.294
22.776, 68.976, -156.042
23.107, 68.971, -156.789
23.443, 68.964, -157.529
23.784, 68.956, -158.256
24.130, 68.947, -158.971
24.481, 68.937, -159.678
24.837, 68.927, -160.382
25.198, 68.915, -161.085
25.565, 68.901, -161.779
25.937, 68.886, -162.460
26.314, 68.869, -163.126
26.697, 68.853, -163.785
27.085, 68.837, -164.448
27.479, 68.818, -165.118
27.879, 68.796, -165.786
28.284, 68.769, -166.432
28.696, 68.740, -167.043
29.113, 68.714, -167.622
29.537, 68.691, -168.191
29.966, 68.672, -168.775
30.402, 68.652, -169.381
30.844, 68.628, -170.000
31.293, 68.601, -170.614
31.748, 68.572, -171.217
32.210, 68.540, -171.811
32.678, 68.506, -172.393
33.154, 68.470, -172.952
33.636, 68.435, -173.483
34.125, 68.403, -174.009
34.621, 68.371, -174.554
35.125, 68.336, -175.111
35.636, 68.296, -175.644
36.154, 68.258, -176.143
36.680, 68.224, -176.645
37.214, 68.189, -177.169
37.755, 68.150, -177.671
38.304, 68.115, -178.124
38.861, 68.090, -178.607
39.427, 68.061, -179.190
40.000, 68.007, -179.768
40.582, 67.942, 179.856
41.172, 67.904, 179.627
41.771, 67.892, 179.280
42.379, 67.865, 178.743
42.995, 67.805, 178.288
43.620, 67.751, 178.036
44.255, 67.720, 177.756
44.898, 67.681, 177.344
45.552, 67.623, 177.012
46.214, 67.579, 176.800
46.886, 67.554, 176.484
47.568, 67.516, 176.084
48.260, 67.479, 175.760
48.962, 67.460, 175.368
49.674, 67.427, 174.853
50.397, 67.383, 174.461
51.130, 67.364, 174.077
51.874, 67.336, 173.464
52.628, 67.261, 172.978
53.394, 67.206, 172.796
54.170, 67.185, 172.448
54.958, 67.125, 171.933
55.758, 67.040, 171.695
56.569, 66.989, 171.605
57.391, 66.955, 171.345
58.226, 66.904, 170.993
59.073, 66.843, 170.701
59.932, 66.790, 170.453
60.804, 66.743, 170.141
61.688, 66.683, 169.794
62.586, 66.617, 169.531
63.496, 66.560, 169.299
64.420, 66.502, 169.032
65.357, 66.441, 168.779
66.307, 66.378, 168.538
67.272, 66.315, 168.321
68.250, 66.256, 168.100
69.243, 66.196, 167.863
70.250, 66.135, 167.634
71.272, 66.073, 167.410
72.309, 66.008, 167.212
73.360, 65.946, 167.043
74.427, 65.885, 166.858
75.510, 65.817, 166.699
76.608, 65.757, 166.573
77.723, 65.691, 166.374
78.853, 65.615, 166.245
80.000, 65.540, 166.114
81.164, 65.459, 166.044
82.344, 65.391, 165.984
83.542, 65.320, 165.838
84.757, 65.238, 165.732
85.990, 65.157, 165.675
87.241, 65.075, 165.627
88.510, 64.986, 165.625
89.797, 64.897, 165.686
91.103, 64.814, 165.719
92.428, 64.710, 165.764
93.773, 64.621, 165.938
95.137, 64.523, 166.046
96.520, 64.418, 166.335
97.924, 64.317, 166.757
99.349, 64.224, 167.257
100.794, 64.124, 167.883
102.260, 64.050, 168.692
103.747, 64.009, 169.554
105.256, 64.008, 170.454
106.787, 64.058, 171.379
108.340, 64.158, 172.050
109.916, 64.268, 172.411
111.515, 64.371, 172.379
113.137, 64.428, 172.106
114.783, 64.477, 171.830
116.452, 64.510, 171.326
118.146, 64.514, 170.842
119.865, 64.498, 170.350
121.608, 64.442, 169.960
123.377, 64.378, 169.697
125.171, 64.303, 169.455
126.992, 64.212, 169.293
128.839, 64.119, 169.242
130.713, 64.023, 169.327
132.615, 63.927, 169.563
134.543, 63.838, 169.955
136.500, 63.763, 170.489
138.486, 63.712, 171.127
140.500, 63.691, 171.811
142.544, 63.705, 172.474
144.617, 63.744, 173.001
146.721, 63.798, 173.370
148.855, 63.853, 173.541
151.020, 63.900, 173.597
153.217, 63.937, 173.573
155.445, 63.968, 173.525
157.706, 63.991, 173.449
160.000, 64.017, 173.368
162.327, 64.040, 173.167
164.688, 64.053, 172.912
167.084, 64.055, 172.622
169.514, 64.048, 172.321
171.980, 64.030, 172.029
174.481, 64.003, 171.751
177.019, 63.967, 171.493
179.594, 63.925, 171.251
182.206, 63.876, 171.032
184.856, 63.823, 170.860
187.545, 63.764, 170.724
190.273, 63.703, 170.648
193.041, 63.642, 170.606
195.849, 63.580, 170.590
198.697, 63.519, 170.602
201.587, 63.456, 170.644
204.520, 63.394, 170.730
207.494, 63.334, 170.846
210.512, 63.276, 171.000
213.574, 63.225, 171.188
216.681, 63.177, 171.383
219.833, 63.135, 171.587
223.030, 63.103, 171.758
226.274, 63.071, 171.862
229.565, 63.038, 171.956
232.905, 63.002, 172.029
236.292, 62.960, 172.098
239.729, 62.912, 172.163
243.216, 62.862, 172.249
246.754, 62.810, 172.355
250.343, 62.756, 172.474
253.984, 62.702, 172.601
257.678, 62.646, 172.749
261.426, 62.590, 172.919
265.229, 62.533, 173.112
269.087, 62.474, 173.307
273.001, 62.420, 173.503
276.972, 62.363, 173.736
281.000, 62.302, 174.000
285.088, 62.243, 174.252
289.234, 62.187, 174.523
293.441, 62.124, 174.783
297.710, 62.064, 175.083
302.040, 62.003, 175.403
306.433, 61.941, 175.717
310.890, 61.880, 176.053
315.412, 61.818, 176.423
320.000, 61.755, 176.825
324.655, 61.691, 177.258
329.377, 61.629, 177.705
334.168, 61.573, 178.151
339.028, 61.515, 178.637
343.959, 61.454, 179.136
348.962, 61.396, 179.659
354.038, 61.342, -179.806
359.188, 61.277, -179.276
364.412, 61.219, -178.699
369.713, 61.161, -178.091
375.090, 61.095, -177.456
380.546, 61.027, -176.743
386.081, 60.958, -175.960
391.697, 60.892, -175.082
397.395, 60.832, -174.086
403.175, 60.784, -172.984
409.039, 60.755, -171.798
414.989, 60.750, -170.529
421.025, 60.770, -169.242
427.149, 60.821, -168.013
433.362, 60.897, -166.896
439.665, 60.989, -165.935
446.060, 61.088, -165.146
452.548, 61.185, -164.501
459.131, 61.276, -163.984
465.809, 61.354, -163.558
472.584, 61.418, -163.191
479.458, 61.467, -162.832
486.432, 61.501, -162.454
493.507, 61.517, -162.056
500.686, 61.542, -161.531
507.968, 61.574, -160.988
515.357, 61.600, -160.343
522.853, 61.636, -159.674
530.458, 61.679, -159.023
538.174, 61.731, -158.331
546.002, 61.794, -157.638
553.943, 61.867, -156.988
562.001, 61.949, -156.379
570.175, 62.038, -155.826
578.469, 62.129, -155.347
586.883, 62.222, -154.945
595.419, 62.312, -154.611
604.080, 62.401, -154.351
612.866, 62.483, -154.172
621.780, 62.552, -154.034
630.824, 62.609, -153.908
640.000, 62.655, -153.775
649.309, 62.691, -153.619
658.753, 62.720, -153.418
668.335, 62.744, -153.174
678.056, 62.766, -152.889
687.919, 62.785, -152.561
697.925, 62.803, -152.184
708.076, 62.820, -151.760
718.376, 62.839, -151.287
728.825, 62.862, -150.771
739.426, 62.890, -150.213
750.181, 62.923, -149.628
761.093, 62.964, -149.022
772.163, 63.012, -148.411
783.394, 63.065, -147.805
794.789, 63.123, -147.212
806.349, 63.184, -146.634
818.078, 63.246, -146.064
829.977, 63.310, -145.503
842.050, 63.374, -144.940
854.297, 63.437, -144.363
866.724, 63.502, -143.769
879.330, 63.569, -143.150
892.120, 63.641, -142.496
905.097, 63.720, -141.820
918.262, 63.807, -141.150
931.618, 63.898, -140.472
945.169, 63.996, -139.771
958.917, 64.107, -139.064
972.864, 64.231, -138.392
987.015, 64.364, -137.789
1001.371, 64.500, -137.257
1015.937, 64.636, -136.783
1030.714, 64.771, -136.348
1045.706, 64.905, -135.941
1060.916, 65.039, -135.557
1076.347, 65.173, -135.193
1092.003, 65.308, -134.845
1107.887, 65.442, -134.515
1124.001, 65.577, -134.200
1140.350, 65.713, -133.897
1156.937, 65.849, -133.607
1173.765, 65.985, -133.327
1190.838, 66.123, -133.057
1208.159, 66.262, -132.793
1225.732, 66.403, -132.535
1243.561, 66.545, -132.284
1261.649, 66.690, -132.038
1280.000, 66.839, -131.802
1298.618, 66.990, -131.575
1317.507, 67.145, -131.362
1336.670, 67.305, -131.166
1356.113, 67.468, -130.988
1375.838, 67.634, -130.835
1395.850, 67.805, -130.710
1416.153, 67.979, -130.614
1436.751, 68.155, -130.546
1457.649, 68.335, -130.507
1478.851, 68.517, -130.496
1500.362, 68.702, -130.513
1522.185, 68.890, -130.561
1544.326, 69.083, -130.641
1566.789, 69.279, -130.755
1589.578, 69.479, -130.908
1612.699, 69.682, -131.104
1636.156, 69.891, -131.350
1659.955, 70.102, -131.648
1684.099, 70.318, -132.001
1708.595, 70.537, -132.418
1733.447, 70.759, -132.902
1758.661, 70.983, -133.460
1784.241, 71.210, -134.098
1810.193, 71.438, -134.821
1836.523, 71.667, -135.639
1863.236, 71.896, -136.556
1890.338, 72.122, -137.579
1917.833, 72.345, -138.715
1945.729, 72.562, -139.966
1974.030, 72.772, -141.336
2002.743, 72.973, -142.826
2031.873, 73.161, -144.437
2061.428, 73.333, -146.164
2091.412, 73.488, -147.999
2121.832, 73.622, -149.932
2152.695, 73.734, -151.951
2184.007, 73.820, -154.034
2215.774, 73.879, -156.163
2248.003, 73.910, -158.315
2280.701, 73.912, -160.466
2313.874, 73.886, -162.588
2347.530, 73.832, -164.658
2381.676, 73.751, -166.654
2416.318, 73.646, -168.554
2451.464, 73.518, -170.341
2487.122, 73.371, -171.999
2523.298, 73.207, -173.518
2560.000, 73.030, -174.891
2597.236, 72.843, -176.114
2635.014, 72.647, -177.188
2673.341, 72.447, -178.114
2712.226, 72.244, -178.897
2751.676, 72.039, -179.544
2791.700, 71.836, 179.943
2832.306, 71.635, 179.554
2873.503, 71.437, 179.285
2915.299, 71.243, 179.131
2957.703, 71.055, 179.087
3000.724, 70.874, 179.150
3044.370, 70.700, 179.312
3088.652, 70.534, 179.572
3133.577, 70.378, 179.923
3179.156, 70.233, -179.641
3225.398, 70.099, -179.123
3272.312, 69.978, -178.529
3319.909, 69.871, -177.870
3368.198, 69.779, -177.151
3417.190, 69.703, -176.384
3466.894, 69.643, -175.575
3517.321, 69.600, -174.733
3568.482, 69.575, -173.867
3620.387, 69.568, -172.988
3673.046, 69.581, -172.104
3726.472, 69.615, -171.230
3780.675, 69.669, -170.378
3835.666, 69.745, -169.561
3891.457, 69.843, -168.794
3948.060, 69.965, -168.095
4005.486, 70.110, -167.486
4063.747, 70.280, -166.995
4122.855, 70.474, -166.652
4182.824, 70.690, -166.488
4243.664, 70.928, -166.542
4305.390, 71.185, -166.856
4368.013, 71.457, -167.480
4431.547, 71.735, -168.462
4496.005, 72.011, -169.847
4561.401, 72.272, -171.672
4627.749, 72.501, -173.959
4695.061, 72.679, -176.696
4763.352, 72.784, -179.829
4832.637, 72.796, 176.753
4902.929, 72.698, 173.227
4974.244, 72.485, 169.862
5046.596, 72.185, 166.926
5120.000, 71.839, 164.359
5194.472, 71.437, 162.052
5270.027, 70.971, 160.173
5346.682, 70.463, 158.852
5424.451, 69.935, 158.111
5503.352, 69.407, 157.926
5583.399, 68.893, 158.248
5664.612, 68.404, 159.022
5747.006, 67.948, 160.189
5830.598, 67.530, 161.686
5915.406, 67.153, 163.457
6001.447, 66.817, 165.463
6088.740, 66.523, 167.689
6177.303, 66.275, 170.110
6267.154, 66.078, 172.691
6358.312, 65.935, 175.407
6450.796, 65.852, 178.217
6544.625, 65.834, -178.932
6639.818, 65.883, -176.097
6736.397, 66.005, -173.348
6834.380, 66.201, -170.768
6933.789, 66.473, -168.454
7034.643, 66.820, -166.523
7136.964, 67.236, -165.109
7240.773, 67.709, -164.374
7346.093, 68.217, -164.483
7452.944, 68.722, -165.576
7561.350, 69.173, -167.697
7671.332, 69.509, -170.714
7782.915, 69.689, -174.267
7896.120, 69.706, -177.891
8010.971, 69.591, 178.739
8127.493, 69.378, 175.739
8245.711, 69.087, 173.132
8365.647, 68.733, 170.928
8487.328, 68.322, 169.152
8610.779, 67.863, 167.857
8736.026, 67.366, 167.093
8863.095, 66.847, 166.899
8992.011, 66.320, 167.290
9122.803, 65.801, 168.268
9255.497, 65.305, 169.822
9390.121, 64.847, 171.924
9526.704, 64.444, 174.532
9665.273, 64.109, 177.591
9805.857, 63.857, -178.965
9948.487, 63.700, -175.212
10093.191, 63.651, -171.230
10240.000, 63.725, -167.108
10388.944, 63.938, -162.946
10540.055, 64.311, -158.863
10693.363, 64.875, -155.070
10848.902, 65.652, -151.913
11006.703, 66.675, -149.813
11166.799, 67.968, -149.604
11329.224, 69.488, -152.713
11494.012, 70.970, -161.145
11661.195, 71.799, -175.732
11830.812, 71.387, 167.559
12002.895, 69.873, 155.291
12177.480, 67.944, 149.554
12354.606, 66.119, 148.714
12534.309, 64.579, 150.887
12716.624, 63.349, 154.866
12901.592, 62.413, 159.936
13089.250, 61.756, 165.644
13279.637, 61.367, 171.672
13472.794, 61.250, 177.768
13668.760, 61.419, -176.379
13867.577, 61.892, -171.168
14069.285, 62.696, -167.180
14273.928, 63.856, -165.410
14481.547, 65.304, -167.746
14692.186, 66.626, -176.750
14905.889, 66.988, 167.801
15122.700, 65.899, 152.815
15342.664, 63.882, 144.832
15565.829, 61.778, 143.708
15792.239, 60.014, 146.890
16021.942, 58.692, 152.497
16254.986, 57.821, 159.484
16491.422, 57.454, 166.999
16731.295, 57.566, 173.923
16974.656, 58.188, 179.659
17221.559, 59.411, -177.566
17472.053, 61.072, 178.470
17726.189, 62.176, 163.456
17984.021, 61.332, 143.094
18245.605, 58.729, 131.256
18510.994, 55.798, 129.915
18780.242, 53.335, 134.505
19053.408, 51.438, 142.131
19330.547, 50.065, 151.398
19611.715, 49.175, 161.372
19896.975, 48.711, 170.287
