* Measurement data measured by REW V5.19
* Source: ASIO MOTU M Series, In 1
* Format: 1M Log Swept Sine, 1 sweep at -3.0 dBFS  With no timing reference
* Dated: 21 Feb, 2023 6:48:44 PM
* REW Settings:
*  C-weighting compensation: Off
*  Target level: 75.0 dB
* Note: ; 
* Measurement: Feb 21 18:48:44
* Smoothing: 1/48 octave
* Frequency Step: 1/48 octave
* Start Frequency: 10.1 Hz
*
* Freq(Hz), SPL(dB), Phase(degrees)
10.145, 66.299, -82.706
10.293, 66.373, -83.418
10.443, 66.449, -84.374
10.595, 66.566, -85.625
10.749, 66.686, -86.928
10.905, 66.777, -87.914
11.064, 66.856, -88.787
11.225, 66.946, -89.774
11.388, 67.040, -90.805
11.554, 67.131, -91.790
11.722, 67.220, -92.745
11.892, 67.310, -93.687
12.065, 67.401, -94.620
12.241, 67.493, -95.580
12.419, 67.587, -96.554
12.599, 67.679, -97.521
12.782, 67.768, -98.493
12.968, 67.856, -99.496
13.157, 67.941, -100.504
13.348, 68.021, -101.505
13.543, 68.097, -102.498
13.740, 68.169, -103.479
13.939, 68.238, -104.434
14.142, 68.306, -105.364
14.348, 68.374, -106.265
14.557, 68.443, -107.149
14.768, 68.515, -108.021
14.983, 68.589, -108.893
15.201, 68.664, -109.773
15.422, 68.740, -110.670
15.646, 68.814, -111.582
15.874, 68.886, -112.504
16.105, 68.953, -113.429
16.339, 69.017, -114.341
16.577, 69.078, -115.234
16.818, 69.138, -116.104
17.063, 69.199, -116.952
17.311, 69.262, -117.793
17.563, 69.327, -118.640
17.818, 69.393, -119.505
18.077, 69.456, -120.397
18.340, 69.514, -121.306
18.607, 69.564, -122.213
18.877, 69.608, -123.094
19.152, 69.645, -123.924
19.431, 69.682, -124.690
19.713, 69.723, -125.401
20.000, 69.772, -126.086
20.291, 69.829, -126.781
20.586, 69.891, -127.521
20.885, 69.953, -128.322
21.189, 70.006, -129.172
21.497, 70.049, -130.031
21.810, 70.081, -130.851
22.127, 70.109, -131.603
22.449, 70.140, -132.287
22.776, 70.179, -132.939
23.107, 70.228, -133.612
23.443, 70.280, -134.349
23.784, 70.329, -135.160
24.130, 70.367, -136.015
24.481, 70.391, -136.861
24.837, 70.406, -137.648
25.198, 70.419, -138.359
25.565, 70.437, -139.014
25.937, 70.463, -139.657
26.314, 70.495, -140.328
26.697, 70.527, -141.042
27.085, 70.554, -141.785
27.479, 70.576, -142.528
27.879, 70.594, -143.246
28.284, 70.612, -143.937
28.696, 70.633, -144.619
29.113, 70.656, -145.316
29.537, 70.677, -146.038
29.966, 70.693, -146.762
30.402, 70.702, -147.451
30.844, 70.712, -148.079
31.293, 70.730, -148.667
31.748, 70.758, -149.276
32.210, 70.788, -149.952
32.678, 70.809, -150.678
33.154, 70.818, -151.382
33.636, 70.822, -152.003
34.125, 70.834, -152.565
34.621, 70.856, -153.150
35.125, 70.875, -153.807
35.636, 70.882, -154.490
36.154, 70.876, -155.099
36.680, 70.874, -155.603
37.214, 70.889, -156.080
37.755, 70.915, -156.652
38.304, 70.937, -157.358
38.861, 70.938, -158.124
39.427, 70.920, -158.841
40.000, 70.897, -159.455
40.582, 70.881, -160.004
41.172, 70.871, -160.557
41.771, 70.863, -161.147
42.379, 70.848, -161.747
42.995, 70.828, -162.305
43.620, 70.812, -162.807
44.255, 70.803, -163.300
44.898, 70.797, -163.837
45.552, 70.783, -164.401
46.214, 70.760, -164.931
46.886, 70.731, -165.393
47.568, 70.700, -165.778
48.260, 70.671, -166.053
48.962, 70.656, -166.215
49.674, 70.666, -166.365
50.397, 70.693, -166.628
51.130, 70.718, -167.000
51.874, 70.741, -167.405
52.628, 70.768, -167.881
53.394, 70.786, -168.481
54.170, 70.782, -169.072
54.958, 70.777, -169.557
55.758, 70.784, -170.064
56.569, 70.781, -170.626
57.391, 70.769, -171.112
58.226, 70.760, -171.514
59.073, 70.758, -171.891
59.932, 70.761, -172.261
60.804, 70.767, -172.645
61.688, 70.776, -173.069
62.586, 70.782, -173.582
63.496, 70.774, -174.121
64.420, 70.766, -174.644
65.357, 70.756, -175.221
66.307, 70.737, -175.772
67.272, 70.726, -176.294
68.250, 70.714, -176.891
69.243, 70.688, -177.448
70.250, 70.668, -177.954
71.272, 70.643, -178.504
72.309, 70.614, -178.987
73.360, 70.593, -179.535
74.427, 70.549, 179.928
75.510, 70.524, 179.538
76.608, 70.500, 178.927
77.723, 70.445, 178.465
78.853, 70.414, 178.054
80.000, 70.369, 177.589
81.164, 70.342, 177.189
82.344, 70.310, 176.596
83.542, 70.260, 176.053
84.757, 70.205, 175.586
85.990, 70.157, 175.236
87.241, 70.116, 174.848
88.510, 70.066, 174.436
89.797, 70.003, 173.987
91.103, 69.929, 173.600
92.428, 69.871, 173.221
93.773, 69.812, 172.717
95.137, 69.738, 172.239
96.520, 69.655, 171.831
97.924, 69.560, 171.436
99.349, 69.442, 171.177
100.794, 69.355, 170.900
102.260, 69.251, 170.402
103.747, 69.127, 169.974
105.256, 68.987, 169.730
106.787, 68.850, 169.730
108.340, 68.691, 169.780
109.916, 68.498, 170.082
111.515, 68.305, 170.678
113.137, 68.127, 171.478
114.783, 67.971, 172.702
116.452, 67.876, 174.351
118.146, 67.850, 176.273
119.865, 67.921, 178.240
121.608, 68.077, 179.915
123.377, 68.322, -178.806
125.171, 68.630, -178.188
126.992, 68.947, -178.194
128.839, 69.216, -178.753
130.713, 69.432, -179.792
132.615, 69.568, 178.950
134.543, 69.677, 177.511
136.500, 69.700, 176.231
138.486, 69.723, 175.277
140.500, 69.725, 174.250
142.544, 69.702, 173.232
144.617, 69.662, 172.280
146.721, 69.620, 171.441
148.855, 69.572, 170.728
151.020, 69.517, 170.050
153.217, 69.443, 169.419
155.445, 69.386, 168.895
157.706, 69.338, 168.346
160.000, 69.273, 167.798
162.327, 69.195, 167.387
164.688, 69.130, 167.018
167.084, 69.059, 166.608
169.514, 68.985, 166.274
171.980, 68.915, 166.003
174.481, 68.856, 165.691
177.019, 68.793, 165.380
179.594, 68.720, 165.080
182.206, 68.649, 164.825
184.856, 68.579, 164.561
187.545, 68.505, 164.352
190.273, 68.424, 164.111
193.041, 68.352, 163.841
195.849, 68.288, 163.689
198.697, 68.226, 163.706
201.587, 68.157, 163.560
204.520, 68.084, 163.286
207.494, 68.024, 163.143
210.512, 67.960, 163.046
213.574, 67.889, 162.881
216.681, 67.826, 162.637
219.833, 67.767, 162.493
223.030, 67.687, 162.327
226.274, 67.603, 162.140
229.565, 67.518, 162.019
232.905, 67.453, 161.961
236.292, 67.382, 161.937
239.729, 67.308, 161.852
243.216, 67.242, 161.820
246.754, 67.184, 161.811
250.343, 67.112, 161.739
253.984, 67.047, 161.681
257.678, 66.983, 161.559
261.426, 66.916, 161.408
265.229, 66.851, 161.291
269.087, 66.771, 161.120
273.001, 66.672, 161.007
276.972, 66.579, 160.881
281.000, 66.488, 160.825
285.088, 66.383, 160.746
289.234, 66.275, 160.634
293.441, 66.171, 160.657
297.710, 66.068, 160.684
302.040, 65.955, 160.755
306.433, 65.847, 160.804
310.890, 65.736, 160.913
315.412, 65.611, 161.002
320.000, 65.495, 161.150
324.655, 65.376, 161.339
329.377, 65.246, 161.539
334.168, 65.139, 161.773
339.028, 65.007, 162.177
343.959, 64.873, 162.476
348.962, 64.733, 162.878
354.038, 64.581, 163.307
359.188, 64.450, 163.818
364.412, 64.298, 164.571
369.713, 64.154, 165.353
375.090, 64.014, 166.222
380.546, 63.914, 167.183
386.081, 63.810, 168.263
391.697, 63.725, 169.501
397.395, 63.663, 170.707
403.175, 63.638, 171.763
409.039, 63.643, 172.900
414.989, 63.707, 174.097
421.025, 63.719, 174.854
427.149, 63.825, 175.691
433.362, 63.794, 176.567
439.665, 63.874, 177.149
446.060, 63.850, 177.339
452.548, 63.856, 177.662
459.131, 63.863, 178.103
465.809, 63.868, 178.427
472.584, 63.873, 178.801
479.458, 63.816, 179.281
486.432, 63.807, 179.690
493.507, 63.796, -179.821
500.686, 63.782, -179.345
507.968, 63.769, -178.818
515.357, 63.754, -178.312
522.853, 63.743, -177.803
530.458, 63.734, -177.294
538.174, 63.728, -176.790
546.002, 63.724, -176.347
553.943, 63.717, -175.931
562.001, 63.708, -175.499
570.175, 63.693, -175.073
578.469, 63.679, -174.645
586.883, 63.655, -174.218
595.419, 63.632, -173.777
604.080, 63.601, -173.323
612.866, 63.573, -172.745
621.780, 63.548, -172.103
630.824, 63.517, -171.521
640.000, 63.494, -170.859
649.309, 63.484, -170.177
658.753, 63.483, -169.472
668.335, 63.499, -168.769
678.056, 63.519, -168.171
687.919, 63.541, -167.706
697.925, 63.561, -167.428
708.076, 63.543, -167.381
718.376, 63.439, -167.267
728.825, 63.302, -166.307
739.426, 63.264, -164.958
750.181, 63.290, -163.882
761.093, 63.318, -163.033
772.163, 63.334, -162.286
783.394, 63.343, -161.551
794.789, 63.348, -160.833
806.349, 63.351, -160.090
818.078, 63.354, -159.320
829.977, 63.357, -158.541
842.050, 63.361, -157.712
854.297, 63.362, -156.884
866.724, 63.371, -156.064
879.330, 63.385, -155.171
892.120, 63.401, -154.251
905.097, 63.419, -153.395
918.262, 63.437, -152.545
931.618, 63.457, -151.714
945.169, 63.460, -150.930
958.917, 63.420, -150.070
972.864, 63.367, -148.734
987.015, 63.378, -147.092
1001.371, 63.439, -145.542
1015.937, 63.515, -144.100
1030.714, 63.599, -142.709
1045.706, 63.691, -141.329
1060.916, 63.791, -139.938
1076.347, 63.905, -138.531
1092.003, 64.034, -137.124
1107.887, 64.174, -135.702
1124.001, 64.336, -134.254
1140.350, 64.520, -132.834
1156.937, 64.731, -131.452
1173.765, 64.967, -130.152
1190.838, 65.231, -128.979
1208.159, 65.519, -127.995
1225.732, 65.827, -127.240
1243.561, 66.142, -126.744
1261.649, 66.457, -126.531
1280.000, 66.760, -126.566
1298.618, 67.037, -126.815
1317.507, 67.287, -127.234
1336.670, 67.506, -127.749
1356.113, 67.693, -128.300
1375.838, 67.852, -128.844
1395.850, 67.986, -129.344
1416.153, 68.104, -129.785
1436.751, 68.208, -130.151
1457.649, 68.303, -130.440
1478.851, 68.391, -130.656
1500.362, 68.476, -130.804
1522.185, 68.559, -130.893
1544.326, 68.641, -130.940
1566.789, 68.725, -130.926
1589.578, 68.810, -130.881
1612.699, 68.898, -130.809
1636.156, 68.989, -130.706
1659.955, 69.084, -130.582
1684.099, 69.182, -130.442
1708.595, 69.284, -130.289
1733.447, 69.391, -130.131
1758.661, 69.501, -129.970
1784.241, 69.616, -129.813
1810.193, 69.735, -129.660
1836.523, 69.859, -129.515
1863.236, 69.986, -129.383
1890.338, 70.119, -129.267
1917.833, 70.255, -129.169
1945.729, 70.396, -129.094
1974.030, 70.540, -129.047
2002.743, 70.688, -129.029
2031.873, 70.840, -129.049
2061.428, 70.993, -129.110
2091.412, 71.150, -129.214
2121.832, 71.308, -129.364
2152.695, 71.467, -129.562
2184.007, 71.626, -129.812
2215.774, 71.784, -130.114
2248.003, 71.942, -130.474
2280.701, 72.095, -130.883
2313.874, 72.246, -131.349
2347.530, 72.393, -131.868
2381.676, 72.535, -132.442
2416.318, 72.671, -133.066
2451.464, 72.799, -133.738
2487.122, 72.920, -134.454
2523.298, 73.032, -135.211
2560.000, 73.134, -136.001
2597.236, 73.223, -136.816
2635.014, 73.302, -137.650
2673.341, 73.369, -138.493
2712.226, 73.424, -139.335
2751.676, 73.467, -140.163
2791.700, 73.499, -140.974
2832.306, 73.520, -141.762
2873.503, 73.532, -142.520
2915.299, 73.533, -143.244
2957.703, 73.525, -143.932
3000.724, 73.508, -144.585
3044.370, 73.479, -145.187
3088.652, 73.439, -145.715
3133.577, 73.392, -146.174
3179.156, 73.337, -146.544
3225.398, 73.279, -146.819
3272.312, 73.219, -147.003
3319.909, 73.159, -147.092
3368.198, 73.099, -147.094
3417.190, 73.042, -147.017
3466.894, 72.985, -146.862
3517.321, 72.931, -146.615
3568.482, 72.884, -146.274
3620.387, 72.843, -145.855
3673.046, 72.808, -145.346
3726.472, 72.783, -144.739
3780.675, 72.772, -144.070
3835.666, 72.772, -143.312
3891.457, 72.791, -142.482
3948.060, 72.825, -141.595
4005.486, 72.885, -140.615
4063.747, 72.970, -139.661
4122.855, 73.071, -138.669
4182.824, 73.209, -137.675
4243.664, 73.366, -136.745
4305.390, 73.564, -135.834
4368.013, 73.785, -135.110
4431.547, 74.034, -134.509
4496.005, 74.296, -134.125
4561.401, 74.570, -133.880
4627.749, 74.856, -133.797
4695.061, 75.154, -133.850
4763.352, 75.475, -134.138
4832.637, 75.793, -134.651
4902.929, 76.117, -135.402
4974.244, 76.442, -136.330
5046.596, 76.778, -137.561
5120.000, 77.109, -139.093
5194.472, 77.435, -141.075
5270.027, 77.721, -143.531
5346.682, 77.944, -146.427
5424.451, 78.064, -149.624
5503.352, 78.059, -152.699
5583.399, 78.010, -155.100
5664.612, 77.997, -157.653
5747.006, 77.889, -160.443
5830.598, 77.691, -162.887
5915.406, 77.448, -164.881
6001.447, 77.178, -166.442
6088.740, 76.895, -167.594
6177.303, 76.611, -168.337
6267.154, 76.335, -168.665
6358.312, 76.084, -168.596
6450.796, 75.873, -168.195
6544.625, 75.713, -167.535
6639.818, 75.609, -166.697
6736.397, 75.568, -165.773
6834.380, 75.594, -164.854
6933.789, 75.687, -164.027
7034.643, 75.849, -163.387
7136.964, 76.082, -163.052
7240.773, 76.383, -163.181
7346.093, 76.737, -163.954
7452.944, 77.123, -165.550
7561.350, 77.501, -168.132
7671.332, 77.817, -171.784
7782.915, 78.001, -176.410
7896.120, 77.993, 178.352
8010.971, 77.766, 173.063
8127.493, 77.337, 168.265
8245.711, 76.749, 164.337
8365.647, 76.057, 161.500
8487.328, 75.319, 159.832
8610.779, 74.592, 159.268
8736.026, 73.915, 159.637
8863.095, 73.313, 160.741
8992.011, 72.800, 162.402
9122.803, 72.385, 164.473
9255.497, 72.075, 166.821
9390.121, 71.880, 169.315
9526.704, 71.809, 171.817
9665.273, 71.874, 174.132
9805.857, 72.078, 175.973
9948.487, 72.406, 177.065
10093.191, 72.849, 177.121
10240.000, 73.376, 175.724
10388.944, 73.909, 172.388
10540.055, 74.301, 166.884
10693.363, 74.409, 159.613
10848.902, 74.088, 151.426
11006.703, 73.303, 144.070
11166.799, 72.195, 138.809
11329.224, 70.944, 135.967
11494.012, 69.685, 135.274
11661.195, 68.486, 136.408
11830.812, 67.393, 139.352
12002.895, 66.560, 144.238
12177.480, 66.251, 149.177
12354.606, 66.127, 151.499
12534.309, 65.840, 153.163
12716.624, 65.553, 155.506
12901.592, 65.408, 158.419
13089.250, 65.567, 161.302
13279.637, 66.037, 162.098
13472.794, 66.496, 160.010
13668.760, 66.797, 155.891
13867.577, 66.917, 149.774
14069.285, 66.589, 141.883
14273.928, 65.740, 134.590
14481.547, 64.517, 129.386
14692.186, 63.138, 126.752
14905.889, 61.787, 126.251
15122.700, 60.562, 127.107
15342.664, 59.482, 128.558
15565.829, 58.507, 129.999
15792.239, 57.549, 131.159
16021.942, 56.489, 132.430
16254.986, 55.293, 135.282
16491.422, 54.239, 140.638
16731.295, 53.625, 147.572
16974.656, 53.635, 153.330
17221.559, 53.896, 155.385
17472.053, 53.979, 154.459
17726.189, 53.792, 152.677
17984.021, 53.557, 151.215
18245.605, 53.614, 148.885
18510.994, 54.055, 141.142
18780.242, 53.885, 121.873
19053.408, 51.299, 98.678
19330.547, 46.358, 90.064
19611.715, 40.764, 98.260
19896.975, 35.765, 116.680
