* Measurement data measured by REW V5.19
* Source: ASIO MOTU M Series, In 1
* Format: 1M Log Swept Sine, 1 sweep at -3.0 dBFS  With no timing reference
* Dated: 14 Mar, 2023 5:19:16 PM
* REW Settings:
*  C-weighting compensation: Off
*  Target level: 75.0 dB
* Note: ; 
* Measurement: Mar 14 17:19:16
* Smoothing: 1/48 octave
* Frequency Step: 1/48 octave
* Start Frequency: 10.1 Hz
*
* Freq(Hz), SPL(dB), Phase(degrees)
10.145, 66.949, -127.611
10.293, 66.971, -128.109
10.443, 66.995, -128.779
10.595, 67.031, -129.655
10.749, 67.068, -130.569
10.905, 67.094, -131.263
11.064, 67.116, -131.878
11.225, 67.140, -132.572
11.388, 67.166, -133.296
11.554, 67.190, -133.987
11.722, 67.213, -134.655
11.892, 67.236, -135.310
12.065, 67.258, -135.953
12.241, 67.281, -136.606
12.419, 67.304, -137.258
12.599, 67.326, -137.890
12.782, 67.347, -138.513
12.968, 67.368, -139.140
13.157, 67.389, -139.762
13.348, 67.409, -140.368
13.543, 67.428, -140.969
13.740, 67.448, -141.565
13.939, 67.467, -142.155
14.142, 67.486, -142.738
14.348, 67.505, -143.316
14.557, 67.523, -143.890
14.768, 67.541, -144.460
14.983, 67.558, -145.023
15.201, 67.575, -145.580
15.422, 67.591, -146.131
15.646, 67.607, -146.676
15.874, 67.622, -147.214
16.105, 67.636, -147.746
16.339, 67.651, -148.272
16.577, 67.664, -148.791
16.818, 67.678, -149.305
17.063, 67.691, -149.811
17.311, 67.703, -150.309
17.563, 67.716, -150.800
17.818, 67.730, -151.285
18.077, 67.744, -151.770
18.340, 67.758, -152.257
18.607, 67.772, -152.751
18.877, 67.785, -153.250
19.152, 67.796, -153.752
19.431, 67.805, -154.248
19.713, 67.812, -154.729
20.000, 67.818, -155.192
20.291, 67.826, -155.638
20.586, 67.837, -156.078
20.885, 67.850, -156.529
21.189, 67.865, -157.006
21.497, 67.876, -157.509
21.810, 67.881, -158.022
22.127, 67.880, -158.513
22.449, 67.874, -158.953
22.776, 67.870, -159.331
23.107, 67.874, -159.662
23.443, 67.887, -159.989
23.784, 67.909, -160.354
24.130, 67.932, -160.781
24.481, 67.951, -161.258
24.837, 67.960, -161.745
25.198, 67.963, -162.204
25.565, 67.965, -162.617
25.937, 67.969, -163.002
26.314, 67.978, -163.389
26.697, 67.987, -163.796
27.085, 67.993, -164.216
27.479, 67.995, -164.626
27.879, 67.996, -165.009
28.284, 67.999, -165.373
28.696, 68.005, -165.741
29.113, 68.011, -166.129
29.537, 68.015, -166.532
29.966, 68.017, -166.932
30.402, 68.016, -167.318
30.844, 68.017, -167.694
31.293, 68.018, -168.070
31.748, 68.019, -168.450
32.210, 68.020, -168.829
32.678, 68.020, -169.204
33.154, 68.021, -169.578
33.636, 68.022, -169.953
34.125, 68.021, -170.328
34.621, 68.021, -170.699
35.125, 68.020, -171.067
35.636, 68.019, -171.437
36.154, 68.016, -171.808
36.680, 68.012, -172.171
37.214, 68.008, -172.521
37.755, 68.006, -172.863
38.304, 68.005, -173.216
38.861, 68.003, -173.588
39.427, 67.998, -173.966
40.000, 67.990, -174.331
40.582, 67.983, -174.679
41.172, 67.977, -175.027
41.771, 67.970, -175.384
42.379, 67.962, -175.737
42.995, 67.954, -176.077
43.620, 67.948, -176.419
44.255, 67.941, -176.776
44.898, 67.931, -177.131
45.552, 67.921, -177.465
46.214, 67.914, -177.799
46.886, 67.907, -178.158
47.568, 67.896, -178.526
48.260, 67.882, -178.874
48.962, 67.870, -179.213
49.674, 67.858, -179.562
50.397, 67.844, -179.910
51.130, 67.829, 179.745
51.874, 67.813, 179.394
52.628, 67.794, 179.054
53.394, 67.777, 178.723
54.170, 67.758, 178.373
54.958, 67.734, 178.026
55.758, 67.710, 177.723
56.569, 67.692, 177.413
57.391, 67.672, 177.055
58.226, 67.643, 176.709
59.073, 67.615, 176.405
59.932, 67.589, 176.089
60.804, 67.559, 175.762
61.688, 67.524, 175.463
62.586, 67.490, 175.196
63.496, 67.458, 174.939
64.420, 67.426, 174.659
65.357, 67.386, 174.394
66.307, 67.346, 174.186
67.272, 67.310, 173.978
68.250, 67.267, 173.785
69.243, 67.225, 173.669
70.250, 67.190, 173.560
71.272, 67.150, 173.469
72.309, 67.112, 173.463
73.360, 67.083, 173.511
74.427, 67.064, 173.609
75.510, 67.062, 173.727
76.608, 67.076, 173.817
77.723, 67.104, 173.846
78.853, 67.145, 173.788
80.000, 67.194, 173.615
81.164, 67.249, 173.312
82.344, 67.300, 172.837
83.542, 67.336, 172.252
84.757, 67.355, 171.583
85.990, 67.351, 170.888
87.241, 67.329, 170.231
88.510, 67.295, 169.636
89.797, 67.257, 169.066
91.103, 67.209, 168.530
92.428, 67.160, 168.053
93.773, 67.109, 167.598
95.137, 67.058, 167.195
96.520, 67.009, 166.798
97.924, 66.955, 166.389
99.349, 66.899, 166.020
100.794, 66.844, 165.659
102.260, 66.788, 165.291
103.747, 66.727, 164.934
105.256, 66.664, 164.592
106.787, 66.599, 164.276
108.340, 66.534, 163.975
109.916, 66.470, 163.692
111.515, 66.404, 163.416
113.137, 66.338, 163.159
114.783, 66.270, 162.909
116.452, 66.202, 162.677
118.146, 66.132, 162.440
119.865, 66.062, 162.217
121.608, 65.992, 161.999
123.377, 65.918, 161.792
125.171, 65.844, 161.597
126.992, 65.769, 161.398
128.839, 65.691, 161.200
130.713, 65.613, 161.008
132.615, 65.530, 160.831
134.543, 65.445, 160.675
136.500, 65.356, 160.530
138.486, 65.265, 160.413
140.500, 65.173, 160.306
142.544, 65.076, 160.213
144.617, 64.978, 160.146
146.721, 64.876, 160.109
148.855, 64.771, 160.099
151.020, 64.662, 160.125
153.217, 64.551, 160.181
155.445, 64.435, 160.263
157.706, 64.318, 160.404
160.000, 64.200, 160.568
162.327, 64.075, 160.800
164.688, 63.947, 161.102
167.084, 63.816, 161.490
169.514, 63.679, 161.920
171.980, 63.534, 162.480
174.481, 63.391, 163.189
177.019, 63.252, 164.065
179.594, 63.119, 165.153
182.206, 63.002, 166.461
184.856, 62.910, 168.017
187.545, 62.861, 169.795
190.273, 62.871, 171.772
193.041, 62.959, 173.823
195.849, 63.137, 175.762
198.697, 63.401, 177.372
201.587, 63.729, 178.405
204.520, 64.082, 178.743
207.494, 64.420, 178.390
210.512, 64.710, 177.509
213.574, 64.939, 176.287
216.681, 65.111, 174.866
219.833, 65.230, 173.342
223.030, 65.302, 171.764
226.274, 65.327, 170.168
229.565, 65.306, 168.613
232.905, 65.246, 167.155
236.292, 65.152, 165.833
239.729, 65.031, 164.680
243.216, 64.890, 163.708
246.754, 64.739, 162.913
250.343, 64.582, 162.282
253.984, 64.423, 161.794
257.678, 64.265, 161.427
261.426, 64.110, 161.162
265.229, 63.959, 160.988
269.087, 63.811, 160.871
273.001, 63.667, 160.816
276.972, 63.525, 160.811
281.000, 63.384, 160.851
285.088, 63.245, 160.937
289.234, 63.108, 161.065
293.441, 62.972, 161.245
297.710, 62.839, 161.472
302.040, 62.708, 161.748
306.433, 62.581, 162.061
310.890, 62.457, 162.406
315.412, 62.336, 162.784
320.000, 62.218, 163.194
324.655, 62.102, 163.636
329.377, 61.990, 164.097
334.168, 61.881, 164.590
339.028, 61.774, 165.112
343.959, 61.672, 165.657
348.962, 61.574, 166.202
354.038, 61.478, 166.773
359.188, 61.382, 167.343
364.412, 61.286, 167.935
369.713, 61.189, 168.545
375.090, 61.090, 169.186
380.546, 60.988, 169.873
386.081, 60.885, 170.614
391.697, 60.781, 171.441
397.395, 60.681, 172.350
403.175, 60.588, 173.359
409.039, 60.506, 174.453
414.989, 60.437, 175.627
421.025, 60.385, 176.867
427.149, 60.352, 178.141
433.362, 60.337, 179.433
439.665, 60.344, -179.277
446.060, 60.372, -178.013
452.548, 60.424, -176.806
459.131, 60.496, -175.691
465.809, 60.586, -174.726
472.584, 60.688, -173.946
479.458, 60.787, -173.382
486.432, 60.874, -172.982
493.507, 60.940, -172.689
500.686, 60.984, -172.433
507.968, 61.011, -172.156
515.357, 61.026, -171.823
522.853, 61.036, -171.430
530.458, 61.047, -170.995
538.174, 61.058, -170.533
546.002, 61.071, -170.051
553.943, 61.086, -169.561
562.001, 61.104, -169.065
570.175, 61.123, -168.573
578.469, 61.144, -168.091
586.883, 61.166, -167.635
595.419, 61.186, -167.188
604.080, 61.202, -166.751
612.866, 61.215, -166.300
621.780, 61.225, -165.832
630.824, 61.236, -165.338
640.000, 61.248, -164.822
649.309, 61.263, -164.291
658.753, 61.281, -163.752
668.335, 61.303, -163.214
678.056, 61.327, -162.688
687.919, 61.352, -162.177
697.925, 61.377, -161.679
708.076, 61.402, -161.195
718.376, 61.424, -160.722
728.825, 61.442, -160.256
739.426, 61.458, -159.777
750.181, 61.470, -159.272
761.093, 61.480, -158.736
772.163, 61.489, -158.156
783.394, 61.503, -157.538
794.789, 61.520, -156.893
806.349, 61.542, -156.232
818.078, 61.570, -155.566
829.977, 61.601, -154.902
842.050, 61.634, -154.243
854.297, 61.670, -153.583
866.724, 61.706, -152.920
879.330, 61.745, -152.256
892.120, 61.785, -151.582
905.097, 61.827, -150.895
918.262, 61.871, -150.197
931.618, 61.918, -149.488
945.169, 61.968, -148.762
958.917, 62.023, -148.024
972.864, 62.083, -147.276
987.015, 62.149, -146.526
1001.371, 62.220, -145.780
1015.937, 62.297, -145.048
1030.714, 62.380, -144.334
1045.706, 62.466, -143.644
1060.916, 62.555, -142.979
1076.347, 62.646, -142.338
1092.003, 62.739, -141.717
1107.887, 62.832, -141.116
1124.001, 62.926, -140.527
1140.350, 63.021, -139.942
1156.937, 63.116, -139.365
1173.765, 63.214, -138.795
1190.838, 63.313, -138.228
1208.159, 63.414, -137.667
1225.732, 63.516, -137.112
1243.561, 63.622, -136.564
1261.649, 63.729, -136.022
1280.000, 63.839, -135.489
1298.618, 63.952, -134.970
1317.507, 64.068, -134.464
1336.670, 64.187, -133.984
1356.113, 64.308, -133.530
1375.838, 64.428, -133.100
1395.850, 64.547, -132.693
1416.153, 64.664, -132.300
1436.751, 64.781, -131.912
1457.649, 64.896, -131.524
1478.851, 65.011, -131.132
1500.362, 65.125, -130.734
1522.185, 65.240, -130.329
1544.326, 65.355, -129.912
1566.789, 65.472, -129.485
1589.578, 65.591, -129.044
1612.699, 65.713, -128.590
1636.156, 65.839, -128.125
1659.955, 65.969, -127.653
1684.099, 66.104, -127.180
1708.595, 66.244, -126.711
1733.447, 66.387, -126.249
1758.661, 66.535, -125.790
1784.241, 66.686, -125.332
1810.193, 66.842, -124.871
1836.523, 67.003, -124.412
1863.236, 67.171, -123.959
1890.338, 67.345, -123.514
1917.833, 67.525, -123.085
1945.729, 67.712, -122.674
1974.030, 67.905, -122.280
2002.743, 68.104, -121.904
2031.873, 68.310, -121.549
2061.428, 68.524, -121.217
2091.412, 68.745, -120.914
2121.832, 68.975, -120.644
2152.695, 69.212, -120.413
2184.007, 69.458, -120.228
2215.774, 69.713, -120.096
2248.003, 69.975, -120.024
2280.701, 70.244, -120.020
2313.874, 70.519, -120.084
2347.530, 70.801, -120.218
2381.676, 71.088, -120.426
2416.318, 71.380, -120.707
2451.464, 71.679, -121.063
2487.122, 71.985, -121.501
2523.298, 72.297, -122.028
2560.000, 72.618, -122.653
2597.236, 72.948, -123.397
2635.014, 73.287, -124.286
2673.341, 73.633, -125.354
2712.226, 73.982, -126.627
2751.676, 74.329, -128.124
2791.700, 74.668, -129.856
2832.306, 74.992, -131.822
2873.503, 75.298, -134.011
2915.299, 75.579, -136.411
2957.703, 75.831, -139.009
3000.724, 76.051, -141.788
3044.370, 76.233, -144.729
3088.652, 76.372, -147.809
3133.577, 76.462, -150.990
3179.156, 76.498, -154.219
3225.398, 76.476, -157.421
3272.312, 76.398, -160.503
3319.909, 76.271, -163.384
3368.198, 76.105, -166.007
3417.190, 75.912, -168.351
3466.894, 75.704, -170.417
3517.321, 75.489, -172.223
3568.482, 75.273, -173.802
3620.387, 75.062, -175.186
3673.046, 74.857, -176.413
3726.472, 74.659, -177.505
3780.675, 74.467, -178.485
3835.666, 74.281, -179.353
3891.457, 74.102, 179.895
3948.060, 73.932, 179.256
4005.486, 73.777, 178.711
4063.747, 73.637, 178.234
4122.855, 73.515, 177.794
4182.824, 73.410, 177.355
4243.664, 73.319, 176.892
4305.390, 73.240, 176.387
4368.013, 73.170, 175.840
4431.547, 73.108, 175.240
4496.005, 73.053, 174.566
4561.401, 73.003, 173.797
4627.749, 72.953, 172.923
4695.061, 72.899, 171.945
4763.352, 72.837, 170.861
4832.637, 72.762, 169.683
4902.929, 72.671, 168.427
4974.244, 72.561, 167.109
5046.596, 72.429, 165.749
5120.000, 72.273, 164.369
5194.472, 72.091, 162.996
5270.027, 71.880, 161.666
5346.682, 71.641, 160.415
5424.451, 71.375, 159.290
5503.352, 71.086, 158.325
5583.399, 70.778, 157.538
5664.612, 70.457, 156.944
5747.006, 70.125, 156.555
5830.598, 69.788, 156.384
5915.406, 69.451, 156.435
6001.447, 69.120, 156.698
6088.740, 68.798, 157.171
6177.303, 68.494, 157.844
6267.154, 68.213, 158.678
6358.312, 67.956, 159.642
6450.796, 67.728, 160.700
6544.625, 67.529, 161.813
6639.818, 67.359, 162.944
6736.397, 67.216, 164.066
6834.380, 67.098, 165.160
6933.789, 67.005, 166.229
7034.643, 66.940, 167.264
7136.964, 66.911, 168.230
7240.773, 66.922, 169.045
7346.093, 66.970, 169.605
7452.944, 67.046, 169.823
7561.350, 67.135, 169.627
7671.332, 67.223, 168.978
7782.915, 67.291, 167.847
7896.120, 67.317, 166.227
8010.971, 67.274, 164.173
8127.493, 67.141, 161.817
8245.711, 66.901, 159.330
8365.647, 66.545, 156.925
8487.328, 66.079, 154.837
8610.779, 65.521, 153.253
8736.026, 64.897, 152.286
8863.095, 64.232, 151.994
8992.011, 63.550, 152.378
9122.803, 62.874, 153.406
9255.497, 62.223, 155.013
9390.121, 61.608, 157.112
9526.704, 61.038, 159.616
9665.273, 60.517, 162.451
9805.857, 60.046, 165.566
9948.487, 59.628, 168.917
10093.191, 59.266, 172.462
10240.000, 58.964, 176.163
10388.944, 58.722, 179.972
10540.055, 58.541, -176.126
10693.363, 58.437, -172.102
10848.902, 58.418, -168.226
11006.703, 58.452, -164.475
11166.799, 58.552, -160.825
11329.224, 58.723, -157.367
11494.012, 58.966, -154.186
11661.195, 59.280, -151.417
11830.812, 59.660, -149.206
12002.895, 60.093, -147.727
12177.480, 60.552, -147.189
12354.606, 60.992, -147.766
12534.309, 61.345, -149.504
12716.624, 61.538, -152.201
12901.592, 61.512, -155.343
13089.250, 61.260, -158.225
13279.637, 60.828, -160.182
13472.794, 60.311, -160.855
13668.760, 59.795, -160.260
13867.577, 59.349, -158.530
14069.285, 59.033, -155.903
14273.928, 58.895, -152.694
14481.547, 58.982, -149.279
14692.186, 59.341, -146.144
14905.889, 60.029, -144.046
15122.700, 61.087, -144.364
15342.664, 62.402, -149.606
15565.829, 63.388, -162.801
15792.239, 63.020, 177.968
16021.942, 60.970, 162.428
16254.986, 58.038, 156.863
16491.422, 55.463, 160.211
16731.295, 53.687, 163.336
16974.656, 51.847, 168.315
17221.559, 50.271, 175.672
17472.053, 49.019, -175.818
17726.189, 48.049, -166.678
17984.021, 47.339, -157.191
18245.605, 46.876, -147.542
18510.994, 46.683, -137.935
18780.242, 46.761, -128.667
19053.408, 47.131, -119.806
19330.547, 47.855, -111.624
19611.715, 49.016, -104.706
19896.975, 50.441, -100.316
