* Measurement data measured by REW V5.19
* Source: ASIO MOTU M Series, In 1
* Format: 1M Log Swept Sine, 1 sweep at -3.0 dBFS  With no timing reference
* Dated: 7 Feb, 2023 4:16:11 PM
* REW Settings:
*  C-weighting compensation: Off
*  Target level: 75.0 dB
* Note: ; 
* Measurement: Feb 7 16:16:11
* Smoothing: 1/48 octave
* Frequency Step: 1/48 octave
* Start Frequency: 10.1 Hz
*
* Freq(Hz), SPL(dB), Phase(degrees)
10.145, 68.736, -107.931
10.293, 68.775, -108.670
10.443, 68.815, -109.668
10.595, 68.878, -110.980
10.749, 68.942, -112.354
10.905, 68.989, -113.417
11.064, 69.029, -114.372
11.225, 69.073, -115.455
11.388, 69.117, -116.591
11.554, 69.157, -117.680
11.722, 69.195, -118.736
11.892, 69.231, -119.771
12.065, 69.266, -120.787
12.241, 69.303, -121.814
12.419, 69.339, -122.841
12.599, 69.375, -123.841
12.782, 69.410, -124.831
12.968, 69.444, -125.837
13.157, 69.478, -126.841
13.348, 69.510, -127.831
13.543, 69.540, -128.816
13.740, 69.569, -129.797
13.939, 69.597, -130.766
14.142, 69.624, -131.725
14.348, 69.650, -132.673
14.557, 69.675, -133.614
14.768, 69.699, -134.552
14.983, 69.723, -135.483
15.201, 69.745, -136.411
15.422, 69.765, -137.335
15.646, 69.783, -138.251
15.874, 69.799, -139.157
16.105, 69.814, -140.052
16.339, 69.827, -140.934
16.577, 69.839, -141.803
16.818, 69.850, -142.660
17.063, 69.860, -143.509
17.311, 69.869, -144.350
17.563, 69.878, -145.185
17.818, 69.886, -146.015
18.077, 69.893, -146.841
18.340, 69.899, -147.663
18.607, 69.903, -148.481
18.877, 69.905, -149.293
19.152, 69.906, -150.096
19.431, 69.905, -150.888
19.713, 69.903, -151.665
20.000, 69.901, -152.431
20.291, 69.900, -153.187
20.586, 69.899, -153.941
20.885, 69.898, -154.697
21.189, 69.896, -155.457
21.497, 69.892, -156.215
21.810, 69.885, -156.961
22.127, 69.876, -157.685
22.449, 69.869, -158.386
22.776, 69.863, -159.076
23.107, 69.860, -159.770
23.443, 69.858, -160.486
23.784, 69.853, -161.226
24.130, 69.841, -161.973
24.481, 69.822, -162.699
24.837, 69.799, -163.377
25.198, 69.776, -164.000
25.565, 69.759, -164.589
25.937, 69.747, -165.182
26.314, 69.739, -165.808
26.697, 69.727, -166.470
27.085, 69.708, -167.142
27.479, 69.684, -167.787
27.879, 69.659, -168.393
28.284, 69.636, -168.978
28.696, 69.616, -169.572
29.113, 69.595, -170.185
29.537, 69.569, -170.794
29.966, 69.541, -171.370
30.402, 69.517, -171.919
30.844, 69.497, -172.478
31.293, 69.475, -173.071
31.748, 69.444, -173.660
32.210, 69.409, -174.175
32.678, 69.382, -174.604
33.154, 69.375, -175.040
33.636, 69.375, -175.603
34.125, 69.361, -176.295
34.621, 69.320, -176.977
35.125, 69.267, -177.511
35.636, 69.225, -177.926
36.154, 69.197, -178.368
36.680, 69.167, -178.894
37.214, 69.124, -179.413
37.755, 69.081, -179.848
38.304, 69.052, 179.720
38.861, 69.026, 179.174
39.427, 68.983, 178.579
40.000, 68.929, 178.081
40.582, 68.888, 177.673
41.172, 68.859, 177.212
41.771, 68.824, 176.694
42.379, 68.782, 176.241
42.995, 68.749, 175.836
43.620, 68.717, 175.373
44.255, 68.669, 174.925
44.898, 68.619, 174.594
45.552, 68.580, 174.258
46.214, 68.529, 173.850
46.886, 68.463, 173.563
47.568, 68.422, 173.364
48.260, 68.400, 172.928
48.962, 68.343, 172.337
49.674, 68.273, 171.964
50.397, 68.249, 171.625
51.130, 68.232, 170.942
51.874, 68.159, 170.278
52.628, 68.090, 170.132
53.394, 68.110, 170.056
54.170, 68.145, 169.464
54.958, 68.107, 168.780
55.758, 68.048, 168.414
56.569, 67.989, 168.042
57.391, 67.889, 167.768
58.226, 67.800, 167.811
59.073, 67.748, 167.719
59.932, 67.680, 167.454
60.804, 67.614, 167.210
61.688, 67.554, 166.864
62.586, 67.489, 166.510
63.496, 67.429, 166.221
64.420, 67.384, 165.977
65.357, 67.347, 165.615
66.307, 67.275, 165.241
67.272, 67.203, 165.124
68.250, 67.155, 164.938
69.243, 67.092, 164.680
70.250, 67.035, 164.458
71.272, 66.979, 164.165
72.309, 66.919, 163.893
73.360, 66.858, 163.635
74.427, 66.792, 163.434
75.510, 66.730, 163.260
76.608, 66.663, 163.071
77.723, 66.598, 162.907
78.853, 66.536, 162.687
80.000, 66.467, 162.472
81.164, 66.404, 162.342
82.344, 66.349, 162.169
83.542, 66.278, 162.025
84.757, 66.209, 161.950
85.990, 66.134, 161.835
87.241, 66.060, 161.652
88.510, 65.951, 161.546
89.797, 65.903, 161.650
91.103, 65.853, 161.339
92.428, 65.780, 161.150
93.773, 65.701, 160.981
95.137, 65.631, 160.979
96.520, 65.606, 160.740
97.924, 65.516, 160.378
99.349, 65.455, 160.192
100.794, 65.313, 160.182
102.260, 65.247, 160.649
103.747, 65.170, 160.801
105.256, 65.092, 160.946
106.787, 65.002, 160.921
108.340, 64.907, 161.016
109.916, 64.839, 161.117
111.515, 64.757, 161.231
113.137, 64.674, 161.387
114.783, 64.561, 161.650
116.452, 64.472, 162.056
118.146, 64.409, 162.439
119.865, 64.359, 162.723
121.608, 64.316, 163.097
123.377, 64.279, 163.353
125.171, 64.243, 163.662
126.992, 64.223, 163.864
128.839, 64.200, 163.975
130.713, 64.174, 164.119
132.615, 64.140, 164.209
134.543, 64.092, 164.336
136.500, 64.048, 164.501
138.486, 64.003, 164.609
140.500, 63.963, 164.773
142.544, 63.928, 164.872
144.617, 63.891, 165.011
146.721, 63.854, 164.993
148.855, 63.801, 165.030
151.020, 63.751, 165.163
153.217, 63.707, 165.237
155.445, 63.653, 165.322
157.706, 63.589, 165.436
160.000, 63.529, 165.540
162.327, 63.467, 165.647
164.688, 63.404, 165.799
167.084, 63.334, 165.941
169.514, 63.255, 166.070
171.980, 63.174, 166.219
174.481, 63.093, 166.457
177.019, 63.017, 166.742
179.594, 62.929, 167.076
182.206, 62.842, 167.519
184.856, 62.751, 167.970
187.545, 62.654, 168.488
190.273, 62.567, 169.189
193.041, 62.501, 169.998
195.849, 62.429, 170.765
198.697, 62.345, 171.587
201.587, 62.339, 172.716
204.520, 62.366, 173.630
207.494, 62.389, 174.712
210.512, 62.462, 175.609
213.574, 62.567, 176.292
216.681, 62.680, 176.703
219.833, 62.784, 176.843
223.030, 62.863, 176.796
226.274, 62.916, 176.590
229.565, 62.941, 176.364
232.905, 62.941, 176.110
236.292, 62.919, 175.895
239.729, 62.894, 175.788
243.216, 62.855, 175.763
246.754, 62.806, 175.780
250.343, 62.757, 175.869
253.984, 62.712, 176.068
257.678, 62.669, 176.267
261.426, 62.631, 176.487
265.229, 62.594, 176.754
269.087, 62.552, 177.012
273.001, 62.517, 177.282
276.972, 62.482, 177.612
281.000, 62.445, 177.885
285.088, 62.407, 178.233
289.234, 62.366, 178.529
293.441, 62.328, 178.822
297.710, 62.294, 179.242
302.040, 62.261, 179.645
306.433, 62.232, -179.949
310.890, 62.205, -179.532
315.412, 62.176, -179.107
320.000, 62.151, -178.665
324.655, 62.132, -178.233
329.377, 62.108, -177.808
334.168, 62.084, -177.368
339.028, 62.070, -176.948
343.959, 62.048, -176.571
348.962, 62.020, -176.148
354.038, 61.994, -175.681
359.188, 61.963, -175.242
364.412, 61.931, -174.760
369.713, 61.900, -174.270
375.090, 61.867, -173.731
380.546, 61.837, -173.135
386.081, 61.806, -172.512
391.697, 61.782, -171.845
397.395, 61.760, -171.179
403.175, 61.739, -170.416
409.039, 61.723, -169.608
414.989, 61.717, -168.759
421.025, 61.721, -167.960
427.149, 61.733, -167.123
433.362, 61.745, -166.304
439.665, 61.766, -165.464
446.060, 61.791, -164.597
452.548, 61.826, -163.728
459.131, 61.865, -162.806
465.809, 61.914, -161.887
472.584, 61.976, -160.952
479.458, 62.044, -160.061
486.432, 62.124, -159.209
493.507, 62.226, -158.383
500.686, 62.339, -157.625
507.968, 62.457, -156.976
515.357, 62.579, -156.414
522.853, 62.700, -155.934
530.458, 62.821, -155.565
538.174, 62.933, -155.278
546.002, 63.035, -155.032
553.943, 63.129, -154.825
562.001, 63.215, -154.638
570.175, 63.295, -154.424
578.469, 63.370, -154.196
586.883, 63.444, -153.973
595.419, 63.514, -153.709
604.080, 63.584, -153.472
612.866, 63.656, -153.227
621.780, 63.728, -152.991
630.824, 63.796, -152.743
640.000, 63.860, -152.499
649.309, 63.923, -152.260
658.753, 63.988, -151.996
668.335, 64.052, -151.698
678.056, 64.117, -151.385
687.919, 64.188, -151.066
697.925, 64.263, -150.739
708.076, 64.342, -150.409
718.376, 64.423, -150.102
728.825, 64.509, -149.812
739.426, 64.598, -149.535
750.181, 64.688, -149.317
761.093, 64.780, -149.113
772.163, 64.869, -148.930
783.394, 64.955, -148.783
794.789, 65.038, -148.637
806.349, 65.118, -148.475
818.078, 65.195, -148.323
829.977, 65.274, -148.163
842.050, 65.351, -147.999
854.297, 65.429, -147.811
866.724, 65.508, -147.613
879.330, 65.590, -147.404
892.120, 65.674, -147.209
905.097, 65.762, -147.029
918.262, 65.853, -146.847
931.618, 65.946, -146.673
945.169, 66.038, -146.504
958.917, 66.133, -146.345
972.864, 66.231, -146.210
987.015, 66.330, -146.081
1001.371, 66.429, -145.960
1015.937, 66.530, -145.848
1030.714, 66.633, -145.761
1045.706, 66.737, -145.680
1060.916, 66.842, -145.623
1076.347, 66.948, -145.579
1092.003, 67.055, -145.547
1107.887, 67.163, -145.536
1124.001, 67.272, -145.540
1140.350, 67.382, -145.563
1156.937, 67.491, -145.604
1173.765, 67.600, -145.659
1190.838, 67.710, -145.729
1208.159, 67.819, -145.818
1225.732, 67.928, -145.908
1243.561, 68.039, -146.012
1261.649, 68.151, -146.135
1280.000, 68.265, -146.270
1298.618, 68.380, -146.426
1317.507, 68.495, -146.600
1336.670, 68.612, -146.804
1356.113, 68.730, -147.041
1375.838, 68.847, -147.300
1395.850, 68.964, -147.596
1416.153, 69.079, -147.921
1436.751, 69.193, -148.276
1457.649, 69.305, -148.661
1478.851, 69.414, -149.071
1500.362, 69.521, -149.502
1522.185, 69.625, -149.954
1544.326, 69.726, -150.421
1566.789, 69.826, -150.910
1589.578, 69.922, -151.416
1612.699, 70.015, -151.940
1636.156, 70.104, -152.479
1659.955, 70.191, -153.038
1684.099, 70.273, -153.608
1708.595, 70.352, -154.189
1733.447, 70.427, -154.784
1758.661, 70.498, -155.385
1784.241, 70.566, -155.995
1810.193, 70.629, -156.603
1836.523, 70.687, -157.210
1863.236, 70.741, -157.816
1890.338, 70.791, -158.415
1917.833, 70.837, -159.005
1945.729, 70.880, -159.577
1974.030, 70.918, -160.127
2002.743, 70.955, -160.663
2031.873, 70.990, -161.170
2061.428, 71.024, -161.650
2091.412, 71.060, -162.104
2121.832, 71.096, -162.535
2152.695, 71.133, -162.939
2184.007, 71.174, -163.323
2215.774, 71.220, -163.694
2248.003, 71.270, -164.050
2280.701, 71.327, -164.408
2313.874, 71.392, -164.775
2347.530, 71.461, -165.162
2381.676, 71.538, -165.582
2416.318, 71.620, -166.046
2451.464, 71.706, -166.568
2487.122, 71.796, -167.153
2523.298, 71.888, -167.816
2560.000, 71.979, -168.558
2597.236, 72.067, -169.379
2635.014, 72.149, -170.282
2673.341, 72.222, -171.260
2712.226, 72.285, -172.303
2751.676, 72.336, -173.400
2791.700, 72.374, -174.534
2832.306, 72.397, -175.690
2873.503, 72.407, -176.846
2915.299, 72.401, -177.992
2957.703, 72.384, -179.112
3000.724, 72.356, 179.808
3044.370, 72.316, 178.779
3088.652, 72.269, 177.801
3133.577, 72.216, 176.888
3179.156, 72.161, 176.040
3225.398, 72.104, 175.255
3272.312, 72.047, 174.532
3319.909, 71.994, 173.863
3368.198, 71.947, 173.230
3417.190, 71.905, 172.619
3466.894, 71.872, 172.009
3517.321, 71.846, 171.383
3568.482, 71.825, 170.727
3620.387, 71.807, 170.040
3673.046, 71.790, 169.329
3726.472, 71.778, 168.597
3780.675, 71.771, 167.850
3835.666, 71.776, 167.070
3891.457, 71.799, 166.211
3948.060, 71.843, 165.192
4005.486, 71.900, 163.905
4063.747, 71.961, 162.247
4122.855, 72.004, 160.151
4182.824, 72.001, 157.602
4243.664, 71.924, 154.653
4305.390, 71.749, 151.454
4368.013, 71.459, 148.207
4431.547, 71.052, 145.153
4496.005, 70.541, 142.505
4561.401, 69.946, 140.435
4627.749, 69.293, 139.032
4695.061, 68.605, 138.333
4763.352, 67.902, 138.346
4832.637, 67.201, 139.060
4902.929, 66.517, 140.470
4974.244, 65.864, 142.564
5046.596, 65.260, 145.326
5120.000, 64.720, 148.737
5194.472, 64.263, 152.761
5270.027, 63.914, 157.349
5346.682, 63.700, 162.409
5424.451, 63.653, 167.761
5503.352, 63.800, 173.127
5583.399, 64.161, 178.096
5664.612, 64.723, -177.867
5747.006, 65.433, -175.356
5830.598, 66.182, -174.798
5915.406, 66.826, -176.225
6001.447, 67.233, -179.085
6088.740, 67.349, 177.603
6177.303, 67.214, 174.816
6267.154, 66.922, 173.097
6358.312, 66.573, 172.556
6450.796, 66.236, 173.047
6544.625, 65.956, 174.380
6639.818, 65.777, 176.346
6736.397, 65.735, 178.475
6834.380, 65.775, -179.714
6933.789, 65.850, -178.021
7034.643, 65.987, -176.382
7136.964, 66.194, -174.989
7240.773, 66.459, -173.998
7346.093, 66.768, -173.531
7452.944, 67.098, -173.694
7561.350, 67.420, -174.560
7671.332, 67.698, -176.124
7782.915, 67.895, -178.286
7896.120, 67.986, 179.164
8010.971, 67.961, 176.492
8127.493, 67.822, 173.977
8245.711, 67.590, 171.817
8365.647, 67.296, 170.176
8487.328, 66.989, 169.093
8610.779, 66.717, 168.272
8736.026, 66.459, 167.246
8863.095, 66.150, 165.993
8992.011, 65.762, 164.689
9122.803, 65.265, 163.513
9255.497, 64.629, 162.901
9390.121, 63.895, 163.582
9526.704, 63.209, 165.768
9665.273, 62.681, 168.680
9805.857, 62.266, 171.520
9948.487, 61.857, 174.342
10093.191, 61.431, 177.734
10240.000, 61.064, -177.877
10388.944, 60.864, -172.559
10540.055, 60.915, -166.805
10693.363, 61.265, -161.382
10848.902, 61.859, -157.298
11006.703, 62.580, -154.946
11166.799, 63.313, -154.387
11329.224, 63.993, -155.431
11494.012, 64.534, -158.010
11661.195, 64.860, -161.486
11830.812, 64.985, -165.102
12002.895, 64.974, -168.463
12177.480, 64.900, -171.652
12354.606, 64.781, -175.022
12534.309, 64.586, -178.837
12716.624, 64.253, 176.845
12901.592, 63.707, 172.351
13089.250, 62.916, 168.413
13279.637, 61.929, 165.817
13472.794, 60.854, 165.024
13668.760, 59.810, 165.954
13867.577, 58.887, 168.276
14069.285, 58.136, 171.588
14273.928, 57.591, 175.451
14481.547, 57.267, 179.430
14692.186, 57.175, -176.913
14905.889, 57.317, -174.018
15122.700, 57.704, -172.517
15342.664, 58.321, -173.465
15565.829, 59.028, -178.384
15792.239, 59.466, 171.526
16021.942, 59.132, 156.925
16254.986, 57.587, 141.918
16491.422, 54.976, 132.861
16731.295, 52.067, 131.307
16974.656, 49.428, 135.308
17221.559, 47.316, 142.405
17472.053, 45.729, 150.828
17726.189, 44.631, 159.397
17984.021, 43.969, 167.169
18245.605, 43.637, 173.055
18510.994, 43.495, 176.450
18780.242, 43.385, 176.837
19053.408, 43.068, 173.817
19330.547, 42.188, 168.328
19611.715, 40.497, 163.395
19896.975, 38.270, 162.196
