* Measurement data measured by REW V5.19
* Source: ASIO MOTU M Series, In 1
* Format: 1M Log Swept Sine, 1 sweep at -3.0 dBFS  With no timing reference
* Dated: 14 Mar, 2023 4:21:43 PM
* REW Settings:
*  C-weighting compensation: Off
*  Target level: 75.0 dB
* Note: ; 
* Measurement: Mar 14 16:21:43
* Smoothing: 1/48 octave
* Frequency Step: 1/48 octave
* Start Frequency: 10.1 Hz
*
* Freq(Hz), SPL(dB), Phase(degrees)
10.145, 68.523, -100.745
10.293, 68.580, -101.487
10.443, 68.639, -102.490
10.595, 68.732, -103.807
10.749, 68.830, -105.193
10.905, 68.908, -106.274
11.064, 68.977, -107.259
11.225, 69.053, -108.396
11.388, 69.131, -109.607
11.554, 69.202, -110.791
11.722, 69.268, -111.963
11.892, 69.329, -113.123
12.065, 69.386, -114.272
12.241, 69.440, -115.424
12.419, 69.491, -116.568
12.599, 69.539, -117.666
12.782, 69.586, -118.738
12.968, 69.633, -119.810
13.157, 69.681, -120.872
13.348, 69.729, -121.917
13.543, 69.777, -122.967
13.740, 69.824, -124.023
13.939, 69.869, -125.086
14.142, 69.912, -126.149
14.348, 69.951, -127.209
14.557, 69.987, -128.259
14.768, 70.020, -129.294
14.983, 70.051, -130.304
15.201, 70.082, -131.294
15.422, 70.113, -132.265
15.646, 70.146, -133.227
15.874, 70.179, -134.185
16.105, 70.214, -135.149
16.339, 70.247, -136.121
16.577, 70.279, -137.099
16.818, 70.308, -138.078
17.063, 70.333, -139.050
17.311, 70.357, -140.008
17.563, 70.380, -140.950
17.818, 70.402, -141.881
18.077, 70.425, -142.807
18.340, 70.448, -143.737
18.607, 70.468, -144.673
18.877, 70.486, -145.611
19.152, 70.499, -146.543
19.431, 70.509, -147.454
19.713, 70.517, -148.338
20.000, 70.526, -149.201
20.291, 70.536, -150.054
20.586, 70.547, -150.914
20.885, 70.557, -151.791
21.189, 70.562, -152.680
21.497, 70.561, -153.558
21.810, 70.554, -154.395
22.127, 70.547, -155.175
22.449, 70.546, -155.910
22.776, 70.555, -156.637
23.107, 70.572, -157.409
23.443, 70.591, -158.260
23.784, 70.603, -159.188
24.130, 70.602, -160.153
24.481, 70.588, -161.095
24.837, 70.567, -161.971
25.198, 70.546, -162.780
25.565, 70.531, -163.553
25.937, 70.522, -164.334
26.314, 70.513, -165.143
26.697, 70.501, -165.967
27.085, 70.485, -166.777
27.479, 70.467, -167.559
27.879, 70.451, -168.323
28.284, 70.437, -169.090
28.696, 70.422, -169.868
29.113, 70.403, -170.640
29.537, 70.381, -171.386
29.966, 70.359, -172.101
30.402, 70.341, -172.808
30.844, 70.324, -173.527
31.293, 70.304, -174.260
31.748, 70.280, -174.987
32.210, 70.255, -175.695
32.678, 70.229, -176.397
33.154, 70.203, -177.111
33.636, 70.173, -177.836
34.125, 70.136, -178.543
34.621, 70.097, -179.210
35.125, 70.062, -179.848
35.636, 70.030, 179.505
36.154, 69.998, 178.825
36.680, 69.960, 178.137
37.214, 69.917, 177.479
37.755, 69.874, 176.858
38.304, 69.835, 176.248
38.861, 69.797, 175.628
39.427, 69.756, 175.003
40.000, 69.715, 174.387
40.582, 69.673, 173.777
41.172, 69.630, 173.169
41.771, 69.586, 172.562
42.379, 69.540, 171.960
42.995, 69.492, 171.377
43.620, 69.447, 170.817
44.255, 69.406, 170.244
44.898, 69.365, 169.619
45.552, 69.313, 168.983
46.214, 69.255, 168.413
46.886, 69.204, 167.897
47.568, 69.161, 167.358
48.260, 69.116, 166.767
48.962, 69.062, 166.164
49.674, 69.002, 165.600
50.397, 68.944, 165.089
51.130, 68.891, 164.563
51.874, 68.832, 163.976
52.628, 68.760, 163.437
53.394, 68.691, 162.984
54.170, 68.630, 162.486
54.958, 68.557, 161.964
55.758, 68.481, 161.530
56.569, 68.416, 161.104
57.391, 68.349, 160.635
58.226, 68.281, 160.183
59.073, 68.217, 159.713
59.932, 68.147, 159.216
60.804, 68.074, 158.747
61.688, 68.003, 158.296
62.586, 67.933, 157.832
63.496, 67.858, 157.361
64.420, 67.780, 156.924
65.357, 67.703, 156.515
66.307, 67.624, 156.135
67.272, 67.548, 155.773
68.250, 67.467, 155.414
69.243, 67.390, 155.098
70.250, 67.311, 154.741
71.272, 67.229, 154.480
72.309, 67.177, 154.177
73.360, 67.117, 153.625
74.427, 67.026, 153.085
75.510, 66.926, 152.685
76.608, 66.843, 152.376
77.723, 66.764, 151.952
78.853, 66.666, 151.555
80.000, 66.570, 151.217
81.164, 66.468, 150.852
82.344, 66.365, 150.539
83.542, 66.269, 150.197
84.757, 66.170, 149.829
85.990, 66.068, 149.451
87.241, 65.957, 149.131
88.510, 65.847, 148.885
89.797, 65.736, 148.677
91.103, 65.624, 148.492
92.428, 65.509, 148.296
93.773, 65.390, 148.100
95.137, 65.265, 147.939
96.520, 65.145, 147.819
97.924, 65.022, 147.717
99.349, 64.899, 147.661
100.794, 64.776, 147.664
102.260, 64.659, 147.634
103.747, 64.535, 147.679
105.256, 64.424, 147.710
106.787, 64.315, 147.820
108.340, 64.212, 147.885
109.916, 64.110, 148.027
111.515, 64.015, 148.072
113.137, 63.907, 148.067
114.783, 63.804, 148.068
116.452, 63.705, 148.040
118.146, 63.602, 148.006
119.865, 63.491, 148.018
121.608, 63.365, 148.087
123.377, 63.241, 148.208
125.171, 63.117, 148.307
126.992, 62.999, 148.441
128.839, 62.883, 148.586
130.713, 62.758, 148.789
132.615, 62.633, 149.040
134.543, 62.508, 149.245
136.500, 62.378, 149.447
138.486, 62.243, 149.708
140.500, 62.112, 150.044
142.544, 61.976, 150.390
144.617, 61.841, 150.795
146.721, 61.705, 151.282
148.855, 61.571, 151.747
151.020, 61.429, 152.305
153.217, 61.291, 152.997
155.445, 61.176, 153.673
157.706, 61.033, 154.386
160.000, 60.904, 155.310
162.327, 60.794, 156.372
164.688, 60.707, 157.542
167.084, 60.632, 158.752
169.514, 60.582, 160.014
171.980, 60.569, 161.120
174.481, 60.591, 162.203
177.019, 60.643, 163.187
179.594, 60.700, 163.962
182.206, 60.759, 164.484
184.856, 60.817, 164.800
187.545, 60.857, 164.986
190.273, 60.874, 165.062
193.041, 60.870, 165.107
195.849, 60.855, 165.149
198.697, 60.821, 165.236
201.587, 60.780, 165.343
204.520, 60.727, 165.502
207.494, 60.672, 165.733
210.512, 60.614, 165.980
213.574, 60.553, 166.237
216.681, 60.490, 166.548
219.833, 60.427, 166.881
223.030, 60.357, 167.246
226.274, 60.287, 167.670
229.565, 60.219, 168.127
232.905, 60.150, 168.620
236.292, 60.085, 169.133
239.729, 60.020, 169.700
243.216, 59.959, 170.319
246.754, 59.900, 170.955
250.343, 59.850, 171.619
253.984, 59.802, 172.313
257.678, 59.760, 173.031
261.426, 59.726, 173.745
265.229, 59.697, 174.478
269.087, 59.673, 175.195
273.001, 59.658, 175.895
276.972, 59.646, 176.579
281.000, 59.634, 177.217
285.088, 59.628, 177.842
289.234, 59.620, 178.455
293.441, 59.612, 179.036
297.710, 59.600, 179.606
302.040, 59.589, -179.812
306.433, 59.580, -179.241
310.890, 59.567, -178.674
315.412, 59.556, -178.084
320.000, 59.540, -177.492
324.655, 59.528, -176.898
329.377, 59.514, -176.281
334.168, 59.501, -175.667
339.028, 59.489, -175.044
343.959, 59.478, -174.395
348.962, 59.466, -173.770
354.038, 59.454, -173.127
359.188, 59.443, -172.468
364.412, 59.432, -171.817
369.713, 59.419, -171.140
375.090, 59.408, -170.432
380.546, 59.394, -169.718
386.081, 59.381, -168.986
391.697, 59.365, -168.199
397.395, 59.353, -167.392
403.175, 59.338, -166.529
409.039, 59.327, -165.609
414.989, 59.321, -164.617
421.025, 59.324, -163.572
427.149, 59.334, -162.487
433.362, 59.362, -161.352
439.665, 59.407, -160.178
446.060, 59.464, -159.060
452.548, 59.534, -157.973
459.131, 59.614, -156.922
465.809, 59.706, -155.928
472.584, 59.804, -154.984
479.458, 59.907, -154.109
486.432, 60.014, -153.306
493.507, 60.120, -152.578
500.686, 60.222, -151.880
507.968, 60.317, -151.205
515.357, 60.408, -150.508
522.853, 60.505, -149.761
530.458, 60.608, -148.970
538.174, 60.728, -148.202
546.002, 60.859, -147.478
553.943, 61.000, -146.846
562.001, 61.147, -146.322
570.175, 61.290, -145.897
578.469, 61.424, -145.539
586.883, 61.550, -145.208
595.419, 61.675, -144.883
604.080, 61.800, -144.566
612.866, 61.926, -144.279
621.780, 62.053, -144.046
630.824, 62.180, -143.857
640.000, 62.302, -143.738
649.309, 62.418, -143.669
658.753, 62.525, -143.637
668.335, 62.622, -143.626
678.056, 62.710, -143.630
687.919, 62.788, -143.624
697.925, 62.858, -143.585
708.076, 62.921, -143.504
718.376, 62.982, -143.382
728.825, 63.040, -143.219
739.426, 63.097, -143.018
750.181, 63.155, -142.786
761.093, 63.214, -142.521
772.163, 63.275, -142.225
783.394, 63.339, -141.906
794.789, 63.406, -141.563
806.349, 63.477, -141.204
818.078, 63.553, -140.841
829.977, 63.631, -140.477
842.050, 63.714, -140.108
854.297, 63.801, -139.737
866.724, 63.890, -139.367
879.330, 63.984, -139.004
892.120, 64.081, -138.646
905.097, 64.183, -138.312
918.262, 64.288, -137.998
931.618, 64.394, -137.700
945.169, 64.501, -137.421
958.917, 64.609, -137.157
972.864, 64.718, -136.905
987.015, 64.827, -136.669
1001.371, 64.938, -136.439
1015.937, 65.051, -136.219
1030.714, 65.165, -136.015
1045.706, 65.281, -135.825
1060.916, 65.397, -135.652
1076.347, 65.515, -135.494
1092.003, 65.634, -135.353
1107.887, 65.752, -135.230
1124.001, 65.872, -135.122
1140.350, 65.992, -135.030
1156.937, 66.111, -134.957
1173.765, 66.231, -134.900
1190.838, 66.350, -134.857
1208.159, 66.468, -134.824
1225.732, 66.586, -134.799
1243.561, 66.703, -134.781
1261.649, 66.819, -134.766
1280.000, 66.936, -134.753
1298.618, 67.054, -134.748
1317.507, 67.174, -134.749
1336.670, 67.294, -134.758
1356.113, 67.415, -134.781
1375.838, 67.537, -134.822
1395.850, 67.659, -134.881
1416.153, 67.782, -134.954
1436.751, 67.903, -135.045
1457.649, 68.023, -135.149
1478.851, 68.142, -135.261
1500.362, 68.259, -135.379
1522.185, 68.376, -135.498
1544.326, 68.492, -135.614
1566.789, 68.609, -135.728
1589.578, 68.726, -135.842
1612.699, 68.844, -135.955
1636.156, 68.963, -136.067
1659.955, 69.085, -136.185
1684.099, 69.207, -136.307
1708.595, 69.332, -136.433
1733.447, 69.458, -136.565
1758.661, 69.587, -136.704
1784.241, 69.717, -136.850
1810.193, 69.850, -137.005
1836.523, 69.985, -137.171
1863.236, 70.123, -137.349
1890.338, 70.264, -137.539
1917.833, 70.407, -137.744
1945.729, 70.553, -137.965
1974.030, 70.703, -138.203
2002.743, 70.856, -138.460
2031.873, 71.013, -138.740
2061.428, 71.173, -139.044
2091.412, 71.337, -139.376
2121.832, 71.505, -139.740
2152.695, 71.677, -140.137
2184.007, 71.853, -140.576
2215.774, 72.033, -141.060
2248.003, 72.217, -141.596
2280.701, 72.405, -142.190
2313.874, 72.596, -142.849
2347.530, 72.789, -143.580
2381.676, 72.983, -144.388
2416.318, 73.179, -145.281
2451.464, 73.373, -146.262
2487.122, 73.565, -147.340
2523.298, 73.753, -148.515
2560.000, 73.936, -149.789
2597.236, 74.111, -151.160
2635.014, 74.275, -152.627
2673.341, 74.428, -154.186
2712.226, 74.568, -155.830
2751.676, 74.692, -157.550
2791.700, 74.801, -159.338
2832.306, 74.891, -161.184
2873.503, 74.963, -163.074
2915.299, 75.015, -164.999
2957.703, 75.049, -166.946
3000.724, 75.061, -168.905
3044.370, 75.054, -170.866
3088.652, 75.028, -172.818
3133.577, 74.982, -174.755
3179.156, 74.916, -176.672
3225.398, 74.830, -178.563
3272.312, 74.722, 179.583
3319.909, 74.590, 177.789
3368.198, 74.434, 176.089
3417.190, 74.255, 174.528
3466.894, 74.059, 173.142
3517.321, 73.854, 171.944
3568.482, 73.645, 170.934
3620.387, 73.439, 170.096
3673.046, 73.239, 169.414
3726.472, 73.049, 168.858
3780.675, 72.870, 168.402
3835.666, 72.703, 168.027
3891.457, 72.547, 167.715
3948.060, 72.403, 167.440
4005.486, 72.270, 167.187
4063.747, 72.146, 166.936
4122.855, 72.029, 166.672
4182.824, 71.915, 166.383
4243.664, 71.799, 166.076
4305.390, 71.677, 165.774
4368.013, 71.549, 165.520
4431.547, 71.418, 165.349
4496.005, 71.292, 165.275
4561.401, 71.178, 165.276
4627.749, 71.078, 165.310
4695.061, 70.992, 165.335
4763.352, 70.917, 165.324
4832.637, 70.848, 165.258
4902.929, 70.782, 165.130
4974.244, 70.715, 164.942
5046.596, 70.643, 164.703
5120.000, 70.564, 164.425
5194.472, 70.474, 164.127
5270.027, 70.373, 163.826
5346.682, 70.259, 163.543
5424.451, 70.132, 163.299
5503.352, 69.993, 163.115
5583.399, 69.842, 163.012
5664.612, 69.682, 163.009
5747.006, 69.514, 163.120
5830.598, 69.342, 163.360
5915.406, 69.169, 163.737
6001.447, 68.998, 164.256
6088.740, 68.833, 164.918
6177.303, 68.680, 165.732
6267.154, 68.543, 166.677
6358.312, 68.427, 167.732
6450.796, 68.335, 168.878
6544.625, 68.270, 170.085
6639.818, 68.236, 171.320
6736.397, 68.234, 172.543
6834.380, 68.266, 173.714
6933.789, 68.330, 174.793
7034.643, 68.428, 175.738
7136.964, 68.560, 176.493
7240.773, 68.725, 176.971
7346.093, 68.911, 177.080
7452.944, 69.106, 176.778
7561.350, 69.293, 175.974
7671.332, 69.443, 174.737
7782.915, 69.552, 173.031
7896.120, 69.578, 170.893
8010.971, 69.497, 168.537
8127.493, 69.297, 166.208
8245.711, 68.978, 164.164
8365.647, 68.556, 162.660
8487.328, 68.057, 161.910
8610.779, 67.517, 162.098
8736.026, 67.000, 163.420
8863.095, 66.641, 165.634
8992.011, 66.472, 167.153
9122.803, 66.197, 167.749
9255.497, 65.795, 169.121
9390.121, 65.428, 171.457
9526.704, 65.155, 174.320
9665.273, 64.984, 177.413
9805.857, 64.914, -179.463
9948.487, 64.943, -176.471
10093.191, 65.069, -173.785
10240.000, 65.283, -171.603
10388.944, 65.563, -170.145
10540.055, 65.872, -169.612
10693.363, 66.158, -170.089
10848.902, 66.352, -171.707
11006.703, 66.344, -174.095
11166.799, 66.084, -176.416
11329.224, 65.606, -177.728
11494.012, 65.029, -177.423
11661.195, 64.504, -175.612
11830.812, 64.117, -172.956
12002.895, 63.861, -170.101
12177.480, 63.695, -167.306
12354.606, 63.591, -164.609
12534.309, 63.542, -162.032
12716.624, 63.542, -159.596
12901.592, 63.595, -157.318
13089.250, 63.714, -155.241
13279.637, 63.920, -153.599
13472.794, 64.184, -152.806
13668.760, 64.432, -153.020
13867.577, 64.599, -154.047
14069.285, 64.653, -155.588
14273.928, 64.579, -157.366
14481.547, 64.374, -159.100
14692.186, 64.044, -160.485
14905.889, 63.620, -161.215
15122.700, 63.159, -161.087
15342.664, 62.739, -160.122
15565.829, 62.440, -158.613
15792.239, 62.327, -157.157
16021.942, 62.420, -156.655
16254.986, 62.639, -158.149
16491.422, 62.859, -162.239
16731.295, 62.792, -170.489
16974.656, 61.863, 179.627
17221.559, 60.143, 172.583
17472.053, 58.058, 169.977
17726.189, 55.951, 170.798
17984.021, 53.911, 173.967
18245.605, 51.945, 178.876
18510.994, 50.009, -174.732
18780.242, 48.010, -166.009
19053.408, 46.113, -152.871
19330.547, 44.969, -136.356
19611.715, 44.693, -121.358
19896.975, 44.685, -110.425
