* Measurement data measured by REW V5.19
* Source: ASIO MOTU M Series, In 1
* Format: 1M Log Swept Sine, 1 sweep at -3.0 dBFS  With no timing reference
* Dated: 8 May, 2023 4:22:26 PM
* REW Settings:
*  C-weighting compensation: Off
*  Target level: 75.0 dB
* Note: ; 
* Measurement: May 8 16:22:26
* Smoothing: 1/48 octave
* Frequency Step: 1/48 octave
* Start Frequency: 10.1 Hz
*
* Freq(Hz), SPL(dB), Phase(degrees)
10.145, 67.592, -101.320
10.293, 67.641, -102.107
10.443, 67.691, -103.157
10.595, 67.768, -104.526
10.749, 67.846, -105.945
10.905, 67.903, -107.006
11.064, 67.953, -107.936
11.225, 68.011, -108.995
11.388, 68.072, -110.103
11.554, 68.132, -111.166
11.722, 68.191, -112.200
11.892, 68.250, -113.227
12.065, 68.309, -114.248
12.241, 68.369, -115.298
12.419, 68.428, -116.363
12.599, 68.485, -117.410
12.782, 68.539, -118.455
12.968, 68.591, -119.521
13.157, 68.641, -120.585
13.348, 68.687, -121.632
13.543, 68.731, -122.671
13.740, 68.773, -123.701
13.939, 68.814, -124.719
14.142, 68.853, -125.725
14.348, 68.891, -126.718
14.557, 68.929, -127.706
14.768, 68.966, -128.690
14.983, 69.002, -129.668
15.201, 69.036, -130.643
15.422, 69.069, -131.615
15.646, 69.100, -132.581
15.874, 69.130, -133.540
16.105, 69.158, -134.491
16.339, 69.184, -135.432
16.577, 69.209, -136.364
16.818, 69.232, -137.286
17.063, 69.255, -138.199
17.311, 69.276, -139.102
17.563, 69.297, -139.996
17.818, 69.317, -140.883
18.077, 69.337, -141.765
18.340, 69.355, -142.643
18.607, 69.373, -143.519
18.877, 69.389, -144.392
19.152, 69.403, -145.259
19.431, 69.416, -146.116
19.713, 69.427, -146.961
20.000, 69.439, -147.797
20.291, 69.450, -148.629
20.586, 69.462, -149.466
20.885, 69.473, -150.313
21.189, 69.480, -151.172
21.497, 69.483, -152.030
21.810, 69.482, -152.871
22.127, 69.477, -153.682
22.449, 69.473, -154.460
22.776, 69.471, -155.218
23.107, 69.472, -155.976
23.443, 69.474, -156.751
23.784, 69.473, -157.544
24.130, 69.468, -158.340
24.481, 69.458, -159.114
24.837, 69.447, -159.852
25.198, 69.438, -160.561
25.565, 69.432, -161.263
25.937, 69.429, -161.980
26.314, 69.424, -162.719
26.697, 69.416, -163.467
27.085, 69.404, -164.204
27.479, 69.390, -164.923
27.879, 69.377, -165.632
28.284, 69.362, -166.340
28.696, 69.345, -167.044
29.113, 69.326, -167.733
29.537, 69.306, -168.401
29.966, 69.289, -169.058
30.402, 69.272, -169.722
30.844, 69.255, -170.403
31.293, 69.234, -171.093
31.748, 69.209, -171.772
32.210, 69.182, -172.429
32.678, 69.154, -173.063
33.154, 69.127, -173.679
33.636, 69.101, -174.287
34.125, 69.077, -174.900
34.621, 69.053, -175.529
35.125, 69.024, -176.170
35.636, 68.990, -176.797
36.154, 68.954, -177.386
36.680, 68.921, -177.947
37.214, 68.891, -178.516
37.755, 68.860, -179.114
38.304, 68.824, -179.721
38.861, 68.783, 179.697
39.427, 68.743, 179.147
40.000, 68.706, 178.602
40.582, 68.667, 178.044
41.172, 68.626, 177.492
41.771, 68.584, 176.963
42.379, 68.543, 176.449
42.995, 68.505, 175.924
43.620, 68.464, 175.391
44.255, 68.421, 174.863
44.898, 68.376, 174.338
45.552, 68.330, 173.808
46.214, 68.280, 173.279
46.886, 68.226, 172.772
47.568, 68.171, 172.298
48.260, 68.119, 171.853
48.962, 68.073, 171.420
49.674, 68.034, 170.963
50.397, 67.996, 170.438
51.130, 67.945, 169.875
51.874, 67.882, 169.386
52.628, 67.822, 169.007
53.394, 67.774, 168.641
54.170, 67.729, 168.216
54.958, 67.674, 167.756
55.758, 67.609, 167.320
56.569, 67.539, 166.943
57.391, 67.473, 166.596
58.226, 67.411, 166.239
59.073, 67.352, 165.872
59.932, 67.294, 165.473
60.804, 67.232, 165.066
61.688, 67.171, 164.680
62.586, 67.109, 164.277
63.496, 67.039, 163.917
64.420, 66.977, 163.607
65.357, 66.916, 163.232
66.307, 66.845, 162.852
67.272, 66.775, 162.482
68.250, 66.697, 162.094
69.243, 66.617, 161.785
70.250, 66.546, 161.480
71.272, 66.472, 161.171
72.309, 66.398, 160.920
73.360, 66.326, 160.673
74.427, 66.253, 160.424
75.510, 66.176, 160.153
76.608, 66.089, 159.862
77.723, 65.997, 159.611
78.853, 65.908, 159.393
80.000, 65.828, 159.218
81.164, 65.758, 159.001
82.344, 65.682, 158.759
83.542, 65.603, 158.564
84.757, 65.524, 158.384
85.990, 65.441, 158.164
87.241, 65.347, 157.978
88.510, 65.257, 157.812
89.797, 65.164, 157.648
91.103, 65.071, 157.503
92.428, 64.980, 157.378
93.773, 64.883, 157.282
95.137, 64.791, 157.153
96.520, 64.686, 157.117
97.924, 64.591, 156.954
99.349, 64.476, 157.006
100.794, 64.392, 156.986
102.260, 64.294, 156.970
103.747, 64.197, 157.002
105.256, 64.096, 157.014
106.787, 63.995, 157.118
108.340, 63.902, 157.135
109.916, 63.791, 157.197
111.515, 63.702, 157.402
113.137, 63.617, 157.440
114.783, 63.511, 157.557
116.452, 63.408, 157.689
118.146, 63.297, 157.777
119.865, 63.187, 157.953
121.608, 63.100, 158.130
123.377, 63.002, 158.322
125.171, 62.924, 158.658
126.992, 62.836, 158.831
128.839, 62.723, 159.074
130.713, 62.608, 159.367
132.615, 62.498, 159.666
134.543, 62.391, 159.931
136.500, 62.282, 160.238
138.486, 62.169, 160.564
140.500, 62.050, 160.972
142.544, 61.931, 161.458
144.617, 61.813, 162.029
146.721, 61.702, 162.746
148.855, 61.585, 163.608
151.020, 61.485, 164.683
153.217, 61.410, 165.672
155.445, 61.384, 166.496
157.706, 61.357, 167.492
160.000, 61.406, 168.573
162.327, 61.423, 169.139
164.688, 61.438, 169.288
167.084, 61.441, 169.314
169.514, 61.436, 169.412
171.980, 61.381, 169.637
174.481, 61.291, 169.882
177.019, 61.186, 170.135
179.594, 61.083, 170.598
182.206, 60.978, 171.216
184.856, 60.871, 171.893
187.545, 60.743, 172.802
190.273, 60.664, 173.931
193.041, 60.575, 175.025
195.849, 60.497, 176.403
198.697, 60.449, 178.007
201.587, 60.445, 179.703
204.520, 60.498, -178.565
207.494, 60.644, -176.799
210.512, 60.796, -175.451
213.574, 61.005, -174.268
216.681, 61.240, -173.573
219.833, 61.473, -173.445
223.030, 61.647, -173.616
226.274, 61.797, -173.917
229.565, 61.897, -174.324
232.905, 61.958, -174.717
236.292, 62.007, -175.094
239.729, 62.041, -175.401
243.216, 62.051, -175.696
246.754, 62.050, -175.900
250.343, 62.048, -175.986
253.984, 62.031, -176.150
257.678, 62.017, -176.205
261.426, 62.001, -176.215
265.229, 61.980, -176.188
269.087, 61.959, -176.120
273.001, 61.935, -176.052
276.972, 61.906, -175.909
281.000, 61.885, -175.737
285.088, 61.857, -175.646
289.234, 61.820, -175.542
293.441, 61.802, -175.420
297.710, 61.763, -175.180
302.040, 61.736, -174.876
306.433, 61.710, -174.713
310.890, 61.675, -174.498
315.412, 61.631, -174.252
320.000, 61.597, -173.984
324.655, 61.559, -173.625
329.377, 61.523, -173.289
334.168, 61.486, -172.985
339.028, 61.444, -172.573
343.959, 61.409, -172.191
348.962, 61.348, -171.744
354.038, 61.297, -171.222
359.188, 61.272, -170.712
364.412, 61.237, -170.199
369.713, 61.176, -169.657
375.090, 61.138, -168.911
380.546, 61.106, -168.232
386.081, 61.068, -167.419
391.697, 61.054, -166.590
397.395, 61.058, -166.037
403.175, 61.016, -165.001
409.039, 61.073, -163.857
414.989, 61.019, -163.091
421.025, 61.010, -162.003
427.149, 61.028, -161.057
433.362, 61.063, -160.094
439.665, 61.111, -159.096
446.060, 61.173, -158.056
452.548, 61.250, -157.071
459.131, 61.338, -156.114
465.809, 61.433, -155.244
472.584, 61.537, -154.422
479.458, 61.655, -153.642
486.432, 61.785, -152.959
493.507, 61.914, -152.401
500.686, 62.045, -151.937
507.968, 62.171, -151.561
515.357, 62.293, -151.284
522.853, 62.408, -151.062
530.458, 62.522, -150.899
538.174, 62.625, -150.794
546.002, 62.717, -150.721
553.943, 62.803, -150.665
562.001, 62.876, -150.705
570.175, 62.933, -150.730
578.469, 62.972, -150.714
586.883, 63.003, -150.626
595.419, 63.022, -150.462
604.080, 63.043, -150.173
612.866, 63.068, -149.764
621.780, 63.104, -149.315
630.824, 63.151, -148.883
640.000, 63.206, -148.411
649.309, 63.272, -147.951
658.753, 63.345, -147.537
668.335, 63.422, -147.208
678.056, 63.504, -146.849
687.919, 63.572, -146.533
697.925, 63.638, -146.263
708.076, 63.706, -145.992
718.376, 63.773, -145.671
728.825, 63.829, -145.369
739.426, 63.898, -145.029
750.181, 63.967, -144.697
761.093, 64.040, -144.386
772.163, 64.112, -144.071
783.394, 64.185, -143.754
794.789, 64.258, -143.439
806.349, 64.334, -143.112
818.078, 64.411, -142.795
829.977, 64.492, -142.507
842.050, 64.573, -142.217
854.297, 64.655, -141.933
866.724, 64.738, -141.668
879.330, 64.822, -141.408
892.120, 64.906, -141.175
905.097, 64.990, -140.924
918.262, 65.078, -140.661
931.618, 65.164, -140.435
945.169, 65.251, -140.218
958.917, 65.337, -140.011
972.864, 65.424, -139.818
987.015, 65.511, -139.630
1001.371, 65.596, -139.449
1015.937, 65.680, -139.278
1030.714, 65.764, -139.109
1045.706, 65.846, -138.943
1060.916, 65.929, -138.770
1076.347, 66.010, -138.600
1092.003, 66.091, -138.424
1107.887, 66.173, -138.242
1124.001, 66.253, -138.054
1140.350, 66.334, -137.858
1156.937, 66.415, -137.647
1173.765, 66.496, -137.426
1190.838, 66.580, -137.191
1208.159, 66.664, -136.947
1225.732, 66.751, -136.679
1243.561, 66.841, -136.394
1261.649, 66.935, -136.091
1280.000, 67.035, -135.773
1298.618, 67.140, -135.449
1317.507, 67.253, -135.114
1336.670, 67.374, -134.786
1356.113, 67.504, -134.473
1375.838, 67.645, -134.184
1395.850, 67.797, -133.942
1416.153, 67.955, -133.765
1436.751, 68.121, -133.685
1457.649, 68.288, -133.698
1478.851, 68.455, -133.812
1500.362, 68.616, -134.018
1522.185, 68.768, -134.299
1544.326, 68.908, -134.630
1566.789, 69.038, -134.987
1589.578, 69.158, -135.349
1612.699, 69.269, -135.702
1636.156, 69.372, -136.035
1659.955, 69.471, -136.342
1684.099, 69.566, -136.620
1708.595, 69.660, -136.870
1733.447, 69.753, -137.093
1758.661, 69.847, -137.294
1784.241, 69.942, -137.478
1810.193, 70.040, -137.649
1836.523, 70.141, -137.813
1863.236, 70.244, -137.974
1890.338, 70.350, -138.136
1917.833, 70.458, -138.303
1945.729, 70.570, -138.475
1974.030, 70.685, -138.657
2002.743, 70.803, -138.851
2031.873, 70.924, -139.059
2061.428, 71.048, -139.284
2091.412, 71.175, -139.530
2121.832, 71.305, -139.801
2152.695, 71.439, -140.099
2184.007, 71.575, -140.430
2215.774, 71.715, -140.800
2248.003, 71.856, -141.211
2280.701, 71.999, -141.670
2313.874, 72.143, -142.180
2347.530, 72.287, -142.741
2381.676, 72.429, -143.358
2416.318, 72.569, -144.028
2451.464, 72.707, -144.750
2487.122, 72.840, -145.520
2523.298, 72.969, -146.338
2560.000, 73.093, -147.197
2597.236, 73.213, -148.096
2635.014, 73.328, -149.033
2673.341, 73.437, -150.011
2712.226, 73.542, -151.030
2751.676, 73.641, -152.092
2791.700, 73.733, -153.200
2832.306, 73.817, -154.353
2873.503, 73.892, -155.546
2915.299, 73.957, -156.774
2957.703, 74.012, -158.028
3000.724, 74.055, -159.303
3044.370, 74.087, -160.594
3088.652, 74.108, -161.893
3133.577, 74.118, -163.194
3179.156, 74.116, -164.492
3225.398, 74.104, -165.781
3272.312, 74.080, -167.057
3319.909, 74.047, -168.313
3368.198, 74.002, -169.547
3417.190, 73.949, -170.752
3466.894, 73.886, -171.925
3517.321, 73.815, -173.063
3568.482, 73.736, -174.166
3620.387, 73.649, -175.231
3673.046, 73.555, -176.256
3726.472, 73.455, -177.237
3780.675, 73.348, -178.168
3835.666, 73.237, -179.049
3891.457, 73.122, -179.878
3948.060, 73.005, 179.337
4005.486, 72.886, 178.588
4063.747, 72.765, 177.869
4122.855, 72.641, 177.183
4182.824, 72.514, 176.530
4243.664, 72.386, 175.899
4305.390, 72.254, 175.297
4368.013, 72.119, 174.723
4431.547, 71.980, 174.178
4496.005, 71.838, 173.664
4561.401, 71.692, 173.183
4627.749, 71.542, 172.738
4695.061, 71.388, 172.334
4763.352, 71.229, 171.974
4832.637, 71.066, 171.665
4902.929, 70.900, 171.413
4974.244, 70.730, 171.225
5046.596, 70.557, 171.103
5120.000, 70.383, 171.054
5194.472, 70.208, 171.080
5270.027, 70.033, 171.181
5346.682, 69.859, 171.361
5424.451, 69.687, 171.620
5503.352, 69.518, 171.960
5583.399, 69.353, 172.381
5664.612, 69.193, 172.883
5747.006, 69.040, 173.464
5830.598, 68.896, 174.121
5915.406, 68.761, 174.846
6001.447, 68.638, 175.635
6088.740, 68.528, 176.483
6177.303, 68.434, 177.388
6267.154, 68.358, 178.321
6358.312, 68.300, 179.270
6450.796, 68.263, -179.780
6544.625, 68.247, -178.848
6639.818, 68.254, -177.961
6736.397, 68.283, -177.140
6834.380, 68.335, -176.408
6933.789, 68.410, -175.783
7034.643, 68.509, -175.301
7136.964, 68.631, -174.990
7240.773, 68.780, -174.880
7346.093, 68.957, -175.077
7452.944, 69.151, -175.654
7561.350, 69.360, -176.660
7671.332, 69.577, -178.286
7782.915, 69.757, 179.327
7896.120, 69.855, 176.217
8010.971, 69.826, 172.529
8127.493, 69.632, 168.552
8245.711, 69.256, 164.729
8365.647, 68.718, 161.492
8487.328, 68.063, 159.123
8610.779, 67.340, 157.728
8736.026, 66.594, 157.274
8863.095, 65.858, 157.670
8992.011, 65.152, 158.804
9122.803, 64.495, 160.562
9255.497, 63.894, 162.835
9390.121, 63.358, 165.517
9526.704, 62.891, 168.521
9665.273, 62.495, 171.765
9805.857, 62.170, 175.183
9948.487, 61.921, 178.722
10093.191, 61.751, -177.683
10240.000, 61.666, -174.114
10388.944, 61.669, -170.668
10540.055, 61.762, -167.437
10693.363, 61.959, -164.635
10848.902, 62.224, -162.625
11006.703, 62.506, -161.506
11166.799, 62.738, -161.364
11329.224, 62.826, -161.918
11494.012, 62.712, -162.312
11661.195, 62.455, -161.410
11830.812, 62.262, -158.576
12002.895, 62.399, -154.454
12177.480, 63.008, -150.901
12354.606, 63.997, -150.202
12534.309, 65.012, -154.172
12716.624, 65.531, -162.655
12901.592, 65.211, -172.332
13089.250, 64.204, -179.231
13279.637, 62.937, 177.871
13472.794, 61.720, 178.228
13668.760, 60.696, -179.144
13867.577, 59.929, -175.057
14069.285, 59.438, -170.150
14273.928, 59.235, -164.906
14481.547, 59.343, -159.834
14692.186, 59.763, -155.670
14905.889, 60.444, -153.099
15122.700, 61.356, -152.511
15342.664, 62.539, -155.028
15565.829, 63.796, -163.322
15792.239, 64.392, -179.355
16021.942, 63.457, 161.596
16254.986, 61.077, 149.548
16491.422, 58.587, 146.229
16731.295, 56.387, 145.615
16974.656, 54.329, 148.249
17221.559, 52.582, 152.867
17472.053, 51.125, 158.505
17726.189, 49.915, 164.632
17984.021, 48.918, 170.889
18245.605, 48.112, 176.996
18510.994, 47.495, -177.421
18780.242, 47.053, -172.955
19053.408, 46.717, -170.644
19330.547, 46.169, -172.403
19611.715, 44.346, -176.199
19896.975, 40.764, -164.631
