* Measurement data measured by REW V5.19
* Source: ASIO MOTU M Series, In 1
* Format: 1M Log Swept Sine, 1 sweep at -3.0 dBFS  With no timing reference
* Dated: 10 May, 2023 1:24:11 PM
* REW Settings:
*  C-weighting compensation: Off
*  Target level: 75.0 dB
* Note: ; 
* Measurement: May 10 13:24:11
* Smoothing: 1/48 octave
* Frequency Step: 1/48 octave
* Start Frequency: 10.1 Hz
*
* Freq(Hz), SPL(dB), Phase(degrees)
10.145, 70.680, -103.448
10.293, 70.730, -104.216
10.443, 70.781, -105.248
10.595, 70.859, -106.596
10.749, 70.941, -108.001
10.905, 71.003, -109.071
11.064, 71.057, -110.025
11.225, 71.118, -111.116
11.388, 71.180, -112.267
11.554, 71.240, -113.380
11.722, 71.296, -114.470
11.892, 71.350, -115.548
12.065, 71.402, -116.615
12.241, 71.453, -117.696
12.419, 71.502, -118.778
12.599, 71.549, -119.824
12.782, 71.594, -120.854
12.968, 71.638, -121.892
13.157, 71.682, -122.920
13.348, 71.725, -123.930
13.543, 71.768, -124.937
13.740, 71.810, -125.943
13.939, 71.851, -126.949
14.142, 71.891, -127.954
14.348, 71.930, -128.956
14.557, 71.966, -129.958
14.768, 72.001, -130.957
14.983, 72.033, -131.946
15.201, 72.064, -132.926
15.422, 72.093, -133.896
15.646, 72.121, -134.855
15.874, 72.149, -135.806
16.105, 72.176, -136.750
16.339, 72.203, -137.692
16.577, 72.228, -138.633
16.818, 72.253, -139.574
17.063, 72.276, -140.514
17.311, 72.296, -141.448
17.563, 72.314, -142.374
17.818, 72.330, -143.287
18.077, 72.345, -144.185
18.340, 72.360, -145.070
18.607, 72.374, -145.944
18.877, 72.389, -146.812
19.152, 72.403, -147.679
19.431, 72.417, -148.548
19.713, 72.429, -149.419
20.000, 72.439, -150.287
20.291, 72.447, -151.149
20.586, 72.452, -152.000
20.885, 72.456, -152.838
21.189, 72.459, -153.666
21.497, 72.462, -154.488
21.810, 72.463, -155.307
22.127, 72.463, -156.122
22.449, 72.459, -156.925
22.776, 72.454, -157.709
23.107, 72.449, -158.470
23.443, 72.446, -159.213
23.784, 72.445, -159.951
24.130, 72.447, -160.704
24.481, 72.450, -161.484
24.837, 72.449, -162.289
25.198, 72.443, -163.103
25.565, 72.432, -163.907
25.937, 72.417, -164.688
26.314, 72.402, -165.443
26.697, 72.387, -166.183
27.085, 72.373, -166.919
27.479, 72.359, -167.654
27.879, 72.343, -168.386
28.284, 72.326, -169.110
28.696, 72.307, -169.822
29.113, 72.288, -170.520
29.537, 72.269, -171.206
29.966, 72.251, -171.885
30.402, 72.233, -172.568
30.844, 72.215, -173.259
31.293, 72.193, -173.953
31.748, 72.169, -174.637
32.210, 72.143, -175.303
32.678, 72.118, -175.960
33.154, 72.092, -176.617
33.636, 72.064, -177.273
34.125, 72.035, -177.915
34.621, 72.008, -178.543
35.125, 71.983, -179.180
35.636, 71.956, -179.843
36.154, 71.925, 179.485
36.680, 71.889, 178.835
37.214, 71.853, 178.215
37.755, 71.820, 177.605
38.304, 71.786, 176.987
38.861, 71.750, 176.371
39.427, 71.713, 175.766
40.000, 71.676, 175.167
40.582, 71.638, 174.567
41.172, 71.597, 173.977
41.771, 71.556, 173.406
42.379, 71.517, 172.838
42.995, 71.478, 172.254
43.620, 71.436, 171.664
44.255, 71.392, 171.083
44.898, 71.347, 170.508
45.552, 71.300, 169.934
46.214, 71.251, 169.380
46.886, 71.203, 168.849
47.568, 71.158, 168.311
48.260, 71.110, 167.760
48.962, 71.059, 167.211
49.674, 71.005, 166.654
50.397, 70.941, 166.129
51.130, 70.879, 165.706
51.874, 70.837, 165.286
52.628, 70.799, 164.719
53.394, 70.740, 164.100
54.170, 70.671, 163.582
54.958, 70.611, 163.107
55.758, 70.553, 162.616
56.569, 70.495, 162.138
57.391, 70.440, 161.642
58.226, 70.379, 161.130
59.073, 70.316, 160.659
59.932, 70.255, 160.189
60.804, 70.190, 159.698
61.688, 70.120, 159.251
62.586, 70.055, 158.823
63.496, 69.991, 158.356
64.420, 69.921, 157.883
65.357, 69.848, 157.429
66.307, 69.773, 156.991
67.272, 69.699, 156.566
68.250, 69.625, 156.136
69.243, 69.547, 155.710
70.250, 69.469, 155.309
71.272, 69.392, 154.893
72.309, 69.309, 154.482
73.360, 69.226, 154.113
74.427, 69.145, 153.736
75.510, 69.065, 153.348
76.608, 68.976, 152.926
77.723, 68.880, 152.624
78.853, 68.806, 152.322
80.000, 68.723, 151.917
81.164, 68.632, 151.561
82.344, 68.539, 151.206
83.542, 68.442, 150.898
84.757, 68.349, 150.601
85.990, 68.255, 150.281
87.241, 68.157, 149.965
88.510, 68.058, 149.662
89.797, 67.958, 149.366
91.103, 67.856, 149.080
92.428, 67.749, 148.827
93.773, 67.642, 148.603
95.137, 67.534, 148.394
96.520, 67.427, 148.169
97.924, 67.314, 147.914
99.349, 67.192, 147.701
100.794, 67.075, 147.581
102.260, 66.965, 147.416
103.747, 66.849, 147.253
105.256, 66.725, 147.103
106.787, 66.603, 147.029
108.340, 66.487, 146.954
109.916, 66.365, 146.897
111.515, 66.244, 146.913
113.137, 66.124, 146.944
114.783, 66.003, 146.953
116.452, 65.882, 146.977
118.146, 65.763, 146.975
119.865, 65.640, 147.011
121.608, 65.519, 147.065
123.377, 65.391, 147.149
125.171, 65.268, 147.240
126.992, 65.141, 147.274
128.839, 65.005, 147.358
130.713, 64.867, 147.551
132.615, 64.725, 147.895
134.543, 64.600, 148.117
136.500, 64.433, 148.344
138.486, 64.292, 148.884
140.500, 64.155, 149.155
142.544, 63.998, 149.867
144.617, 63.889, 150.607
146.721, 63.797, 151.180
148.855, 63.688, 151.725
151.020, 63.605, 152.432
153.217, 63.544, 153.044
155.445, 63.486, 153.591
157.706, 63.437, 153.994
160.000, 63.364, 154.245
162.327, 63.278, 154.537
164.688, 63.184, 154.833
167.084, 63.080, 155.139
169.514, 62.967, 155.525
171.980, 62.844, 155.953
174.481, 62.706, 156.465
177.019, 62.564, 157.089
179.594, 62.424, 157.835
182.206, 62.290, 158.726
184.856, 62.158, 159.719
187.545, 62.033, 160.888
190.273, 61.929, 162.181
193.041, 61.842, 163.641
195.849, 61.789, 165.245
198.697, 61.768, 166.889
201.587, 61.799, 168.560
204.520, 61.880, 170.123
207.494, 61.998, 171.539
210.512, 62.150, 172.696
213.574, 62.329, 173.521
216.681, 62.503, 173.973
219.833, 62.649, 174.089
223.030, 62.783, 173.943
226.274, 62.884, 173.701
229.565, 62.939, 173.399
232.905, 62.967, 173.096
236.292, 62.981, 172.825
239.729, 62.976, 172.663
243.216, 62.961, 172.574
246.754, 62.940, 172.436
250.343, 62.902, 172.378
253.984, 62.861, 172.359
257.678, 62.816, 172.415
261.426, 62.776, 172.554
265.229, 62.733, 172.698
269.087, 62.695, 172.872
273.001, 62.652, 173.094
276.972, 62.607, 173.250
281.000, 62.563, 173.457
285.088, 62.511, 173.712
289.234, 62.462, 173.974
293.441, 62.418, 174.274
297.710, 62.375, 174.546
302.040, 62.324, 174.837
306.433, 62.266, 175.125
310.890, 62.203, 175.428
315.412, 62.145, 175.833
320.000, 62.088, 176.262
324.655, 62.037, 176.709
329.377, 61.976, 177.202
334.168, 61.923, 177.666
339.028, 61.871, 178.147
343.959, 61.823, 178.652
348.962, 61.767, 179.170
354.038, 61.711, 179.730
359.188, 61.649, -179.683
364.412, 61.586, -179.061
369.713, 61.517, -178.372
375.090, 61.447, -177.581
380.546, 61.385, -176.700
386.081, 61.333, -175.727
391.697, 61.294, -174.710
397.395, 61.259, -173.709
403.175, 61.234, -172.556
409.039, 61.234, -171.317
414.989, 61.247, -170.120
421.025, 61.278, -168.934
427.149, 61.326, -167.777
433.362, 61.387, -166.661
439.665, 61.458, -165.586
446.060, 61.553, -164.585
452.548, 61.658, -163.697
459.131, 61.765, -162.926
465.809, 61.873, -162.279
472.584, 61.982, -161.692
479.458, 62.086, -161.208
486.432, 62.178, -160.819
493.507, 62.253, -160.384
500.686, 62.329, -159.932
507.968, 62.405, -159.510
515.357, 62.486, -159.073
522.853, 62.570, -158.650
530.458, 62.660, -158.285
538.174, 62.750, -157.991
546.002, 62.833, -157.778
553.943, 62.908, -157.608
562.001, 62.971, -157.466
570.175, 63.023, -157.335
578.469, 63.065, -157.182
586.883, 63.099, -156.989
595.419, 63.127, -156.733
604.080, 63.154, -156.423
612.866, 63.182, -156.063
621.780, 63.215, -155.648
630.824, 63.254, -155.209
640.000, 63.299, -154.764
649.309, 63.349, -154.335
658.753, 63.405, -153.924
668.335, 63.462, -153.544
678.056, 63.519, -153.192
687.919, 63.572, -152.856
697.925, 63.621, -152.511
708.076, 63.667, -152.150
718.376, 63.714, -151.780
728.825, 63.761, -151.389
739.426, 63.810, -150.982
750.181, 63.861, -150.551
761.093, 63.914, -150.109
772.163, 63.972, -149.657
783.394, 64.032, -149.206
794.789, 64.097, -148.753
806.349, 64.164, -148.309
818.078, 64.235, -147.879
829.977, 64.309, -147.465
842.050, 64.386, -147.055
854.297, 64.463, -146.665
866.724, 64.543, -146.298
879.330, 64.623, -145.947
892.120, 64.704, -145.609
905.097, 64.784, -145.290
918.262, 64.864, -144.981
931.618, 64.942, -144.677
945.169, 65.020, -144.375
958.917, 65.098, -144.084
972.864, 65.175, -143.794
987.015, 65.252, -143.503
1001.371, 65.330, -143.209
1015.937, 65.407, -142.915
1030.714, 65.484, -142.616
1045.706, 65.563, -142.313
1060.916, 65.641, -142.005
1076.347, 65.721, -141.694
1092.003, 65.802, -141.379
1107.887, 65.884, -141.059
1124.001, 65.968, -140.734
1140.350, 66.054, -140.407
1156.937, 66.142, -140.076
1173.765, 66.232, -139.743
1190.838, 66.324, -139.406
1208.159, 66.418, -139.064
1225.732, 66.515, -138.718
1243.561, 66.615, -138.365
1261.649, 66.718, -138.008
1280.000, 66.826, -137.639
1298.618, 66.940, -137.261
1317.507, 67.061, -136.879
1336.670, 67.191, -136.503
1356.113, 67.332, -136.148
1375.838, 67.484, -135.832
1395.850, 67.646, -135.582
1416.153, 67.817, -135.427
1436.751, 67.992, -135.386
1457.649, 68.165, -135.464
1478.851, 68.331, -135.650
1500.362, 68.485, -135.919
1522.185, 68.626, -136.240
1544.326, 68.754, -136.581
1566.789, 68.869, -136.919
1589.578, 68.975, -137.234
1612.699, 69.073, -137.515
1636.156, 69.167, -137.757
1659.955, 69.259, -137.961
1684.099, 69.350, -138.128
1708.595, 69.442, -138.264
1733.447, 69.537, -138.375
1758.661, 69.636, -138.470
1784.241, 69.739, -138.558
1810.193, 69.847, -138.650
1836.523, 69.958, -138.754
1863.236, 70.072, -138.875
1890.338, 70.188, -139.014
1917.833, 70.306, -139.172
1945.729, 70.425, -139.347
1974.030, 70.545, -139.539
2002.743, 70.667, -139.746
2031.873, 70.790, -139.970
2061.428, 70.915, -140.211
2091.412, 71.042, -140.472
2121.832, 71.170, -140.754
2152.695, 71.301, -141.064
2184.007, 71.432, -141.401
2215.774, 71.565, -141.767
2248.003, 71.700, -142.166
2280.701, 71.835, -142.600
2313.874, 71.970, -143.071
2347.530, 72.105, -143.581
2381.676, 72.240, -144.131
2416.318, 72.374, -144.721
2451.464, 72.506, -145.352
2487.122, 72.637, -146.026
2523.298, 72.765, -146.743
2560.000, 72.891, -147.503
2597.236, 73.014, -148.305
2635.014, 73.134, -149.152
2673.341, 73.250, -150.046
2712.226, 73.361, -150.987
2751.676, 73.467, -151.979
2791.700, 73.567, -153.022
2832.306, 73.659, -154.116
2873.503, 73.742, -155.254
2915.299, 73.814, -156.428
2957.703, 73.875, -157.628
3000.724, 73.925, -158.847
3044.370, 73.965, -160.076
3088.652, 73.993, -161.309
3133.577, 74.012, -162.538
3179.156, 74.020, -163.759
3225.398, 74.020, -164.969
3272.312, 74.011, -166.164
3319.909, 73.993, -167.343
3368.198, 73.969, -168.506
3417.190, 73.937, -169.653
3466.894, 73.898, -170.783
3517.321, 73.852, -171.891
3568.482, 73.800, -172.980
3620.387, 73.741, -174.049
3673.046, 73.677, -175.096
3726.472, 73.607, -176.121
3780.675, 73.533, -177.125
3835.666, 73.454, -178.106
3891.457, 73.371, -179.071
3948.060, 73.285, 179.973
4005.486, 73.194, 179.022
4063.747, 73.098, 178.066
4122.855, 72.995, 177.111
4182.824, 72.884, 176.163
4243.664, 72.764, 175.227
4305.390, 72.635, 174.310
4368.013, 72.497, 173.416
4431.547, 72.349, 172.554
4496.005, 72.192, 171.729
4561.401, 72.025, 170.949
4627.749, 71.849, 170.221
4695.061, 71.663, 169.556
4763.352, 71.469, 168.964
4832.637, 71.267, 168.456
4902.929, 71.059, 168.040
4974.244, 70.849, 167.715
5046.596, 70.635, 167.469
5120.000, 70.416, 167.302
5194.472, 70.191, 167.240
5270.027, 69.964, 167.306
5346.682, 69.738, 167.497
5424.451, 69.516, 167.806
5503.352, 69.299, 168.231
5583.399, 69.088, 168.762
5664.612, 68.886, 169.399
5747.006, 68.694, 170.136
5830.598, 68.513, 170.965
5915.406, 68.345, 171.880
6001.447, 68.191, 172.870
6088.740, 68.052, 173.930
6177.303, 67.933, 175.059
6267.154, 67.834, 176.226
6358.312, 67.756, 177.415
6450.796, 67.701, 178.610
6544.625, 67.670, 179.793
6639.818, 67.662, -179.058
6736.397, 67.679, -177.963
6834.380, 67.719, -176.944
6933.789, 67.783, -176.007
7034.643, 67.873, -175.162
7136.964, 67.995, -174.443
7240.773, 68.154, -173.921
7346.093, 68.347, -173.684
7452.944, 68.569, -173.815
7561.350, 68.814, -174.381
7671.332, 69.080, -175.545
7782.915, 69.330, -177.543
7896.120, 69.503, 179.610
8010.971, 69.543, 176.110
8127.493, 69.410, 172.340
8245.711, 69.100, 168.783
8365.647, 68.642, 165.862
8487.328, 68.088, 163.801
8610.779, 67.489, 162.638
8736.026, 66.883, 162.317
8863.095, 66.301, 162.737
8992.011, 65.764, 163.778
9122.803, 65.288, 165.307
9255.497, 64.884, 167.200
9390.121, 64.558, 169.328
9526.704, 64.314, 171.571
9665.273, 64.156, 173.817
9805.857, 64.087, 175.944
9948.487, 64.111, 177.801
10093.191, 64.229, 179.187
10240.000, 64.432, 179.835
10388.944, 64.690, 179.412
10540.055, 64.939, 177.621
10693.363, 65.098, 174.371
10848.902, 65.033, 169.574
11006.703, 64.586, 164.243
11166.799, 63.746, 159.925
11329.224, 62.633, 157.890
11494.012, 61.454, 158.648
11661.195, 60.430, 161.883
11830.812, 59.741, 166.538
12002.895, 59.443, 170.943
12177.480, 59.388, 173.510
12354.606, 59.282, 173.820
12534.309, 58.900, 173.014
12716.624, 58.218, 172.792
12901.592, 57.364, 174.294
13089.250, 56.540, 177.842
13279.637, 55.909, -177.444
13472.794, 55.446, -172.165
13668.760, 55.169, -166.432
13867.577, 55.098, -160.619
14069.285, 55.225, -154.984
14273.928, 55.561, -149.676
14481.547, 56.151, -144.964
14692.186, 57.039, -141.664
14905.889, 58.158, -140.651
15122.700, 59.522, -142.724
15342.664, 60.987, -150.484
15565.829, 61.837, -166.306
15792.239, 61.162, 173.959
16021.942, 58.993, 159.721
16254.986, 56.226, 154.741
16491.422, 53.891, 156.321
16731.295, 52.026, 158.506
16974.656, 50.268, 162.725
17221.559, 48.785, 168.340
17472.053, 47.555, 174.540
17726.189, 46.528, -179.034
17984.021, 45.680, -172.614
18245.605, 44.997, -166.394
18510.994, 44.498, -160.674
18780.242, 44.212, -156.161
19053.408, 44.124, -154.666
19330.547, 43.729, -160.334
19611.715, 41.100, -166.765
19896.975, 36.726, -144.572
