* Measurement data measured by REW V5.19
* Source: ASIO MOTU M Series, In 1
* Format: 1M Log Swept Sine, 1 sweep at -3.0 dBFS  With no timing reference
* Dated: 8 May, 2023 7:33:32 PM
* REW Settings:
*  C-weighting compensation: Off
*  Target level: 75.0 dB
* Note: ; 
* Measurement: May 8 19:33:32
* Smoothing: 1/48 octave
* Frequency Step: 1/48 octave
* Start Frequency: 10.1 Hz
*
* Freq(Hz), SPL(dB), Phase(degrees)
10.145, 70.747, -103.980
10.293, 70.797, -104.746
10.443, 70.849, -105.777
10.595, 70.929, -107.129
10.749, 71.012, -108.542
10.905, 71.073, -109.626
11.064, 71.127, -110.597
11.225, 71.186, -111.704
11.388, 71.247, -112.868
11.554, 71.303, -113.990
11.722, 71.357, -115.085
11.892, 71.408, -116.162
12.065, 71.457, -117.224
12.241, 71.505, -118.296
12.419, 71.553, -119.367
12.599, 71.599, -120.405
12.782, 71.644, -121.427
12.968, 71.689, -122.461
13.157, 71.733, -123.491
13.348, 71.776, -124.506
13.543, 71.818, -125.521
13.740, 71.859, -126.537
13.939, 71.898, -127.551
14.142, 71.935, -128.562
14.348, 71.971, -129.567
14.557, 72.004, -130.568
14.768, 72.036, -131.561
14.983, 72.065, -132.543
15.201, 72.093, -133.514
15.422, 72.120, -134.475
15.646, 72.146, -135.425
15.874, 72.172, -136.367
16.105, 72.196, -137.304
16.339, 72.221, -138.239
16.577, 72.243, -139.172
16.818, 72.265, -140.103
17.063, 72.284, -141.030
17.311, 72.301, -141.949
17.563, 72.316, -142.858
17.818, 72.329, -143.752
18.077, 72.342, -144.631
18.340, 72.354, -145.497
18.607, 72.367, -146.354
18.877, 72.379, -147.208
19.152, 72.391, -148.061
19.431, 72.402, -148.915
19.713, 72.411, -149.768
20.000, 72.418, -150.616
20.291, 72.424, -151.457
20.586, 72.428, -152.289
20.885, 72.432, -153.116
21.189, 72.434, -153.940
21.497, 72.436, -154.767
21.810, 72.435, -155.594
22.127, 72.430, -156.415
22.449, 72.422, -157.221
22.776, 72.413, -158.001
23.107, 72.403, -158.755
23.443, 72.396, -159.490
23.784, 72.392, -160.219
24.130, 72.390, -160.961
24.481, 72.389, -161.723
24.837, 72.386, -162.504
25.198, 72.378, -163.292
25.565, 72.367, -164.069
25.937, 72.354, -164.824
26.314, 72.340, -165.559
26.697, 72.328, -166.281
27.085, 72.317, -167.001
27.479, 72.305, -167.722
27.879, 72.291, -168.443
28.284, 72.275, -169.155
28.696, 72.257, -169.852
29.113, 72.238, -170.533
29.537, 72.217, -171.198
29.966, 72.197, -171.846
30.402, 72.176, -172.481
30.844, 72.156, -173.112
31.293, 72.136, -173.752
31.748, 72.115, -174.407
32.210, 72.089, -175.070
32.678, 72.060, -175.726
33.154, 72.028, -176.364
33.636, 71.996, -176.990
34.125, 71.965, -177.618
34.621, 71.934, -178.255
35.125, 71.903, -178.899
35.636, 71.870, -179.547
36.154, 71.835, 179.804
36.680, 71.798, 179.165
37.214, 71.760, 178.552
37.755, 71.723, 177.966
38.304, 71.691, 177.386
38.861, 71.659, 176.794
39.427, 71.623, 176.199
40.000, 71.585, 175.620
40.582, 71.545, 175.064
41.172, 71.505, 174.521
41.771, 71.463, 173.985
42.379, 71.420, 173.456
42.995, 71.375, 172.937
43.620, 71.332, 172.425
44.255, 71.291, 171.898
44.898, 71.247, 171.348
45.552, 71.199, 170.808
46.214, 71.154, 170.293
46.886, 71.113, 169.747
47.568, 71.064, 169.175
48.260, 71.008, 168.667
48.962, 70.961, 168.201
49.674, 70.916, 167.674
50.397, 70.856, 167.157
51.130, 70.796, 166.738
51.874, 70.747, 166.290
52.628, 70.690, 165.782
53.394, 70.627, 165.325
54.170, 70.573, 164.838
54.958, 70.509, 164.273
55.758, 70.432, 163.774
56.569, 70.361, 163.329
57.391, 70.291, 162.915
58.226, 70.232, 162.584
59.073, 70.194, 162.175
59.932, 70.144, 161.654
60.804, 70.083, 161.186
61.688, 70.022, 160.754
62.586, 69.957, 160.331
63.496, 69.891, 159.941
64.420, 69.822, 159.559
65.357, 69.754, 159.198
66.307, 69.683, 158.821
67.272, 69.608, 158.510
68.250, 69.552, 158.202
69.243, 69.493, 157.723
70.250, 69.415, 157.261
71.272, 69.331, 156.842
72.309, 69.251, 156.501
73.360, 69.170, 156.103
74.427, 69.084, 155.892
75.510, 69.031, 155.508
76.608, 68.920, 155.147
77.723, 68.860, 155.029
78.853, 68.779, 154.460
80.000, 68.659, 154.215
81.164, 68.578, 154.045
82.344, 68.511, 153.654
83.542, 68.397, 153.247
84.757, 68.307, 153.179
85.990, 68.238, 152.887
87.241, 68.140, 152.642
88.510, 68.053, 152.472
89.797, 67.964, 152.214
91.103, 67.864, 151.956
92.428, 67.764, 151.794
93.773, 67.675, 151.625
95.137, 67.579, 151.468
96.520, 67.480, 151.358
97.924, 67.378, 151.220
99.349, 67.271, 151.170
100.794, 67.189, 150.967
102.260, 67.075, 150.747
103.747, 66.969, 150.614
105.256, 66.865, 150.582
106.787, 66.768, 150.455
108.340, 66.658, 150.383
109.916, 66.554, 150.313
111.515, 66.447, 150.286
113.137, 66.336, 150.294
114.783, 66.211, 150.229
116.452, 66.063, 150.266
118.146, 65.948, 150.261
119.865, 65.845, 150.090
121.608, 65.727, 150.250
123.377, 65.639, 150.551
125.171, 65.552, 150.801
126.992, 65.417, 150.788
128.839, 65.264, 150.895
130.713, 65.144, 151.013
132.615, 65.022, 151.282
134.543, 64.907, 151.599
136.500, 64.774, 151.872
138.486, 64.639, 152.254
140.500, 64.557, 152.558
142.544, 64.467, 152.814
144.617, 64.331, 153.059
146.721, 64.200, 153.731
148.855, 64.112, 154.045
151.020, 63.992, 154.433
153.217, 63.857, 155.001
155.445, 63.745, 155.807
157.706, 63.651, 156.203
160.000, 63.545, 156.699
162.327, 63.446, 157.301
164.688, 63.356, 157.937
167.084, 63.261, 158.543
169.514, 63.169, 159.199
171.980, 63.063, 159.867
174.481, 62.958, 160.637
177.019, 62.849, 161.492
179.594, 62.748, 162.525
182.206, 62.663, 163.601
184.856, 62.600, 164.801
187.545, 62.563, 166.098
190.273, 62.541, 167.430
193.041, 62.558, 168.634
195.849, 62.595, 169.895
198.697, 62.636, 171.528
201.587, 62.730, 172.300
204.520, 62.757, 172.805
207.494, 62.844, 173.467
210.512, 62.919, 174.136
213.574, 62.996, 174.694
216.681, 63.087, 175.234
219.833, 63.180, 175.725
223.030, 63.272, 176.035
226.274, 63.372, 176.198
229.565, 63.461, 176.238
232.905, 63.532, 176.138
236.292, 63.588, 175.944
239.729, 63.619, 175.744
243.216, 63.627, 175.520
246.754, 63.625, 175.366
250.343, 63.622, 175.313
253.984, 63.614, 175.257
257.678, 63.596, 175.209
261.426, 63.578, 175.193
265.229, 63.554, 175.179
269.087, 63.529, 175.208
273.001, 63.501, 175.204
276.972, 63.467, 175.212
281.000, 63.429, 175.290
285.088, 63.390, 175.375
289.234, 63.345, 175.466
293.441, 63.301, 175.565
297.710, 63.257, 175.623
302.040, 63.194, 175.714
306.433, 63.126, 175.845
310.890, 63.062, 176.071
315.412, 62.992, 176.339
320.000, 62.923, 176.596
324.655, 62.848, 176.959
329.377, 62.779, 177.340
334.168, 62.709, 177.786
339.028, 62.637, 178.249
343.959, 62.572, 178.736
348.962, 62.509, 179.231
354.038, 62.441, 179.749
359.188, 62.367, -179.685
364.412, 62.293, -179.048
369.713, 62.210, -178.353
375.090, 62.134, -177.555
380.546, 62.074, -176.627
386.081, 62.018, -175.719
391.697, 61.966, -174.731
397.395, 61.921, -173.652
403.175, 61.884, -172.495
409.039, 61.862, -171.209
414.989, 61.861, -169.849
421.025, 61.890, -168.438
427.149, 61.952, -167.049
433.362, 62.046, -165.721
439.665, 62.169, -164.499
446.060, 62.310, -163.497
452.548, 62.458, -162.706
459.131, 62.606, -162.126
465.809, 62.747, -161.689
472.584, 62.881, -161.355
479.458, 63.002, -161.174
486.432, 63.095, -161.048
493.507, 63.178, -160.883
500.686, 63.256, -160.758
507.968, 63.323, -160.622
515.357, 63.388, -160.494
522.853, 63.444, -160.392
530.458, 63.490, -160.279
538.174, 63.529, -160.131
546.002, 63.561, -159.978
553.943, 63.587, -159.806
562.001, 63.609, -159.574
570.175, 63.627, -159.284
578.469, 63.644, -158.951
586.883, 63.668, -158.560
595.419, 63.695, -158.127
604.080, 63.731, -157.669
612.866, 63.776, -157.215
621.780, 63.827, -156.784
630.824, 63.883, -156.399
640.000, 63.942, -156.066
649.309, 63.997, -155.776
658.753, 64.046, -155.512
668.335, 64.089, -155.264
678.056, 64.125, -155.001
687.919, 64.156, -154.703
697.925, 64.186, -154.362
708.076, 64.215, -153.978
718.376, 64.248, -153.562
728.825, 64.285, -153.123
739.426, 64.327, -152.668
750.181, 64.373, -152.205
761.093, 64.422, -151.742
772.163, 64.474, -151.282
783.394, 64.530, -150.819
794.789, 64.589, -150.358
806.349, 64.650, -149.902
818.078, 64.716, -149.452
829.977, 64.784, -149.011
842.050, 64.854, -148.589
854.297, 64.926, -148.179
866.724, 64.999, -147.778
879.330, 65.074, -147.385
892.120, 65.150, -146.999
905.097, 65.229, -146.626
918.262, 65.308, -146.260
931.618, 65.389, -145.902
945.169, 65.471, -145.558
958.917, 65.555, -145.229
972.864, 65.640, -144.916
987.015, 65.725, -144.619
1001.371, 65.809, -144.337
1015.937, 65.893, -144.063
1030.714, 65.976, -143.794
1045.706, 66.058, -143.529
1060.916, 66.140, -143.261
1076.347, 66.222, -142.989
1092.003, 66.305, -142.712
1107.887, 66.389, -142.434
1124.001, 66.474, -142.154
1140.350, 66.561, -141.874
1156.937, 66.649, -141.595
1173.765, 66.739, -141.314
1190.838, 66.831, -141.034
1208.159, 66.924, -140.756
1225.732, 67.019, -140.480
1243.561, 67.117, -140.203
1261.649, 67.216, -139.924
1280.000, 67.318, -139.644
1298.618, 67.424, -139.363
1317.507, 67.535, -139.079
1336.670, 67.650, -138.797
1356.113, 67.772, -138.526
1375.838, 67.900, -138.275
1395.850, 68.036, -138.054
1416.153, 68.179, -137.882
1436.751, 68.326, -137.770
1457.649, 68.477, -137.728
1478.851, 68.627, -137.762
1500.362, 68.775, -137.871
1522.185, 68.918, -138.041
1544.326, 69.053, -138.259
1566.789, 69.180, -138.510
1589.578, 69.300, -138.778
1612.699, 69.412, -139.049
1636.156, 69.519, -139.313
1659.955, 69.621, -139.564
1684.099, 69.720, -139.802
1708.595, 69.817, -140.025
1733.447, 69.912, -140.232
1758.661, 70.007, -140.427
1784.241, 70.102, -140.610
1810.193, 70.198, -140.781
1836.523, 70.295, -140.945
1863.236, 70.394, -141.105
1890.338, 70.495, -141.263
1917.833, 70.598, -141.424
1945.729, 70.703, -141.591
1974.030, 70.811, -141.766
2002.743, 70.921, -141.952
2031.873, 71.033, -142.149
2061.428, 71.147, -142.360
2091.412, 71.264, -142.585
2121.832, 71.382, -142.828
2152.695, 71.503, -143.090
2184.007, 71.627, -143.374
2215.774, 71.753, -143.682
2248.003, 71.881, -144.019
2280.701, 72.011, -144.385
2313.874, 72.144, -144.787
2347.530, 72.278, -145.225
2381.676, 72.414, -145.706
2416.318, 72.551, -146.231
2451.464, 72.688, -146.807
2487.122, 72.826, -147.438
2523.298, 72.962, -148.125
2560.000, 73.096, -148.868
2597.236, 73.227, -149.666
2635.014, 73.355, -150.520
2673.341, 73.479, -151.433
2712.226, 73.598, -152.405
2751.676, 73.712, -153.438
2791.700, 73.819, -154.534
2832.306, 73.916, -155.691
2873.503, 74.004, -156.903
2915.299, 74.080, -158.162
2957.703, 74.143, -159.456
3000.724, 74.193, -160.773
3044.370, 74.231, -162.103
3088.652, 74.256, -163.439
3133.577, 74.270, -164.773
3179.156, 74.272, -166.100
3225.398, 74.265, -167.416
3272.312, 74.247, -168.721
3319.909, 74.221, -170.013
3368.198, 74.185, -171.292
3417.190, 74.141, -172.557
3466.894, 74.089, -173.810
3517.321, 74.028, -175.050
3568.482, 73.958, -176.275
3620.387, 73.879, -177.483
3673.046, 73.791, -178.676
3726.472, 73.693, -179.843
3780.675, 73.585, 179.017
3835.666, 73.468, 177.910
3891.457, 73.342, 176.852
3948.060, 73.208, 175.845
4005.486, 73.068, 174.893
4063.747, 72.925, 173.990
4122.855, 72.780, 173.113
4182.824, 72.630, 172.250
4243.664, 72.473, 171.405
4305.390, 72.309, 170.584
4368.013, 72.136, 169.791
4431.547, 71.953, 169.032
4496.005, 71.761, 168.320
4561.401, 71.559, 167.663
4627.749, 71.348, 167.073
4695.061, 71.128, 166.561
4763.352, 70.901, 166.133
4832.637, 70.666, 165.797
4902.929, 70.427, 165.558
4974.244, 70.182, 165.422
5046.596, 69.935, 165.399
5120.000, 69.685, 165.489
5194.472, 69.436, 165.696
5270.027, 69.188, 166.021
5346.682, 68.943, 166.464
5424.451, 68.703, 167.021
5503.352, 68.469, 167.692
5583.399, 68.242, 168.470
5664.612, 68.024, 169.354
5747.006, 67.815, 170.343
5830.598, 67.619, 171.432
5915.406, 67.436, 172.607
6001.447, 67.268, 173.864
6088.740, 67.115, 175.200
6177.303, 66.981, 176.605
6267.154, 66.868, 178.063
6358.312, 66.776, 179.558
6450.796, 66.707, -178.922
6544.625, 66.662, -177.396
6639.818, 66.642, -175.883
6736.397, 66.648, -174.402
6834.380, 66.680, -172.972
6933.789, 66.738, -171.608
7034.643, 66.824, -170.327
7136.964, 66.940, -169.154
7240.773, 67.087, -168.128
7346.093, 67.264, -167.275
7452.944, 67.477, -166.614
7561.350, 67.734, -166.256
7671.332, 68.026, -166.368
7782.915, 68.332, -167.011
7896.120, 68.645, -168.258
8010.971, 68.942, -170.249
8127.493, 69.185, -173.098
8245.711, 69.310, -176.800
8365.647, 69.251, 178.945
8487.328, 68.977, 174.708
8610.779, 68.506, 171.088
8736.026, 67.898, 168.484
8863.095, 67.222, 167.042
8992.011, 66.544, 166.689
9122.803, 65.907, 167.229
9255.497, 65.336, 168.453
9390.121, 64.843, 170.180
9526.704, 64.437, 172.251
9665.273, 64.123, 174.528
9805.857, 63.906, 176.873
9948.487, 63.790, 179.142
10093.191, 63.780, -178.842
10240.000, 63.875, -177.304
10388.944, 64.063, -176.545
10540.055, 64.309, -176.872
10693.363, 64.568, -178.646
10848.902, 64.698, 177.723
11006.703, 64.521, 172.803
11166.799, 63.933, 167.970
11329.224, 62.993, 164.944
11494.012, 61.922, 164.586
11661.195, 60.935, 166.635
11830.812, 60.205, 170.510
12002.895, 59.898, 174.773
12177.480, 59.950, 177.197
12354.606, 60.016, 176.592
12534.309, 59.752, 173.964
12716.624, 59.067, 171.577
12901.592, 58.113, 171.035
13089.250, 57.106, 172.656
13279.637, 56.201, 176.040
13472.794, 55.480, -179.385
13668.760, 54.984, -174.173
13867.577, 54.718, -168.838
14069.285, 54.663, -163.771
14273.928, 54.804, -159.175
14481.547, 55.158, -155.250
14692.186, 55.770, -152.399
14905.889, 56.706, -151.512
15122.700, 57.977, -154.567
15342.664, 59.246, -164.936
15565.829, 59.555, 175.812
15792.239, 58.018, 155.035
16021.942, 55.030, 142.671
16254.986, 51.672, 140.153
16491.422, 48.919, 142.587
16731.295, 46.440, 145.357
16974.656, 43.965, 150.452
17221.559, 41.603, 157.197
17472.053, 39.277, 165.235
17726.189, 36.855, 174.863
17984.021, 34.178, -172.594
18245.605, 31.134, -153.386
18510.994, 28.266, -120.508
18780.242, 28.622, -76.242
19053.408, 32.607, -42.241
19330.547, 37.235, -25.352
19611.715, 41.816, -21.421
19896.975, 45.453, -28.788
