* Measurement data measured by REW V5.19
* Source: ASIO MOTU M Series, In 1
* Format: 1M Log Swept Sine, 1 sweep at -3.0 dBFS  With no timing reference
* Dated: 8 May, 2023 7:55:07 PM
* REW Settings:
*  C-weighting compensation: Off
*  Target level: 75.0 dB
* Note: ; 
* Measurement: May 8 19:55:07
* Smoothing: 1/48 octave
* Frequency Step: 1/48 octave
* Start Frequency: 10.1 Hz
*
* Freq(Hz), SPL(dB), Phase(degrees)
10.145, 70.442, -103.893
10.293, 70.492, -104.661
10.443, 70.543, -105.695
10.595, 70.622, -107.049
10.749, 70.703, -108.465
10.905, 70.763, -109.550
11.064, 70.815, -110.520
11.225, 70.873, -111.624
11.388, 70.932, -112.785
11.554, 70.987, -113.902
11.722, 71.039, -114.990
11.892, 71.088, -116.059
12.065, 71.136, -117.112
12.241, 71.184, -118.176
12.419, 71.232, -119.238
12.599, 71.277, -120.268
12.782, 71.322, -121.283
12.968, 71.367, -122.311
13.157, 71.411, -123.335
13.348, 71.454, -124.345
13.543, 71.497, -125.355
13.740, 71.538, -126.367
13.939, 71.577, -127.375
14.142, 71.615, -128.380
14.348, 71.652, -129.379
14.557, 71.686, -130.373
14.768, 71.719, -131.362
14.983, 71.751, -132.342
15.201, 71.781, -133.314
15.422, 71.810, -134.281
15.646, 71.838, -135.240
15.874, 71.864, -136.192
16.105, 71.889, -137.138
16.339, 71.913, -138.079
16.577, 71.936, -139.013
16.818, 71.957, -139.940
17.063, 71.976, -140.860
17.311, 71.995, -141.771
17.563, 72.012, -142.673
17.818, 72.028, -143.567
18.077, 72.042, -144.452
18.340, 72.056, -145.331
18.607, 72.069, -146.202
18.877, 72.081, -147.068
19.152, 72.092, -147.928
19.431, 72.102, -148.781
19.713, 72.111, -149.630
20.000, 72.118, -150.474
20.291, 72.124, -151.313
20.586, 72.128, -152.146
20.885, 72.131, -152.973
21.189, 72.131, -153.788
21.497, 72.131, -154.588
21.810, 72.129, -155.371
22.127, 72.129, -156.139
22.449, 72.130, -156.902
22.776, 72.133, -157.672
23.107, 72.135, -158.458
23.443, 72.136, -159.263
23.784, 72.132, -160.081
24.130, 72.123, -160.893
24.481, 72.109, -161.683
24.837, 72.093, -162.438
25.198, 72.078, -163.161
25.565, 72.065, -163.869
25.937, 72.055, -164.577
26.314, 72.046, -165.298
26.697, 72.035, -166.026
27.085, 72.021, -166.754
27.479, 72.007, -167.475
27.879, 71.992, -168.191
28.284, 71.976, -168.908
28.696, 71.957, -169.626
29.113, 71.936, -170.333
29.537, 71.913, -171.017
29.966, 71.891, -171.680
30.402, 71.871, -172.336
30.844, 71.852, -173.003
31.293, 71.830, -173.680
31.748, 71.805, -174.348
32.210, 71.779, -174.989
32.678, 71.754, -175.611
33.154, 71.732, -176.238
33.636, 71.710, -176.889
34.125, 71.682, -177.550
34.621, 71.649, -178.194
35.125, 71.614, -178.800
35.636, 71.582, -179.379
36.154, 71.552, -179.958
36.680, 71.523, 179.445
37.214, 71.490, 178.833
37.755, 71.455, 178.227
38.304, 71.417, 177.639
38.861, 71.381, 177.061
39.427, 71.346, 176.474
40.000, 71.309, 175.875
40.582, 71.269, 175.286
41.172, 71.228, 174.722
41.771, 71.188, 174.172
42.379, 71.150, 173.619
42.995, 71.112, 173.061
43.620, 71.070, 172.503
44.255, 71.026, 171.956
44.898, 70.979, 171.428
45.552, 70.932, 170.908
46.214, 70.882, 170.386
46.886, 70.830, 169.887
47.568, 70.782, 169.405
48.260, 70.738, 168.867
48.962, 70.683, 168.279
49.674, 70.619, 167.765
50.397, 70.567, 167.321
51.130, 70.525, 166.819
51.874, 70.475, 166.287
52.628, 70.425, 165.811
53.394, 70.379, 165.333
54.170, 70.329, 164.840
54.958, 70.275, 164.376
55.758, 70.216, 163.908
56.569, 70.149, 163.487
57.391, 70.090, 163.114
58.226, 70.036, 162.639
59.073, 69.964, 162.136
59.932, 69.892, 161.732
60.804, 69.833, 161.302
61.688, 69.769, 160.830
62.586, 69.702, 160.416
63.496, 69.642, 160.009
64.420, 69.576, 159.578
65.357, 69.504, 159.190
66.307, 69.436, 158.824
67.272, 69.369, 158.409
68.250, 69.294, 157.971
69.243, 69.217, 157.558
70.250, 69.146, 157.160
71.272, 69.077, 156.753
72.309, 69.010, 156.332
73.360, 68.929, 155.873
74.427, 68.837, 155.537
75.510, 68.750, 155.200
76.608, 68.656, 154.928
77.723, 68.576, 154.540
78.853, 68.460, 154.194
80.000, 68.381, 154.052
81.164, 68.305, 153.674
82.344, 68.217, 153.422
83.542, 68.134, 153.170
84.757, 68.048, 152.919
85.990, 67.952, 152.639
87.241, 67.852, 152.399
88.510, 67.756, 152.176
89.797, 67.664, 151.923
91.103, 67.564, 151.691
92.428, 67.468, 151.542
93.773, 67.374, 151.352
95.137, 67.270, 151.163
96.520, 67.168, 150.945
97.924, 67.060, 150.719
99.349, 66.947, 150.491
100.794, 66.834, 150.444
102.260, 66.744, 150.354
103.747, 66.641, 150.236
105.256, 66.531, 150.138
106.787, 66.419, 150.042
108.340, 66.307, 149.929
109.916, 66.182, 149.808
111.515, 66.065, 149.875
113.137, 65.963, 149.867
114.783, 65.852, 149.830
116.452, 65.728, 149.846
118.146, 65.623, 149.829
119.865, 65.486, 149.702
121.608, 65.365, 149.844
123.377, 65.252, 149.988
125.171, 65.139, 150.225
126.992, 65.013, 150.436
128.839, 64.855, 150.690
130.713, 64.699, 150.962
132.615, 64.574, 151.089
134.543, 64.446, 151.201
136.500, 64.327, 151.471
138.486, 64.195, 151.928
140.500, 64.072, 152.357
142.544, 63.907, 152.696
144.617, 63.752, 153.186
146.721, 63.614, 153.695
148.855, 63.463, 154.293
151.020, 63.343, 155.168
153.217, 63.258, 155.888
155.445, 63.142, 156.816
157.706, 63.088, 157.761
160.000, 63.029, 158.517
162.327, 62.953, 159.312
164.688, 62.883, 159.942
167.084, 62.785, 160.632
169.514, 62.711, 161.375
171.980, 62.623, 162.164
174.481, 62.533, 163.171
177.019, 62.453, 164.105
179.594, 62.381, 165.145
182.206, 62.339, 166.161
184.856, 62.319, 167.060
187.545, 62.299, 168.064
190.273, 62.274, 169.075
193.041, 62.231, 170.055
195.849, 62.216, 171.201
198.697, 62.276, 172.791
201.587, 62.301, 174.115
204.520, 62.314, 175.718
207.494, 62.421, 177.006
210.512, 62.593, 178.108
213.574, 62.795, 179.116
216.681, 63.010, 179.594
219.833, 63.212, 179.656
223.030, 63.383, 179.470
226.274, 63.530, 179.054
229.565, 63.623, 178.512
232.905, 63.690, 178.026
236.292, 63.723, 177.491
239.729, 63.740, 177.047
243.216, 63.735, 176.604
246.754, 63.722, 176.223
250.343, 63.703, 175.930
253.984, 63.672, 175.691
257.678, 63.635, 175.532
261.426, 63.594, 175.426
265.229, 63.551, 175.365
269.087, 63.500, 175.337
273.001, 63.450, 175.359
276.972, 63.403, 175.422
281.000, 63.355, 175.479
285.088, 63.311, 175.557
289.234, 63.265, 175.691
293.441, 63.214, 175.842
297.710, 63.166, 175.977
302.040, 63.116, 176.081
306.433, 63.058, 176.203
310.890, 62.992, 176.394
315.412, 62.919, 176.619
320.000, 62.852, 176.849
324.655, 62.788, 177.087
329.377, 62.716, 177.428
334.168, 62.636, 177.891
339.028, 62.566, 178.337
343.959, 62.505, 178.789
348.962, 62.444, 179.221
354.038, 62.375, 179.642
359.188, 62.295, -179.881
364.412, 62.213, -179.356
369.713, 62.123, -178.764
375.090, 62.031, -178.017
380.546, 61.939, -177.143
386.081, 61.850, -176.149
391.697, 61.781, -175.058
397.395, 61.725, -173.840
403.175, 61.677, -172.576
409.039, 61.657, -171.155
414.989, 61.664, -169.674
421.025, 61.706, -168.213
427.149, 61.778, -166.802
433.362, 61.877, -165.505
439.665, 61.998, -164.320
446.060, 62.137, -163.287
452.548, 62.284, -162.433
459.131, 62.430, -161.714
465.809, 62.581, -161.148
472.584, 62.729, -160.731
479.458, 62.877, -160.445
486.432, 63.015, -160.330
493.507, 63.131, -160.359
500.686, 63.229, -160.441
507.968, 63.297, -160.572
515.357, 63.344, -160.680
522.853, 63.370, -160.705
530.458, 63.389, -160.633
538.174, 63.401, -160.449
546.002, 63.418, -160.154
553.943, 63.442, -159.822
562.001, 63.473, -159.457
570.175, 63.508, -159.088
578.469, 63.547, -158.721
586.883, 63.591, -158.354
595.419, 63.640, -157.999
604.080, 63.690, -157.669
612.866, 63.742, -157.364
621.780, 63.794, -157.093
630.824, 63.843, -156.821
640.000, 63.894, -156.584
649.309, 63.940, -156.391
658.753, 63.978, -156.197
668.335, 64.011, -155.991
678.056, 64.036, -155.766
687.919, 64.058, -155.503
697.925, 64.079, -155.199
708.076, 64.100, -154.848
718.376, 64.121, -154.456
728.825, 64.146, -154.036
739.426, 64.177, -153.582
750.181, 64.210, -153.106
761.093, 64.249, -152.625
772.163, 64.293, -152.125
783.394, 64.341, -151.629
794.789, 64.393, -151.130
806.349, 64.450, -150.638
818.078, 64.512, -150.152
829.977, 64.577, -149.681
842.050, 64.645, -149.225
854.297, 64.715, -148.779
866.724, 64.787, -148.352
879.330, 64.859, -147.935
892.120, 64.934, -147.519
905.097, 65.011, -147.117
918.262, 65.089, -146.719
931.618, 65.169, -146.331
945.169, 65.252, -145.953
958.917, 65.336, -145.589
972.864, 65.423, -145.240
987.015, 65.511, -144.910
1001.371, 65.598, -144.603
1015.937, 65.686, -144.304
1030.714, 65.774, -144.013
1045.706, 65.861, -143.730
1060.916, 65.949, -143.455
1076.347, 66.036, -143.181
1092.003, 66.125, -142.913
1107.887, 66.215, -142.647
1124.001, 66.304, -142.385
1140.350, 66.395, -142.124
1156.937, 66.486, -141.866
1173.765, 66.578, -141.607
1190.838, 66.672, -141.344
1208.159, 66.767, -141.083
1225.732, 66.865, -140.818
1243.561, 66.965, -140.549
1261.649, 67.068, -140.282
1280.000, 67.175, -140.013
1298.618, 67.286, -139.746
1317.507, 67.403, -139.488
1336.670, 67.526, -139.247
1356.113, 67.656, -139.032
1375.838, 67.792, -138.857
1395.850, 67.933, -138.737
1416.153, 68.078, -138.681
1436.751, 68.223, -138.700
1457.649, 68.366, -138.789
1478.851, 68.504, -138.939
1500.362, 68.635, -139.142
1522.185, 68.759, -139.380
1544.326, 68.875, -139.638
1566.789, 68.982, -139.900
1589.578, 69.084, -140.158
1612.699, 69.179, -140.401
1636.156, 69.271, -140.624
1659.955, 69.360, -140.826
1684.099, 69.447, -141.006
1708.595, 69.534, -141.165
1733.447, 69.621, -141.306
1758.661, 69.709, -141.430
1784.241, 69.798, -141.540
1810.193, 69.890, -141.640
1836.523, 69.984, -141.733
1863.236, 70.080, -141.819
1890.338, 70.180, -141.902
1917.833, 70.282, -141.981
1945.729, 70.388, -142.062
1974.030, 70.499, -142.147
2002.743, 70.614, -142.239
2031.873, 70.734, -142.343
2061.428, 70.859, -142.468
2091.412, 70.990, -142.620
2121.832, 71.125, -142.806
2152.695, 71.265, -143.033
2184.007, 71.409, -143.306
2215.774, 71.555, -143.630
2248.003, 71.704, -144.010
2280.701, 71.853, -144.449
2313.874, 72.002, -144.949
2347.530, 72.149, -145.509
2381.676, 72.294, -146.125
2416.318, 72.435, -146.793
2451.464, 72.573, -147.510
2487.122, 72.706, -148.272
2523.298, 72.835, -149.078
2560.000, 72.960, -149.926
2597.236, 73.081, -150.816
2635.014, 73.196, -151.747
2673.341, 73.307, -152.721
2712.226, 73.412, -153.739
2751.676, 73.511, -154.802
2791.700, 73.604, -155.913
2832.306, 73.688, -157.070
2873.503, 73.764, -158.268
2915.299, 73.829, -159.502
2957.703, 73.884, -160.767
3000.724, 73.928, -162.055
3044.370, 73.962, -163.362
3088.652, 73.984, -164.683
3133.577, 73.996, -166.013
3179.156, 73.996, -167.350
3225.398, 73.984, -168.688
3272.312, 73.961, -170.021
3319.909, 73.926, -171.344
3368.198, 73.880, -172.650
3417.190, 73.822, -173.933
3466.894, 73.754, -175.187
3517.321, 73.677, -176.407
3568.482, 73.590, -177.592
3620.387, 73.495, -178.741
3673.046, 73.392, -179.855
3726.472, 73.281, 179.068
3780.675, 73.163, 178.026
3835.666, 73.037, 177.027
3891.457, 72.905, 176.074
3948.060, 72.766, 175.168
4005.486, 72.622, 174.308
4063.747, 72.473, 173.492
4122.855, 72.319, 172.714
4182.824, 72.161, 171.973
4243.664, 71.996, 171.274
4305.390, 71.825, 170.620
4368.013, 71.649, 170.013
4431.547, 71.467, 169.458
4496.005, 71.280, 168.963
4561.401, 71.088, 168.530
4627.749, 70.891, 168.163
4695.061, 70.690, 167.868
4763.352, 70.486, 167.646
4832.637, 70.280, 167.504
4902.929, 70.072, 167.444
4974.244, 69.863, 167.469
5046.596, 69.655, 167.576
5120.000, 69.448, 167.769
5194.472, 69.243, 168.047
5270.027, 69.040, 168.412
5346.682, 68.841, 168.866
5424.451, 68.646, 169.410
5503.352, 68.458, 170.038
5583.399, 68.277, 170.743
5664.612, 68.102, 171.527
5747.006, 67.936, 172.400
5830.598, 67.780, 173.354
5915.406, 67.637, 174.377
6001.447, 67.507, 175.463
6088.740, 67.391, 176.608
6177.303, 67.293, 177.812
6267.154, 67.215, 179.051
6358.312, 67.157, -179.687
6450.796, 67.122, -178.425
6544.625, 67.109, -177.185
6639.818, 67.119, -175.979
6736.397, 67.152, -174.809
6834.380, 67.213, -173.704
6933.789, 67.304, -172.701
7034.643, 67.424, -171.850
7136.964, 67.571, -171.183
7240.773, 67.743, -170.741
7346.093, 67.938, -170.556
7452.944, 68.158, -170.666
7561.350, 68.403, -171.163
7671.332, 68.663, -172.191
7782.915, 68.912, -173.836
7896.120, 69.128, -176.122
8010.971, 69.284, -179.075
8127.493, 69.346, 177.313
8245.711, 69.268, 173.137
8365.647, 69.004, 168.683
8487.328, 68.532, 164.436
8610.779, 67.864, 160.930
8736.026, 67.055, 158.585
8863.095, 66.178, 157.570
8992.011, 65.303, 157.796
9122.803, 64.475, 159.057
9255.497, 63.718, 161.127
9390.121, 63.046, 163.810
9526.704, 62.460, 166.947
9665.273, 61.964, 170.417
9805.857, 61.555, 174.119
9948.487, 61.236, 177.972
10093.191, 61.005, -178.094
10240.000, 60.867, -174.151
10388.944, 60.823, -170.281
10540.055, 60.879, -166.547
10693.363, 61.056, -163.154
10848.902, 61.327, -160.456
11006.703, 61.660, -158.604
11166.799, 62.003, -157.856
11329.224, 62.255, -158.253
11494.012, 62.306, -159.251
11661.195, 62.125, -159.589
11830.812, 61.867, -158.020
12002.895, 61.829, -154.555
12177.480, 62.245, -150.778
12354.606, 63.114, -149.059
12534.309, 64.157, -151.572
12716.624, 64.866, -158.993
12901.592, 64.796, -168.812
13089.250, 63.954, -176.782
13279.637, 62.743, 179.325
13472.794, 61.564, 178.999
13668.760, 60.609, -179.012
13867.577, 59.947, -175.762
14069.285, 59.585, -172.127
14273.928, 59.490, -168.718
14481.547, 59.645, -165.857
14692.186, 60.082, -163.958
14905.889, 60.857, -163.941
15122.700, 61.980, -167.728
15342.664, 63.131, -178.853
15565.829, 63.281, 161.025
15792.239, 61.529, 140.082
16021.942, 58.332, 128.457
16254.986, 54.823, 128.427
16491.422, 52.508, 132.457
16731.295, 50.366, 133.732
16974.656, 48.053, 138.193
17221.559, 45.952, 144.563
17472.053, 44.028, 151.922
17726.189, 42.204, 160.024
17984.021, 40.397, 168.899
18245.605, 38.527, 178.920
18510.994, 36.491, -169.038
18780.242, 34.111, -151.753
19053.408, 31.852, -121.688
19330.547, 33.127, -78.636
19611.715, 38.532, -48.543
19896.975, 43.250, -42.426
