* Measurement data measured by REW V5.19
* Source: ASIO MOTU M Series, In 1
* Format: 1M Log Swept Sine, 1 sweep at -3.0 dBFS  With no timing reference
* Dated: 28 Mar, 2023 12:05:23 PM
* REW Settings:
*  C-weighting compensation: Off
*  Target level: 75.0 dB
* Note: ; 
* Measurement: Mar 28 12:05:23
* Smoothing: 1/48 octave
* Frequency Step: 1/48 octave
* Start Frequency: 10.1 Hz
*
* Freq(Hz), SPL(dB), Phase(degrees)
10.145, 68.821, 75.398
10.293, 68.866, 74.849
10.443, 68.912, 74.117
10.595, 68.983, 73.166
10.749, 69.057, 72.181
10.905, 69.114, 71.448
11.064, 69.165, 70.808
11.225, 69.224, 70.077
11.388, 69.287, 69.311
11.554, 69.350, 68.573
11.722, 69.412, 67.851
11.892, 69.474, 67.130
12.065, 69.536, 66.410
12.241, 69.598, 65.666
12.419, 69.659, 64.911
12.599, 69.718, 64.171
12.782, 69.774, 63.435
12.968, 69.828, 62.692
13.157, 69.880, 61.958
13.348, 69.930, 61.245
13.543, 69.979, 60.546
13.740, 70.027, 59.861
13.939, 70.075, 59.191
14.142, 70.123, 58.533
14.348, 70.171, 57.886
14.557, 70.220, 57.244
14.768, 70.269, 56.608
14.983, 70.318, 55.977
15.201, 70.367, 55.351
15.422, 70.416, 54.730
15.646, 70.464, 54.113
15.874, 70.513, 53.500
16.105, 70.562, 52.888
16.339, 70.611, 52.274
16.577, 70.658, 51.659
16.818, 70.705, 51.042
17.063, 70.750, 50.426
17.311, 70.792, 49.815
17.563, 70.833, 49.215
17.818, 70.873, 48.629
18.077, 70.912, 48.057
18.340, 70.951, 47.497
18.607, 70.991, 46.944
18.877, 71.031, 46.394
19.152, 71.071, 45.844
19.431, 71.111, 45.293
19.713, 71.150, 44.742
20.000, 71.187, 44.197
20.291, 71.224, 43.658
20.586, 71.260, 43.127
20.885, 71.296, 42.602
21.189, 71.332, 42.080
21.497, 71.368, 41.559
21.810, 71.403, 41.039
22.127, 71.437, 40.521
22.449, 71.471, 40.008
22.776, 71.504, 39.502
23.107, 71.536, 39.002
23.443, 71.569, 38.506
23.784, 71.601, 38.013
24.130, 71.634, 37.520
24.481, 71.665, 37.029
24.837, 71.696, 36.542
25.198, 71.725, 36.061
25.565, 71.754, 35.589
25.937, 71.783, 35.126
26.314, 71.813, 34.668
26.697, 71.843, 34.210
27.085, 71.873, 33.749
27.479, 71.901, 33.286
27.879, 71.929, 32.828
28.284, 71.955, 32.379
28.696, 71.981, 31.940
29.113, 72.008, 31.506
29.537, 72.035, 31.070
29.966, 72.062, 30.630
30.402, 72.088, 30.189
30.844, 72.113, 29.753
31.293, 72.137, 29.325
31.748, 72.161, 28.903
32.210, 72.186, 28.482
32.678, 72.210, 28.057
33.154, 72.233, 27.632
33.636, 72.255, 27.211
34.125, 72.276, 26.801
34.621, 72.298, 26.400
35.125, 72.321, 26.000
35.636, 72.344, 25.593
36.154, 72.366, 25.179
36.680, 72.386, 24.772
37.214, 72.406, 24.377
37.755, 72.427, 23.988
38.304, 72.448, 23.588
38.861, 72.469, 23.179
39.427, 72.487, 22.773
40.000, 72.504, 22.375
40.582, 72.521, 21.984
41.172, 72.538, 21.596
41.771, 72.555, 21.215
42.379, 72.573, 20.835
42.995, 72.590, 20.446
43.620, 72.605, 20.054
44.255, 72.619, 19.674
44.898, 72.634, 19.307
45.552, 72.649, 18.934
46.214, 72.663, 18.558
46.886, 72.676, 18.190
47.568, 72.690, 17.822
48.260, 72.703, 17.441
48.962, 72.714, 17.063
49.674, 72.724, 16.702
50.397, 72.737, 16.332
51.130, 72.748, 15.941
51.874, 72.756, 15.567
52.628, 72.767, 15.202
53.394, 72.778, 14.810
54.170, 72.783, 14.418
54.958, 72.787, 14.056
55.758, 72.792, 13.708
56.569, 72.797, 13.374
57.391, 72.804, 13.047
58.226, 72.812, 12.694
59.073, 72.815, 12.324
59.932, 72.812, 11.972
60.804, 72.809, 11.636
61.688, 72.806, 11.307
62.586, 72.805, 10.978
63.496, 72.805, 10.639
64.420, 72.806, 10.296
65.357, 72.806, 9.952
66.307, 72.805, 9.620
67.272, 72.805, 9.304
68.250, 72.805, 8.996
69.243, 72.805, 8.700
70.250, 72.806, 8.392
71.272, 72.802, 8.076
72.309, 72.798, 7.772
73.360, 72.795, 7.448
74.427, 72.788, 7.113
75.510, 72.778, 6.788
76.608, 72.766, 6.495
77.723, 72.756, 6.234
78.853, 72.747, 5.973
80.000, 72.739, 5.717
81.164, 72.732, 5.462
82.344, 72.727, 5.202
83.542, 72.726, 4.923
84.757, 72.723, 4.619
85.990, 72.719, 4.312
87.241, 72.714, 4.004
88.510, 72.706, 3.691
89.797, 72.696, 3.379
91.103, 72.684, 3.061
92.428, 72.670, 2.739
93.773, 72.654, 2.429
95.137, 72.635, 2.121
96.520, 72.615, 1.832
97.924, 72.594, 1.553
99.349, 72.573, 1.271
100.794, 72.552, 0.982
102.260, 72.528, 0.689
103.747, 72.502, 0.398
105.256, 72.477, 0.107
106.787, 72.448, -0.216
108.340, 72.412, -0.507
109.916, 72.379, -0.817
111.515, 72.332, -1.112
113.137, 72.283, -1.338
114.783, 72.231, -1.545
116.452, 72.175, -1.737
118.146, 72.118, -1.900
119.865, 72.056, -2.053
121.608, 71.991, -2.112
123.377, 71.928, -2.126
125.171, 71.863, -2.108
126.992, 71.795, -2.054
128.839, 71.725, -1.947
130.713, 71.654, -1.764
132.615, 71.584, -1.494
134.543, 71.516, -1.125
136.500, 71.451, -0.645
138.486, 71.394, -0.027
140.500, 71.351, 0.734
142.544, 71.330, 1.664
144.617, 71.343, 2.756
146.721, 71.409, 3.956
148.855, 71.542, 5.137
151.020, 71.744, 6.123
153.217, 72.006, 6.727
155.445, 72.300, 6.723
157.706, 72.582, 6.128
160.000, 72.822, 5.028
162.327, 73.001, 3.603
164.688, 73.111, 1.999
167.084, 73.159, 0.439
169.514, 73.164, -1.018
171.980, 73.136, -2.327
174.481, 73.083, -3.493
177.019, 73.014, -4.508
179.594, 72.936, -5.378
182.206, 72.856, -6.127
184.856, 72.776, -6.785
187.545, 72.693, -7.379
190.273, 72.611, -7.917
193.041, 72.528, -8.409
195.849, 72.444, -8.851
198.697, 72.360, -9.236
201.587, 72.274, -9.583
204.520, 72.188, -9.881
207.494, 72.103, -10.124
210.512, 72.019, -10.329
213.574, 71.935, -10.498
216.681, 71.858, -10.638
219.833, 71.784, -10.750
223.030, 71.713, -10.826
226.274, 71.648, -10.893
229.565, 71.587, -10.978
232.905, 71.528, -11.080
236.292, 71.469, -11.203
239.729, 71.408, -11.333
243.216, 71.342, -11.455
246.754, 71.272, -11.550
250.343, 71.201, -11.617
253.984, 71.129, -11.655
257.678, 71.060, -11.672
261.426, 70.992, -11.660
265.229, 70.928, -11.644
269.087, 70.865, -11.624
273.001, 70.805, -11.602
276.972, 70.745, -11.585
281.000, 70.686, -11.577
285.088, 70.624, -11.579
289.234, 70.560, -11.582
293.441, 70.492, -11.578
297.710, 70.421, -11.563
302.040, 70.346, -11.520
306.433, 70.270, -11.453
310.890, 70.194, -11.363
315.412, 70.117, -11.237
320.000, 70.040, -11.081
324.655, 69.964, -10.906
329.377, 69.891, -10.718
334.168, 69.817, -10.512
339.028, 69.745, -10.300
343.959, 69.672, -10.073
348.962, 69.598, -9.836
354.038, 69.522, -9.586
359.188, 69.443, -9.311
364.412, 69.362, -9.002
369.713, 69.280, -8.647
375.090, 69.195, -8.240
380.546, 69.111, -7.767
386.081, 69.030, -7.225
391.697, 68.955, -6.628
397.395, 68.886, -5.964
403.175, 68.825, -5.243
409.039, 68.773, -4.479
414.989, 68.733, -3.682
421.025, 68.702, -2.836
427.149, 68.686, -1.955
433.362, 68.689, -1.057
439.665, 68.712, -0.166
446.060, 68.756, 0.672
452.548, 68.817, 1.423
459.131, 68.893, 2.059
465.809, 68.978, 2.555
472.584, 69.064, 2.902
479.458, 69.147, 3.097
486.432, 69.219, 3.174
493.507, 69.277, 3.171
500.686, 69.322, 3.121
507.968, 69.355, 3.049
515.357, 69.377, 2.983
522.853, 69.392, 2.925
530.458, 69.401, 2.874
538.174, 69.405, 2.827
546.002, 69.403, 2.783
553.943, 69.395, 2.740
562.001, 69.381, 2.706
570.175, 69.361, 2.694
578.469, 69.336, 2.717
586.883, 69.307, 2.778
595.419, 69.277, 2.876
604.080, 69.248, 3.008
612.866, 69.221, 3.167
621.780, 69.195, 3.343
630.824, 69.172, 3.521
640.000, 69.150, 3.688
649.309, 69.126, 3.848
658.753, 69.100, 4.009
668.335, 69.069, 4.192
678.056, 69.037, 4.416
687.919, 69.007, 4.675
697.925, 68.982, 4.951
708.076, 68.960, 5.232
718.376, 68.940, 5.514
728.825, 68.920, 5.794
739.426, 68.900, 6.084
750.181, 68.883, 6.382
761.093, 68.870, 6.676
772.163, 68.861, 6.962
783.394, 68.854, 7.229
794.789, 68.849, 7.464
806.349, 68.842, 7.667
818.078, 68.833, 7.847
829.977, 68.820, 8.016
842.050, 68.804, 8.184
854.297, 68.785, 8.354
866.724, 68.763, 8.526
879.330, 68.740, 8.697
892.120, 68.715, 8.865
905.097, 68.690, 9.029
918.262, 68.662, 9.185
931.618, 68.631, 9.337
945.169, 68.596, 9.486
958.917, 68.558, 9.634
972.864, 68.516, 9.784
987.015, 68.472, 9.938
1001.371, 68.423, 10.095
1015.937, 68.370, 10.260
1030.714, 68.312, 10.431
1045.706, 68.249, 10.614
1060.916, 68.181, 10.804
1076.347, 68.108, 11.008
1092.003, 68.027, 11.229
1107.887, 67.940, 11.473
1124.001, 67.845, 11.746
1140.350, 67.744, 12.055
1156.937, 67.636, 12.406
1173.765, 67.521, 12.810
1190.838, 67.399, 13.274
1208.159, 67.270, 13.808
1225.732, 67.135, 14.423
1243.561, 66.996, 15.122
1261.649, 66.852, 15.921
1280.000, 66.704, 16.828
1298.618, 66.555, 17.853
1317.507, 66.408, 19.005
1336.670, 66.264, 20.294
1356.113, 66.127, 21.721
1375.838, 66.000, 23.279
1395.850, 65.888, 24.971
1416.153, 65.792, 26.791
1436.751, 65.716, 28.714
1457.649, 65.663, 30.719
1478.851, 65.634, 32.787
1500.362, 65.632, 34.894
1522.185, 65.655, 37.012
1544.326, 65.704, 39.118
1566.789, 65.778, 41.189
1589.578, 65.875, 43.204
1612.699, 65.994, 45.149
1636.156, 66.132, 47.009
1659.955, 66.288, 48.764
1684.099, 66.460, 50.402
1708.595, 66.644, 51.916
1733.447, 66.835, 53.301
1758.661, 67.031, 54.557
1784.241, 67.229, 55.688
1810.193, 67.428, 56.707
1836.523, 67.625, 57.617
1863.236, 67.819, 58.435
1890.338, 68.008, 59.177
1917.833, 68.194, 59.853
1945.729, 68.373, 60.476
1974.030, 68.547, 61.059
2002.743, 68.717, 61.611
2031.873, 68.884, 62.129
2061.428, 69.048, 62.620
2091.412, 69.210, 63.093
2121.832, 69.372, 63.546
2152.695, 69.535, 63.977
2184.007, 69.698, 64.390
2215.774, 69.863, 64.785
2248.003, 70.030, 65.153
2280.701, 70.199, 65.490
2313.874, 70.372, 65.796
2347.530, 70.548, 66.064
2381.676, 70.728, 66.290
2416.318, 70.912, 66.469
2451.464, 71.101, 66.592
2487.122, 71.293, 66.657
2523.298, 71.489, 66.655
2560.000, 71.688, 66.577
2597.236, 71.891, 66.419
2635.014, 72.096, 66.177
2673.341, 72.302, 65.848
2712.226, 72.508, 65.432
2751.676, 72.716, 64.928
2791.700, 72.923, 64.338
2832.306, 73.129, 63.667
2873.503, 73.336, 62.911
2915.299, 73.546, 62.068
2957.703, 73.759, 61.132
3000.724, 73.976, 60.091
3044.370, 74.200, 58.928
3088.652, 74.430, 57.623
3133.577, 74.669, 56.146
3179.156, 74.914, 54.462
3225.398, 75.164, 52.527
3272.312, 75.416, 50.293
3319.909, 75.661, 47.714
3368.198, 75.889, 44.751
3417.190, 76.087, 41.388
3466.894, 76.236, 37.640
3517.321, 76.320, 33.557
3568.482, 76.322, 29.244
3620.387, 76.234, 24.854
3673.046, 76.056, 20.584
3726.472, 75.798, 16.627
3780.675, 75.489, 13.115
3835.666, 75.160, 10.082
3891.457, 74.841, 7.469
3948.060, 74.549, 5.163
4005.486, 74.292, 3.031
4063.747, 74.067, 0.968
4122.855, 73.867, -1.078
4182.824, 73.687, -3.122
4243.664, 73.523, -5.146
4305.390, 73.376, -7.124
4368.013, 73.253, -9.040
4431.547, 73.159, -10.889
4496.005, 73.101, -12.684
4561.401, 73.088, -14.453
4627.749, 73.125, -16.243
4695.061, 73.216, -18.126
4763.352, 73.364, -20.185
4832.637, 73.565, -22.512
4902.929, 73.809, -25.196
4974.244, 74.085, -28.314
5046.596, 74.377, -31.940
5120.000, 74.666, -36.167
5194.472, 74.918, -41.081
5270.027, 75.084, -46.674
5346.682, 75.109, -52.769
5424.451, 74.955, -59.042
5503.352, 74.605, -65.069
5583.399, 74.074, -70.456
5664.612, 73.391, -74.958
5747.006, 72.589, -78.404
5830.598, 71.703, -80.790
5915.406, 70.736, -82.187
6001.447, 69.661, -82.564
6088.740, 68.422, -81.634
6177.303, 66.880, -79.094
6267.154, 64.580, -70.378
6358.312, 62.477, -41.743
6450.796, 66.465, -3.813
6544.625, 71.607, 0.111
6639.818, 74.000, -16.118
6736.397, 74.570, -29.687
6834.380, 74.507, -37.610
6933.789, 74.290, -41.758
7034.643, 74.122, -43.645
7136.964, 74.053, -44.384
7240.773, 74.073, -44.629
7346.093, 74.159, -44.746
7452.944, 74.282, -44.948
7561.350, 74.415, -45.341
7671.332, 74.532, -45.954
7782.915, 74.605, -46.785
7896.120, 74.607, -47.654
8010.971, 74.544, -48.347
8127.493, 74.431, -48.757
8245.711, 74.289, -48.881
8365.647, 74.126, -48.806
8487.328, 73.930, -48.582
8610.779, 73.697, -48.180
8736.026, 73.425, -47.555
8863.095, 73.117, -46.711
8992.011, 72.761, -45.672
9122.803, 72.332, -44.375
9255.497, 71.802, -42.499
9390.121, 71.194, -39.554
9526.704, 70.582, -35.178
9665.273, 70.080, -29.415
9805.857, 69.773, -22.773
9948.487, 69.684, -15.905
10093.191, 69.786, -9.296
10240.000, 70.042, -3.237
10388.944, 70.418, 2.093
10540.055, 70.884, 6.590
10693.363, 71.429, 9.998
10848.902, 71.972, 11.990
11006.703, 72.437, 12.594
11166.799, 72.734, 11.874
11329.224, 72.734, 10.243
11494.012, 72.319, 9.456
11661.195, 71.835, 11.117
11830.812, 71.410, 13.173
12002.895, 70.954, 16.278
12177.480, 70.577, 19.882
12354.606, 70.232, 23.939
12534.309, 69.959, 28.514
12716.624, 69.846, 33.398
12901.592, 69.901, 37.541
13089.250, 70.011, 40.483
13279.637, 70.061, 42.202
13472.794, 69.955, 43.426
13668.760, 69.834, 45.169
13867.577, 69.917, 44.477
14069.285, 69.169, 41.164
14273.928, 67.913, 43.731
14481.547, 66.999, 48.138
14692.186, 66.178, 54.378
14905.889, 65.714, 60.848
15122.700, 65.539, 67.194
15342.664, 65.703, 71.159
15565.829, 65.828, 71.164
15792.239, 65.463, 68.076
16021.942, 64.424, 64.623
16254.986, 62.699, 64.227
16491.422, 60.885, 68.732
16731.295, 59.265, 75.431
16974.656, 57.822, 83.999
17221.559, 56.616, 93.986
17472.053, 55.708, 104.697
17726.189, 55.113, 115.474
17984.021, 54.843, 125.481
18245.605, 54.851, 133.514
18510.994, 54.935, 138.408
18780.242, 54.783, 140.352
19053.408, 54.212, 140.589
19330.547, 53.053, 141.326
19611.715, 51.527, 145.032
19896.975, 50.033, 150.274
