* Measurement data measured by REW V5.19
* Source: ASIO MOTU M Series, In 1
* Format: 1M Log Swept Sine, 1 sweep at -3.0 dBFS  With no timing reference
* Dated: 19 Jan, 2023 6:21:44 PM
* REW Settings:
*  C-weighting compensation: Off
*  Target level: 75.0 dB
* Note: ; 
* Measurement: Jan 19 18:21:44
* Smoothing: 1/48 octave
* Frequency Step: 1/48 octave
* Start Frequency: 10.1 Hz
*
* Freq(Hz), SPL(dB), Phase(degrees)
10.145, 71.230, -103.847
10.293, 71.278, -104.574
10.443, 71.327, -105.554
10.595, 71.404, -106.840
10.749, 71.483, -108.187
10.905, 71.542, -109.223
11.064, 71.593, -110.155
11.225, 71.649, -111.215
11.388, 71.706, -112.331
11.554, 71.759, -113.406
11.722, 71.808, -114.455
11.892, 71.853, -115.484
12.065, 71.896, -116.495
12.241, 71.939, -117.510
12.419, 71.980, -118.516
12.599, 72.018, -119.481
12.782, 72.056, -120.422
12.968, 72.095, -121.365
13.157, 72.134, -122.296
13.348, 72.174, -123.208
13.543, 72.214, -124.120
13.740, 72.255, -125.035
13.939, 72.296, -125.956
14.142, 72.335, -126.882
14.348, 72.373, -127.813
14.557, 72.408, -128.745
14.768, 72.440, -129.675
14.983, 72.469, -130.592
15.201, 72.496, -131.493
15.422, 72.521, -132.378
15.646, 72.547, -133.243
15.874, 72.572, -134.095
16.105, 72.599, -134.939
16.339, 72.626, -135.781
16.577, 72.654, -136.627
16.818, 72.680, -137.477
17.063, 72.705, -138.331
17.311, 72.727, -139.183
17.563, 72.747, -140.029
17.818, 72.765, -140.864
18.077, 72.781, -141.684
18.340, 72.795, -142.488
18.607, 72.809, -143.276
18.877, 72.823, -144.050
19.152, 72.837, -144.811
19.431, 72.852, -145.566
19.713, 72.868, -146.319
20.000, 72.884, -147.077
20.291, 72.900, -147.841
20.586, 72.913, -148.612
20.885, 72.924, -149.384
21.189, 72.931, -150.146
21.497, 72.938, -150.890
21.810, 72.944, -151.618
22.127, 72.953, -152.341
22.449, 72.962, -153.074
22.776, 72.971, -153.826
23.107, 72.976, -154.594
23.443, 72.976, -155.359
23.784, 72.971, -156.098
24.130, 72.966, -156.798
24.481, 72.963, -157.469
24.837, 72.964, -158.137
25.198, 72.967, -158.825
25.565, 72.967, -159.533
25.937, 72.962, -160.237
26.314, 72.952, -160.904
26.697, 72.942, -161.517
27.085, 72.938, -162.093
27.479, 72.940, -162.668
27.879, 72.947, -163.274
28.284, 72.952, -163.911
28.696, 72.952, -164.562
29.113, 72.949, -165.205
29.537, 72.944, -165.836
29.966, 72.938, -166.460
30.402, 72.931, -167.084
30.844, 72.921, -167.700
31.293, 72.910, -168.306
31.748, 72.899, -168.903
32.210, 72.888, -169.501
32.678, 72.876, -170.103
33.154, 72.863, -170.703
33.636, 72.849, -171.299
34.125, 72.835, -171.896
34.621, 72.820, -172.493
35.125, 72.802, -173.080
35.636, 72.784, -173.645
36.154, 72.768, -174.200
36.680, 72.753, -174.766
37.214, 72.736, -175.345
37.755, 72.715, -175.914
38.304, 72.694, -176.459
38.861, 72.674, -176.997
39.427, 72.654, -177.546
40.000, 72.633, -178.106
40.582, 72.610, -178.663
41.172, 72.585, -179.218
41.771, 72.560, -179.773
42.379, 72.534, 179.681
42.995, 72.509, 179.141
43.620, 72.485, 178.599
44.255, 72.458, 178.062
44.898, 72.431, 177.549
45.552, 72.404, 177.055
46.214, 72.376, 176.583
46.886, 72.351, 176.135
47.568, 72.330, 175.673
48.260, 72.305, 175.173
48.962, 72.273, 174.678
49.674, 72.240, 174.184
50.397, 72.201, 173.661
51.130, 72.154, 173.203
51.874, 72.124, 172.795
52.628, 72.105, 172.203
53.394, 72.053, 171.519
54.170, 71.985, 171.096
54.958, 71.956, 170.781
55.758, 71.940, 170.268
56.569, 71.902, 169.724
57.391, 71.863, 169.274
58.226, 71.828, 168.810
59.073, 71.789, 168.345
59.932, 71.748, 167.875
60.804, 71.702, 167.406
61.688, 71.656, 166.954
62.586, 71.610, 166.489
63.496, 71.563, 166.041
64.420, 71.518, 165.564
65.357, 71.464, 165.099
66.307, 71.414, 164.691
67.272, 71.367, 164.249
68.250, 71.319, 163.797
69.243, 71.263, 163.287
70.250, 71.191, 162.889
71.272, 71.142, 162.591
72.309, 71.100, 162.153
73.360, 71.045, 161.728
74.427, 70.992, 161.330
75.510, 70.937, 160.926
76.608, 70.878, 160.522
77.723, 70.818, 160.132
78.853, 70.759, 159.714
80.000, 70.692, 159.305
81.164, 70.628, 158.929
82.344, 70.562, 158.535
83.542, 70.490, 158.165
84.757, 70.417, 157.848
85.990, 70.352, 157.522
87.241, 70.284, 157.125
88.510, 70.208, 156.701
89.797, 70.126, 156.369
91.103, 70.060, 156.053
92.428, 69.989, 155.687
93.773, 69.911, 155.372
95.137, 69.836, 155.082
96.520, 69.758, 154.743
97.924, 69.672, 154.401
99.349, 69.581, 154.051
100.794, 69.485, 153.787
102.260, 69.398, 153.512
103.747, 69.305, 153.235
105.256, 69.210, 152.991
106.787, 69.115, 152.740
108.340, 69.017, 152.509
109.916, 68.915, 152.257
111.515, 68.806, 152.076
113.137, 68.697, 151.910
114.783, 68.586, 151.793
116.452, 68.473, 151.644
118.146, 68.354, 151.508
119.865, 68.230, 151.403
121.608, 68.107, 151.347
123.377, 67.973, 151.333
125.171, 67.841, 151.472
126.992, 67.702, 151.564
128.839, 67.552, 151.834
130.713, 67.431, 152.063
132.615, 67.293, 152.232
134.543, 67.145, 152.487
136.500, 66.979, 152.962
138.486, 66.806, 153.646
140.500, 66.627, 154.544
142.544, 66.454, 155.834
144.617, 66.328, 157.485
146.721, 66.265, 159.592
148.855, 66.314, 161.933
151.020, 66.471, 163.831
153.217, 66.683, 165.375
155.445, 66.974, 166.282
157.706, 67.272, 166.538
160.000, 67.550, 166.310
162.327, 67.795, 165.651
164.688, 68.007, 164.637
167.084, 68.171, 163.312
169.514, 68.275, 161.806
171.980, 68.317, 160.224
174.481, 68.300, 158.718
177.019, 68.243, 157.360
179.594, 68.157, 156.189
182.206, 68.055, 155.154
184.856, 67.941, 154.244
187.545, 67.817, 153.502
190.273, 67.693, 152.882
193.041, 67.564, 152.363
195.849, 67.441, 151.930
198.697, 67.311, 151.576
201.587, 67.192, 151.296
204.520, 67.071, 151.052
207.494, 66.959, 150.875
210.512, 66.849, 150.708
213.574, 66.744, 150.559
216.681, 66.644, 150.394
219.833, 66.543, 150.213
223.030, 66.441, 150.010
226.274, 66.334, 149.819
229.565, 66.222, 149.644
232.905, 66.105, 149.484
236.292, 65.983, 149.371
239.729, 65.859, 149.295
243.216, 65.734, 149.245
246.754, 65.609, 149.213
250.343, 65.479, 149.248
253.984, 65.353, 149.274
257.678, 65.224, 149.344
261.426, 65.096, 149.469
265.229, 64.968, 149.567
269.087, 64.842, 149.719
273.001, 64.712, 149.912
276.972, 64.576, 150.160
281.000, 64.458, 150.423
285.088, 64.338, 150.731
289.234, 64.221, 151.023
293.441, 64.104, 151.307
297.710, 63.988, 151.658
302.040, 63.874, 152.016
306.433, 63.760, 152.370
310.890, 63.648, 152.696
315.412, 63.533, 153.024
320.000, 63.414, 153.400
324.655, 63.298, 153.723
329.377, 63.179, 154.056
334.168, 63.051, 154.445
339.028, 62.913, 154.869
343.959, 62.779, 155.331
348.962, 62.640, 155.827
354.038, 62.495, 156.389
359.188, 62.346, 157.046
364.412, 62.193, 157.757
369.713, 62.040, 158.558
375.090, 61.880, 159.452
380.546, 61.724, 160.462
386.081, 61.568, 161.634
391.697, 61.417, 162.957
397.395, 61.284, 164.441
403.175, 61.165, 166.182
409.039, 61.079, 168.099
414.989, 61.031, 170.179
421.025, 61.039, 172.290
427.149, 61.115, 174.401
433.362, 61.259, 176.344
439.665, 61.452, 177.956
446.060, 61.682, 179.154
452.548, 61.923, 179.827
459.131, 62.154, -179.948
465.809, 62.333, 179.885
472.584, 62.469, 179.493
479.458, 62.556, 178.992
486.432, 62.591, 178.462
493.507, 62.583, 177.986
500.686, 62.549, 177.660
507.968, 62.486, 177.470
515.357, 62.418, 177.513
522.853, 62.340, 177.661
530.458, 62.264, 177.995
538.174, 62.196, 178.434
546.002, 62.142, 178.884
553.943, 62.097, 179.397
562.001, 62.056, 179.960
570.175, 62.022, -179.454
578.469, 61.992, -178.888
586.883, 61.966, -178.319
595.419, 61.945, -177.754
604.080, 61.931, -177.242
612.866, 61.917, -176.763
621.780, 61.893, -176.269
630.824, 61.865, -175.815
640.000, 61.835, -175.338
649.309, 61.797, -174.844
658.753, 61.756, -174.297
668.335, 61.711, -173.721
678.056, 61.663, -173.128
687.919, 61.603, -172.450
697.925, 61.530, -171.707
708.076, 61.446, -170.734
718.376, 61.383, -169.277
728.825, 61.433, -167.630
739.426, 61.557, -166.580
750.181, 61.645, -166.081
761.093, 61.686, -165.672
772.163, 61.700, -165.199
783.394, 61.702, -164.629
794.789, 61.705, -164.022
806.349, 61.707, -163.378
818.078, 61.710, -162.674
829.977, 61.713, -161.979
842.050, 61.715, -161.271
854.297, 61.717, -160.543
866.724, 61.720, -159.806
879.330, 61.721, -159.069
892.120, 61.714, -158.276
905.097, 61.703, -157.438
918.262, 61.691, -156.508
931.618, 61.683, -155.469
945.169, 61.685, -154.338
958.917, 61.702, -153.135
972.864, 61.742, -151.914
987.015, 61.796, -150.729
1001.371, 61.860, -149.547
1015.937, 61.936, -148.439
1030.714, 62.015, -147.349
1045.706, 62.097, -146.285
1060.916, 62.188, -145.268
1076.347, 62.274, -144.243
1092.003, 62.365, -143.244
1107.887, 62.462, -142.250
1124.001, 62.559, -141.261
1140.350, 62.660, -140.257
1156.937, 62.763, -139.244
1173.765, 62.872, -138.211
1190.838, 62.991, -137.169
1208.159, 63.116, -136.100
1225.732, 63.248, -135.028
1243.561, 63.393, -133.938
1261.649, 63.552, -132.874
1280.000, 63.726, -131.837
1298.618, 63.914, -130.847
1317.507, 64.110, -129.908
1336.670, 64.318, -129.039
1356.113, 64.536, -128.248
1375.838, 64.760, -127.547
1395.850, 64.991, -126.948
1416.153, 65.229, -126.454
1436.751, 65.468, -126.066
1457.649, 65.703, -125.777
1478.851, 65.933, -125.576
1500.362, 66.154, -125.452
1522.185, 66.367, -125.386
1544.326, 66.575, -125.377
1566.789, 66.780, -125.400
1589.578, 66.980, -125.452
1612.699, 67.168, -125.503
1636.156, 67.351, -125.556
1659.955, 67.538, -125.630
1684.099, 67.721, -125.695
1708.595, 67.900, -125.758
1733.447, 68.084, -125.845
1758.661, 68.268, -125.930
1784.241, 68.451, -126.030
1810.193, 68.639, -126.153
1836.523, 68.833, -126.303
1863.236, 69.027, -126.478
1890.338, 69.224, -126.693
1917.833, 69.423, -126.949
1945.729, 69.623, -127.246
1974.030, 69.826, -127.604
2002.743, 70.031, -128.005
2031.873, 70.242, -128.491
2061.428, 70.450, -129.034
2091.412, 70.657, -129.661
2121.832, 70.864, -130.375
2152.695, 71.070, -131.176
2184.007, 71.272, -132.077
2215.774, 71.466, -133.066
2248.003, 71.654, -134.160
2280.701, 71.829, -135.341
2313.874, 71.989, -136.614
2347.530, 72.136, -137.967
2381.676, 72.265, -139.397
2416.318, 72.373, -140.883
2451.464, 72.461, -142.419
2487.122, 72.530, -143.981
2523.298, 72.577, -145.555
2560.000, 72.596, -147.107
2597.236, 72.597, -148.634
2635.014, 72.573, -150.104
2673.341, 72.524, -151.498
2712.226, 72.461, -152.814
2751.676, 72.381, -154.018
2791.700, 72.284, -155.112
2832.306, 72.175, -156.084
2873.503, 72.057, -156.928
2915.299, 71.932, -157.641
2957.703, 71.804, -158.227
3000.724, 71.672, -158.680
3044.370, 71.535, -159.001
3088.652, 71.398, -159.191
3133.577, 71.266, -159.253
3179.156, 71.139, -159.186
3225.398, 71.021, -158.998
3272.312, 70.913, -158.693
3319.909, 70.812, -158.279
3368.198, 70.720, -157.763
3417.190, 70.645, -157.157
3466.894, 70.589, -156.473
3517.321, 70.545, -155.711
3568.482, 70.518, -154.889
3620.387, 70.508, -154.006
3673.046, 70.522, -153.083
3726.472, 70.555, -152.121
3780.675, 70.610, -151.134
3835.666, 70.689, -150.130
3891.457, 70.791, -149.121
3948.060, 70.925, -148.137
4005.486, 71.090, -147.192
4063.747, 71.284, -146.306
4122.855, 71.508, -145.512
4182.824, 71.772, -144.862
4243.664, 72.074, -144.397
4305.390, 72.406, -144.164
4368.013, 72.775, -144.245
4431.547, 73.162, -144.714
4496.005, 73.564, -145.624
4561.401, 73.968, -146.988
4627.749, 74.366, -148.834
4695.061, 74.738, -151.185
4763.352, 75.073, -154.101
4832.637, 75.346, -157.576
4902.929, 75.521, -161.505
4974.244, 75.581, -165.738
5046.596, 75.514, -170.046
5120.000, 75.322, -174.174
5194.472, 75.020, -177.910
5270.027, 74.621, 178.907
5346.682, 74.159, 176.365
5424.451, 73.664, 174.489
5503.352, 73.155, 173.275
5583.399, 72.662, 172.703
5664.612, 72.197, 172.512
5747.006, 71.734, 172.780
5830.598, 71.313, 173.635
5915.406, 70.953, 174.807
6001.447, 70.644, 176.219
6088.740, 70.396, 177.833
6177.303, 70.213, 179.587
6267.154, 70.097, -178.596
6358.312, 70.047, -176.787
6450.796, 70.060, -175.053
6544.625, 70.146, -173.480
6639.818, 70.305, -172.160
6736.397, 70.531, -171.205
6834.380, 70.826, -170.772
6933.789, 71.181, -171.082
7034.643, 71.565, -172.359
7136.964, 71.936, -174.816
7240.773, 72.213, -178.572
7346.093, 72.297, 176.569
7452.944, 72.117, 171.278
7561.350, 71.691, 166.347
7671.332, 71.067, 162.298
7782.915, 70.316, 159.328
7896.120, 69.494, 157.431
8010.971, 68.629, 156.581
8127.493, 67.747, 156.757
8245.711, 66.879, 158.029
8365.647, 66.084, 160.274
8487.328, 65.370, 163.161
8610.779, 64.736, 166.570
8736.026, 64.179, 170.431
8863.095, 63.708, 174.611
8992.011, 63.309, 179.066
9122.803, 62.978, -176.168
9255.497, 62.731, -170.987
9390.121, 62.602, -165.461
9526.704, 62.599, -159.838
9665.273, 62.720, -154.221
9805.857, 62.966, -148.630
9948.487, 63.348, -143.114
10093.191, 63.888, -137.777
10240.000, 64.619, -132.771
10388.944, 65.574, -128.354
10540.055, 66.778, -124.943
10693.363, 68.277, -123.170
10848.902, 70.089, -124.407
11006.703, 72.015, -130.836
11166.799, 73.465, -144.350
11329.224, 73.669, -162.264
11494.012, 72.548, -176.868
11661.195, 70.832, 175.715
11830.812, 69.198, 173.976
12002.895, 67.896, 175.602
12177.480, 66.963, 179.110
12354.606, 66.398, -176.379
12534.309, 66.195, -171.575
12716.624, 66.344, -166.991
12901.592, 66.875, -163.249
13089.250, 67.823, -161.322
13279.637, 69.151, -162.851
13472.794, 70.596, -170.334
13668.760, 71.449, 174.714
13867.577, 70.977, 156.490
14069.285, 69.294, 142.569
14273.928, 67.173, 135.134
14481.547, 65.148, 131.639
14692.186, 63.273, 129.859
14905.889, 61.435, 128.074
15122.700, 59.038, 124.958
15342.664, 54.967, 136.215
15565.829, 52.885, 164.930
15792.239, 54.323, -174.388
16021.942, 54.990, -168.371
16254.986, 56.030, -155.325
16491.422, 58.113, -151.594
16731.295, 59.295, -154.976
16974.656, 60.019, -157.538
17221.559, 60.829, -160.124
17472.053, 61.635, -164.994
17726.189, 62.145, -171.845
17984.021, 62.365, -178.480
18245.605, 62.732, 175.833
18510.994, 63.712, 167.636
18780.242, 64.840, 149.098
19053.408, 64.150, 119.470
19330.547, 60.913, 97.895
19611.715, 57.079, 90.733
19896.975, 54.343, 89.246
