* Measurement data measured by REW V5.20.13
* Source: Input device not selected, no input selected, L, volume: no control
* Format: 1M Log Swept Sine, 1 sweep at -10.0 dBFS with no timing reference
* Dated: Jul 6, 2023 10:40:29 AM
* REW Settings:
*  C-weighting compensation: Off
*  Target level: 75.0 dB
* Note: 
* Measurement: BLONxHBB Z300 R
* Smoothing: None
* Frequency Step: 1/48 octave
* Start Frequency: 20.000 Hz
*
* Freq(Hz)	SPL(dB)	Phase(degrees)
20.000000	103.328	-168.8867
20.299999	103.336	-169.2222
20.600000	103.354	-169.5622
20.900000	103.378	-169.9377
21.200001	103.404	-170.3770
21.400000	103.420	-170.7030
21.799999	103.443	-171.3933
22.000000	103.448	-171.7436
22.400000	103.445	-172.4164
22.700001	103.436	-172.8589
23.000000	103.424	-173.2367
23.299999	103.416	-173.5590
23.600000	103.414	-173.8420
24.000000	103.422	-174.2097
24.299999	103.435	-174.5202
24.700001	103.451	-174.9908
25.000000	103.457	-175.3657
25.400000	103.457	-175.8502
25.799999	103.453	-176.2638
26.200001	103.454	-176.6211
26.500000	103.461	-176.8847
26.900000	103.471	-177.2608
27.200001	103.476	-177.5676
27.600000	103.479	-177.9660
28.000000	103.484	-178.3229
28.500000	103.502	-178.7711
29.000000	103.526	-179.3427
29.500000	103.530	179.9611
30.000000	103.505	179.3520
30.400000	103.485	179.0075
30.700001	103.481	178.7937
31.100000	103.488	178.4506
31.500000	103.490	177.9624
32.000000	103.454	177.2986
32.500000	103.380	176.9148
33.000000	103.334	176.9243
33.500000	103.358	176.9340
34.000000	103.405	176.5126
34.500000	103.413	175.7339
35.000000	103.359	175.0902
35.500000	103.298	174.8560
36.000000	103.289	174.7974
36.500000	103.323	174.4979
37.000000	103.344	173.8963
37.500000	103.323	173.2580
38.200001	103.265	172.6954
38.700001	103.246	172.4199
39.500000	103.230	171.8366
40.000000	103.206	171.4865
40.599998	103.183	171.2151
41.200001	103.189	170.9200
41.799999	103.194	170.3893
42.500000	103.146	169.7210
43.099998	103.088	169.4556
43.700001	103.068	169.3254
44.400002	103.067	168.9006
45.000000	103.033	168.4458
45.500000	103.000	168.2094
46.200001	102.988	167.9060
46.799999	102.979	167.3896
47.500000	102.916	166.7817
48.200001	102.852	166.5177
48.700001	102.833	166.3298
49.400002	102.792	165.8856
50.000000	102.729	165.6452
50.799999	102.691	165.5991
51.500000	102.688	165.2599
52.200001	102.634	164.7792
53.000000	102.556	164.5724
53.799999	102.510	164.3445
54.500000	102.443	164.1134
55.200001	102.390	164.1758
56.000000	102.403	164.0772
57.000000	102.373	163.3949
58.000000	102.337	163.1301
59.000000	102.337	162.2898
60.000000	102.199	161.7195
60.799999	102.147	161.9641
61.500000	102.160	161.9447
62.200001	102.156	161.7276
63.000000	102.137	161.4873
64.000000	102.075	161.1071
65.000000	101.985	161.2160
66.000000	101.991	161.3326
67.000000	101.980	160.8458
68.000000	101.923	160.4628
69.000000	101.889	160.1314
70.000000	101.855	159.7084
71.000000	101.820	159.3293
72.000000	101.789	159.0157
73.000000	101.768	158.7058
74.000000	101.729	158.3217
75.000000	101.663	158.1723
76.199997	101.641	158.1193
77.500000	101.603	157.5983
78.800003	101.546	157.1732
80.000000	101.479	156.6699
81.199997	101.417	156.4041
82.500000	101.361	156.0289
83.800003	101.300	155.7278
85.000000	101.234	155.5037
86.199997	101.185	155.2887
87.500000	101.112	154.9976
88.500000	101.065	154.8345
90.000000	100.997	154.5089
91.199997	100.937	154.2751
92.500000	100.876	154.0848
93.800003	100.818	153.8817
95.000000	100.762	153.6910
96.199997	100.704	153.5090
97.500000	100.644	153.3339
98.800003	100.589	153.1726
100.000000	100.546	153.0137
101.500000	100.470	152.8025
103.000000	100.408	152.6842
104.400002	100.341	152.4880
106.000000	100.268	152.3777
107.500000	100.203	152.1859
109.000000	100.143	152.0383
110.599998	100.075	151.8832
112.000000	100.013	151.7679
113.800003	99.941	151.7070
115.000000	99.884	151.5713
117.199997	99.782	151.3698
118.000000	99.754	151.3778
120.599998	99.611	151.1231
122.000000	99.598	151.1297
124.099998	99.521	151.0136
125.000000	99.486	150.9703
126.500000	99.428	150.9286
128.000000	99.369	150.8707
131.500000	99.237	150.7755
132.000000	99.221	150.7452
134.000000	99.145	150.7031
136.000000	99.060	150.6517
138.000000	98.998	150.5729
140.000000	98.926	150.6026
143.000000	98.812	150.5410
145.000000	98.739	150.5392
147.500000	98.648	150.5451
150.000000	98.551	150.3391
152.500000	98.480	150.5054
155.000000	98.374	150.5858
157.500000	98.303	150.6264
160.000000	98.206	150.7167
162.500000	98.132	150.8395
165.000000	98.040	150.9841
167.500000	97.959	151.1648
170.000000	97.888	151.3364
172.500000	97.835	151.5782
175.000000	97.787	151.8165
177.500000	97.747	151.9495
180.000000	97.703	152.0181
182.500000	97.663	152.0701
185.000000	97.628	152.1431
187.500000	97.577	152.1887
190.000000	97.527	152.2242
192.500000	97.473	152.2325
195.000000	97.418	152.2316
197.500000	97.359	152.2739
200.000000	97.299	152.3587
203.000000	97.230	152.4680
206.000000	97.160	152.5632
209.000000	97.089	152.6507
212.000000	97.014	152.8000
214.000000	96.975	152.8617
218.000000	96.879	153.0781
220.000000	96.832	153.1955
224.000000	96.744	153.4249
227.000000	96.682	153.6051
230.000000	96.614	153.8416
233.000000	96.556	154.0229
236.000000	96.504	154.2923
240.000000	96.440	154.6721
243.000000	96.392	154.8763
247.000000	96.340	155.0667
250.000000	96.279	155.1362
254.000000	96.254	155.4514
258.000000	96.192	155.6242
262.000000	96.134	155.8265
265.000000	96.096	155.9816
269.000000	96.030	156.1792
272.000000	95.991	156.4082
276.000000	95.931	156.6294
280.000000	95.875	156.8362
285.000000	95.804	157.1503
290.000000	95.737	157.4837
295.000000	95.668	157.8113
300.000000	95.599	158.1734
304.000000	95.559	158.3988
307.000000	95.522	158.6282
311.000000	95.466	158.8565
315.000000	95.421	159.1976
320.000000	95.362	159.4879
325.000000	95.306	159.8447
330.000000	95.253	160.1637
335.000000	95.192	160.5195
340.000000	95.148	160.8678
345.000000	95.096	161.2000
350.000000	95.055	161.3362
355.000000	95.004	161.8784
360.000000	94.956	162.2708
365.000000	94.911	162.6092
370.000000	94.866	162.9412
375.000000	94.823	163.2572
382.000000	94.769	163.7480
387.000000	94.735	164.1241
395.000000	94.674	164.6536
400.000000	94.633	165.0208
406.000000	94.603	165.4179
412.000000	94.565	165.8283
418.000000	94.529	166.2402
425.000000	94.489	166.6882
431.000000	94.454	167.0981
437.000000	94.422	167.5291
444.000000	94.382	168.0055
450.000000	94.360	168.2779
455.000000	94.332	168.7247
462.000000	94.298	169.1778
468.000000	94.268	169.6085
475.000000	94.239	170.0646
482.000000	94.209	170.5415
487.000000	94.192	170.8738
494.000000	94.161	171.3100
500.000000	94.138	171.7150
508.000000	94.115	172.2825
515.000000	94.089	172.7275
522.000000	94.072	173.1850
530.000000	94.051	173.7272
538.000000	94.025	174.2074
545.000000	94.005	174.7231
552.000000	93.987	175.1716
560.000000	93.966	175.6931
570.000000	93.945	176.3540
580.000000	93.918	177.0116
590.000000	93.896	177.6663
600.000000	93.886	178.3405
608.000000	93.869	178.8600
615.000000	93.855	179.3037
622.000000	93.848	179.7791
630.000000	93.837	-179.6798
640.000000	93.828	-179.0229
650.000000	93.821	-178.4984
660.000000	93.813	-177.7111
670.000000	93.807	-177.0573
680.000000	93.807	-176.3950
690.000000	93.803	-175.7268
700.000000	93.799	-175.0399
710.000000	93.803	-174.3367
720.000000	93.807	-173.6480
730.000000	93.813	-172.9091
740.000000	93.826	-172.1918
750.000000	93.856	-171.2887
762.000000	93.874	-170.4643
775.000000	93.918	-169.5126
788.000000	93.977	-168.6511
800.000000	94.019	-167.8815
812.000000	94.071	-167.2953
825.000000	94.120	-166.5646
838.000000	94.167	-165.8678
850.000000	94.195	-165.2973
862.000000	94.261	-164.5457
875.000000	94.307	-163.8441
885.000000	94.350	-163.2904
900.000000	94.429	-162.4724
912.000000	94.477	-161.9165
925.000000	94.545	-161.2691
938.000000	94.616	-160.6522
950.000000	94.686	-160.0133
962.000000	94.758	-159.6158
975.000000	94.837	-159.1062
988.000000	94.921	-158.6170
1000.000000	95.009	-158.1925
1015.000000	95.103	-157.6812
1030.000000	95.206	-157.2529
1044.000000	95.300	-156.8720
1060.000000	95.410	-156.4938
1075.000000	95.513	-156.1468
1090.000000	95.591	-155.8720
1106.000000	95.676	-155.6249
1120.000000	95.753	-155.4069
1138.000000	95.847	-155.1909
1150.000000	95.908	-154.9991
1172.000000	96.018	-154.8678
1180.000000	96.059	-154.8360
1206.000000	96.183	-154.7118
1220.000000	96.286	-154.6551
1241.000000	96.474	-154.6138
1250.000000	96.544	-154.5840
1265.000000	96.684	-154.6231
1280.000000	96.809	-154.6103
1315.000000	97.097	-154.6928
1320.000000	97.137	-154.7160
1340.000000	97.302	-154.7800
1360.000000	97.503	-154.8819
1380.000000	97.670	-154.9972
1400.000000	97.831	-155.1771
1430.000000	98.072	-155.4131
1450.000000	98.234	-155.6436
1475.000000	98.416	-155.8852
1500.000000	98.596	-156.1975
1525.000000	98.777	-156.5049
1550.000000	98.909	-156.8762
1575.000000	99.024	-157.2038
1600.000000	99.137	-157.5796
1625.000000	99.248	-157.9690
1650.000000	99.349	-158.3815
1675.000000	99.459	-158.7756
1700.000000	99.564	-159.1901
1725.000000	99.654	-159.6282
1750.000000	99.734	-160.1055
1775.000000	99.823	-160.5200
1800.000000	99.903	-160.9922
1825.000000	99.981	-161.4468
1850.000000	100.053	-161.9063
1875.000000	100.127	-162.3864
1900.000000	100.193	-162.8683
1925.000000	100.270	-163.3364
1950.000000	100.340	-163.8420
1975.000000	100.417	-164.3322
2000.000000	100.497	-164.9124
2030.000000	100.569	-165.6752
2060.000000	100.638	-166.4572
2090.000000	100.697	-167.2634
2120.000000	100.746	-168.0833
2140.000000	100.776	-168.6168
2180.000000	100.822	-169.6917
2200.000000	100.840	-170.2381
2240.000000	100.872	-171.2790
2270.000000	100.887	-172.0788
2300.000000	100.898	-172.8275
2330.000000	100.903	-173.5972
2360.000000	100.900	-174.3325
2400.000000	100.895	-175.2559
2430.000000	100.885	-175.9873
2470.000000	100.867	-176.9107
2500.000000	100.853	-177.6245
2540.000000	100.816	-178.5000
2580.000000	100.771	-179.3835
2620.000000	100.721	179.8083
2650.000000	100.677	179.2069
2690.000000	100.616	178.4883
2720.000000	100.567	177.9723
2760.000000	100.494	177.3336
2800.000000	100.418	176.7167
2850.000000	100.323	176.0723
2900.000000	100.221	175.4932
2950.000000	100.121	175.0208
3000.000000	100.021	174.6412
3040.000000	99.950	174.4506
3070.000000	99.898	174.3071
3110.000000	99.842	174.1885
3150.000000	99.799	174.0760
3200.000000	99.760	173.8881
3250.000000	99.729	173.6401
3300.000000	99.691	173.2770
3350.000000	99.653	172.9276
3400.000000	99.609	172.5599
3450.000000	99.547	172.1950
3500.000000	99.490	171.8893
3550.000000	99.426	171.7139
3600.000000	99.370	171.6069
3650.000000	99.324	171.5383
3700.000000	99.294	171.4917
3750.000000	99.277	171.4230
3820.000000	99.269	171.2161
3870.000000	99.274	170.9825
3950.000000	99.276	170.4732
4000.000000	99.272	170.1249
4060.000000	99.261	169.6816
4120.000000	99.250	169.2368
4180.000000	99.241	168.7686
4250.000000	99.236	168.1683
4310.000000	99.224	167.5527
4370.000000	99.207	166.8738
4440.000000	99.177	166.0040
4500.000000	99.134	165.2330
4550.000000	99.091	164.5326
4620.000000	99.012	163.5909
4680.000000	98.927	162.7797
4750.000000	98.815	161.8787
4820.000000	98.688	160.9930
4870.000000	98.586	160.3997
4940.000000	98.423	159.6109
5000.000000	98.269	158.9678
5080.000000	98.055	158.2272
5150.000000	97.848	157.6692
5220.000000	97.632	157.2261
5300.000000	97.378	156.8404
5380.000000	97.110	156.5910
5450.000000	96.869	156.5009
5520.000000	96.624	156.5604
5600.000000	96.340	156.7543
5700.000000	95.983	157.2825
5800.000000	95.641	158.0563
5900.000000	95.312	159.0485
6000.000000	94.994	160.2912
6080.000000	94.756	161.4453
6150.000000	94.566	162.5250
6220.000000	94.389	163.7500
6300.000000	94.200	165.2013
6400.000000	93.993	167.1740
6500.000000	93.818	169.2857
6600.000000	93.672	171.5082
6700.000000	93.556	173.8707
6800.000000	93.478	176.2457
6900.000000	93.432	178.7539
7000.000000	93.409	-178.6491
7100.000000	93.441	-176.0062
7200.000000	93.513	-173.3438
7300.000000	93.638	-170.7016
7400.000000	93.799	-168.0598
7500.000000	94.005	-165.5085
7620.000000	94.316	-162.4561
7750.000000	94.737	-159.1796
7880.000000	95.246	-156.1368
8000.000000	95.838	-153.5471
8120.000000	96.533	-151.2905
8250.000000	97.441	-149.3635
8380.000000	98.536	-148.2847
8500.000000	99.745	-148.4354
8620.000000	101.167	-150.3435
8750.000000	102.928	-155.7047
8850.000000	104.336	-163.6454
9000.000000	105.859	176.2655
9120.000000	105.666	156.2122
9250.000000	104.084	139.0652
9380.000000	102.050	129.2634
9500.000000	100.274	124.8856
9620.000000	98.706	123.1611
9750.000000	97.248	123.1000
9880.000000	96.012	124.2745
10000.000000	95.034	126.0313
10150.000000	94.012	128.7678
10300.000000	93.175	131.9045
10440.000000	92.525	134.9938
10600.000000	91.926	138.6266
10750.000000	91.482	141.9755
10900.000000	91.133	145.4305
11060.000000	90.869	149.4180
11200.000000	90.794	153.0924
11380.000000	91.006	157.5779
11500.000000	91.393	159.6965
11720.000000	92.330	159.2375
11800.000000	92.630	157.6465
12060.000000	92.997	148.9335
12200.000000	92.799	143.6159
12410.000000	92.195	136.4885
12500.000000	91.820	133.9791
12650.000000	91.087	130.6589
12800.000000	90.276	128.5414
13150.000000	88.317	127.5970
13200.000000	88.045	127.8199
13400.000000	87.015	129.5606
13600.000000	86.082	132.3151
13800.000000	85.655	135.8615
14000.000000	85.029	139.9709
14300.000000	84.250	146.9559
14500.000000	83.894	152.0122
14750.000000	83.605	158.5196
15000.000000	83.479	165.3416
15250.000000	83.552	172.0977
15500.000000	83.693	178.6956
15750.000000	83.857	-175.1032
16000.000000	84.321	-169.4299
16250.000000	85.145	-165.5765
16500.000000	86.461	-166.8495
16750.000000	85.825	178.0226
17000.000000	84.810	-161.5321
17250.000000	87.505	-159.9663
17500.000000	89.258	-172.0254
17750.000000	89.310	169.2109
18000.000000	87.715	154.7107
18250.000000	85.685	147.6740
18500.000000	83.907	145.6855
18750.000000	82.523	145.8350
19000.000000	81.553	146.0319
19250.000000	80.963	144.7027
19500.000000	80.794	140.0958
19750.000000	80.066	130.1613
20000.000000	78.048	117.3826
