* Measurement data measured by REW V5.20.13
* Source: Input device not selected, no input selected, L, volume: no control
* Format: 1M Log Swept Sine, 1 sweep at -10.0 dBFS with no timing reference
* Dated: Jul 22, 2023 10:05:04 PM
* REW Settings:
*  C-weighting compensation: Off
*  Target level: 75.0 dB
* Note: 
* Measurement: Hmusic WE01 R
* Smoothing: None
* Frequency Step: 1/48 octave
* Start Frequency: 20.000 Hz
*
* Freq(Hz)	SPL(dB)	Phase(degrees)
20.000000	109.426	166.5872
20.299999	109.405	166.1365
20.600000	109.383	165.6897
20.900000	109.360	165.2522
21.200001	109.337	164.8158
21.400000	109.322	164.5277
21.799999	109.291	163.9698
22.000000	109.275	163.6959
22.400000	109.243	163.1554
22.700001	109.219	162.7615
23.000000	109.195	162.3749
23.299999	109.171	161.9902
23.600000	109.147	161.6102
24.000000	109.114	161.1129
24.299999	109.088	160.7412
24.700001	109.053	160.2576
25.000000	109.027	159.9045
25.400000	108.992	159.4377
25.799999	108.956	158.9799
26.200001	108.920	158.5242
26.500000	108.892	158.1871
26.900000	108.850	157.7550
27.200001	108.817	157.4388
27.600000	108.775	157.0310
28.000000	108.734	156.6306
28.500000	108.685	156.1119
29.000000	108.632	155.5849
29.500000	108.574	155.0737
30.000000	108.515	154.6112
30.400000	108.473	154.2625
30.700001	108.444	154.0052
31.100000	108.407	153.6528
31.500000	108.369	153.2829
32.000000	108.318	152.8183
32.500000	108.264	152.3701
33.000000	108.208	151.9556
33.500000	108.153	151.5590
34.000000	108.094	151.1745
34.500000	108.043	150.7927
35.000000	107.991	150.4235
35.500000	107.940	150.0591
36.000000	107.888	149.7013
36.500000	107.838	149.3408
37.000000	107.786	148.9864
37.500000	107.734	148.6366
38.200001	107.655	148.1646
38.700001	107.599	147.8390
39.500000	107.509	147.3360
40.000000	107.454	147.0292
40.599998	107.387	146.6643
41.200001	107.320	146.3120
41.799999	107.254	145.9712
42.500000	107.177	145.5827
43.099998	107.111	145.2582
43.700001	107.046	144.9420
44.400002	106.970	144.5838
45.000000	106.905	144.2874
45.500000	106.851	144.0459
46.200001	106.777	143.7143
46.799999	106.712	143.4340
47.500000	106.637	143.1215
48.200001	106.564	142.8212
48.700001	106.512	142.6028
49.400002	106.437	142.3008
50.000000	106.370	142.0635
50.799999	106.291	141.7828
51.500000	106.223	141.5254
52.200001	106.153	141.2619
53.000000	106.073	140.9776
53.799999	105.993	140.7054
54.500000	105.921	140.4711
55.200001	105.850	140.2460
56.000000	105.768	139.9979
57.000000	105.667	139.7045
58.000000	105.568	139.4216
59.000000	105.468	139.1486
60.000000	105.371	138.8928
60.799999	105.295	138.6922
61.500000	105.229	138.5224
62.200001	105.164	138.3566
63.000000	105.090	138.1704
64.000000	104.997	137.9549
65.000000	104.907	137.7508
66.000000	104.816	137.5568
67.000000	104.728	137.3734
68.000000	104.640	137.1954
69.000000	104.553	137.0217
70.000000	104.467	136.8592
71.000000	104.382	136.7072
72.000000	104.297	136.5629
73.000000	104.215	136.4286
74.000000	104.133	136.3021
75.000000	104.051	136.1905
76.199997	103.956	136.0589
77.500000	103.854	135.9184
78.800003	103.754	135.7750
80.000000	103.661	135.6395
81.199997	103.567	135.5202
82.500000	103.468	135.4008
83.800003	103.368	135.2845
85.000000	103.278	135.1934
86.199997	103.191	135.1091
87.500000	103.096	135.0360
88.500000	103.025	134.9800
90.000000	102.919	134.9061
91.199997	102.834	134.8549
92.500000	102.745	134.8025
93.800003	102.656	134.7516
95.000000	102.576	134.7073
96.199997	102.497	134.6804
97.500000	102.414	134.6428
98.800003	102.333	134.6663
100.000000	102.267	134.6191
101.500000	102.161	134.5954
103.000000	102.070	134.5906
104.400002	101.984	134.6026
106.000000	101.890	134.5878
107.500000	101.801	134.5798
109.000000	101.712	134.5859
110.599998	101.619	134.6063
112.000000	101.539	134.6288
113.800003	101.438	134.6624
115.000000	101.371	134.6839
117.199997	101.251	134.7393
118.000000	101.208	134.7618
120.599998	101.071	134.8482
122.000000	100.999	134.8941
124.099998	100.893	134.9705
125.000000	100.848	135.0124
126.500000	100.776	135.0742
128.000000	100.703	135.1414
131.500000	100.540	135.3011
132.000000	100.517	135.3245
134.000000	100.424	135.4242
136.000000	100.333	135.5173
138.000000	100.242	135.6206
140.000000	100.153	135.7354
143.000000	100.021	135.9142
145.000000	99.934	136.0336
147.500000	99.829	136.1793
150.000000	99.729	136.2642
152.500000	99.626	136.5011
155.000000	99.528	136.6841
157.500000	99.431	136.8525
160.000000	99.335	137.0270
162.500000	99.244	137.2052
165.000000	99.152	137.3924
167.500000	99.062	137.5764
170.000000	98.975	137.7603
172.500000	98.896	137.9603
175.000000	98.817	138.1612
177.500000	98.740	138.3592
180.000000	98.666	138.5567
182.500000	98.597	138.7738
185.000000	98.522	138.9557
187.500000	98.451	139.1420
190.000000	98.381	139.3366
192.500000	98.308	139.5420
195.000000	98.232	139.7489
197.500000	98.164	139.9556
200.000000	98.093	140.0869
203.000000	98.014	140.4192
206.000000	97.935	140.6925
209.000000	97.856	140.9459
212.000000	97.781	141.2129
214.000000	97.731	141.3862
218.000000	97.633	141.7323
220.000000	97.584	141.9081
224.000000	97.489	142.2564
227.000000	97.421	142.5186
230.000000	97.348	142.7851
233.000000	97.284	143.0704
236.000000	97.217	143.3397
240.000000	97.134	143.6942
243.000000	97.078	143.9647
247.000000	97.004	144.3058
250.000000	96.945	144.5235
254.000000	96.880	144.9467
258.000000	96.814	145.3106
262.000000	96.753	145.6571
265.000000	96.711	145.9146
269.000000	96.658	146.2145
272.000000	96.616	146.4095
276.000000	96.556	146.6400
280.000000	96.493	146.8669
285.000000	96.408	147.1502
290.000000	96.321	147.4692
295.000000	96.227	147.7615
300.000000	96.139	148.1487
304.000000	96.051	148.5657
307.000000	95.997	148.8599
311.000000	95.934	149.2641
315.000000	95.875	149.6917
320.000000	95.806	150.1936
325.000000	95.752	150.6741
330.000000	95.701	151.1376
335.000000	95.653	151.5427
340.000000	95.607	151.8905
345.000000	95.562	152.1766
350.000000	95.519	152.3929
355.000000	95.452	152.5898
360.000000	95.368	152.7554
365.000000	95.272	153.0893
370.000000	95.180	153.5640
375.000000	95.104	154.1046
382.000000	95.020	154.8614
387.000000	94.971	155.3700
395.000000	94.899	156.1287
400.000000	94.856	156.5487
406.000000	94.812	157.1095
412.000000	94.768	157.6073
418.000000	94.717	158.0963
425.000000	94.662	158.6732
431.000000	94.615	159.1704
437.000000	94.569	159.6835
444.000000	94.522	160.2742
450.000000	94.479	160.7786
455.000000	94.452	161.1837
462.000000	94.410	161.7408
468.000000	94.373	162.2104
475.000000	94.329	162.7787
482.000000	94.291	163.3468
487.000000	94.263	163.7603
494.000000	94.233	164.3290
500.000000	94.212	164.7932
508.000000	94.175	165.4060
515.000000	94.145	165.9253
522.000000	94.116	166.4532
530.000000	94.083	167.0424
538.000000	94.050	167.6325
545.000000	94.020	168.1640
552.000000	93.991	168.6917
560.000000	93.958	169.2840
570.000000	93.921	170.0385
580.000000	93.884	170.7885
590.000000	93.850	171.5627
600.000000	93.827	172.3397
608.000000	93.803	172.9328
615.000000	93.787	173.4610
622.000000	93.773	173.9691
630.000000	93.753	174.5633
640.000000	93.732	175.2898
650.000000	93.722	176.0308
660.000000	93.698	176.7845
670.000000	93.680	177.5403
680.000000	93.668	178.2862
690.000000	93.656	179.0491
700.000000	93.646	179.8322
710.000000	93.638	-179.3997
720.000000	93.634	-178.6025
730.000000	93.636	-177.7953
740.000000	93.640	-176.9703
750.000000	93.659	-176.1010
762.000000	93.679	-175.1089
775.000000	93.717	-174.0800
788.000000	93.764	-173.1430
800.000000	93.802	-172.3966
812.000000	93.843	-171.6090
825.000000	93.880	-170.8254
838.000000	93.918	-170.0553
850.000000	93.941	-169.3062
862.000000	93.989	-168.5573
875.000000	94.029	-167.7398
885.000000	94.066	-167.1304
900.000000	94.133	-166.2485
912.000000	94.191	-165.3758
925.000000	94.286	-164.6801
938.000000	94.374	-164.1791
950.000000	94.423	-163.6853
962.000000	94.504	-163.2698
975.000000	94.578	-162.8646
988.000000	94.662	-162.4732
1000.000000	94.720	-162.0982
1015.000000	94.782	-162.0295
1030.000000	94.804	-161.8633
1044.000000	94.753	-161.4107
1060.000000	94.741	-159.4798
1075.000000	95.093	-158.0530
1090.000000	95.311	-159.0356
1106.000000	95.289	-159.8964
1120.000000	95.219	-159.8659
1138.000000	95.181	-159.2603
1150.000000	95.198	-158.8247
1172.000000	95.258	-158.0680
1180.000000	95.282	-157.8673
1206.000000	95.360	-157.3008
1220.000000	95.440	-157.0078
1241.000000	95.592	-156.5928
1250.000000	95.658	-156.4292
1265.000000	95.767	-156.1825
1280.000000	95.876	-155.9475
1315.000000	96.120	-155.4691
1320.000000	96.154	-155.4174
1340.000000	96.286	-155.1881
1360.000000	96.457	-154.9581
1380.000000	96.590	-154.7440
1400.000000	96.725	-154.5037
1430.000000	96.910	-154.1531
1450.000000	97.040	-153.8873
1475.000000	97.200	-153.5778
1500.000000	97.357	-153.2862
1525.000000	97.505	-153.0087
1550.000000	97.599	-152.6918
1575.000000	97.689	-152.2958
1600.000000	97.785	-151.8112
1625.000000	97.894	-151.2697
1650.000000	98.020	-150.7434
1675.000000	98.158	-150.2894
1700.000000	98.297	-149.8725
1725.000000	98.438	-149.4958
1750.000000	98.567	-149.1523
1775.000000	98.707	-148.8267
1800.000000	98.849	-148.4833
1825.000000	98.982	-148.1316
1850.000000	99.128	-147.7718
1875.000000	99.288	-147.4441
1900.000000	99.450	-147.1372
1925.000000	99.623	-146.9351
1950.000000	99.792	-146.7820
1975.000000	99.963	-146.5829
2000.000000	100.135	-146.4587
2030.000000	100.349	-146.3076
2060.000000	100.574	-146.1899
2090.000000	100.805	-146.1781
2120.000000	101.041	-146.2479
2140.000000	101.199	-146.3359
2180.000000	101.513	-146.5597
2200.000000	101.669	-146.7161
2240.000000	101.996	-147.0019
2270.000000	102.250	-147.2726
2300.000000	102.520	-147.6190
2330.000000	102.797	-148.0442
2360.000000	103.085	-148.6002
2400.000000	103.482	-149.5420
2430.000000	103.786	-150.4349
2470.000000	104.192	-151.8778
2500.000000	104.495	-153.1529
2540.000000	104.890	-155.1192
2580.000000	105.272	-157.3828
2620.000000	105.635	-159.9659
2650.000000	105.888	-162.1044
2690.000000	106.196	-165.1863
2720.000000	106.401	-167.6724
2760.000000	106.634	-171.2031
2800.000000	106.815	-174.9479
2850.000000	106.968	-179.8679
2900.000000	107.018	175.0114
2950.000000	106.961	169.8072
3000.000000	106.778	164.7077
3040.000000	106.556	160.9118
3070.000000	106.352	158.2400
3110.000000	106.038	154.9743
3150.000000	105.690	152.0916
3200.000000	105.223	148.9845
3250.000000	104.740	146.4731
3300.000000	104.260	144.4153
3350.000000	103.794	142.7494
3400.000000	103.337	141.4010
3450.000000	102.896	140.3163
3500.000000	102.469	139.4862
3550.000000	102.060	138.8648
3600.000000	101.662	138.4483
3650.000000	101.288	138.2434
3700.000000	100.935	138.1686
3750.000000	100.601	138.1817
3820.000000	100.159	138.2800
3870.000000	99.863	138.4336
3950.000000	99.412	138.8653
4000.000000	99.144	139.2169
4060.000000	98.836	139.7197
4120.000000	98.539	140.3166
4180.000000	98.261	141.0055
4250.000000	97.949	141.9034
4310.000000	97.698	142.8066
4370.000000	97.466	143.7912
4440.000000	97.220	144.9858
4500.000000	97.034	146.0105
4550.000000	96.882	146.8730
4620.000000	96.687	148.1065
4680.000000	96.534	149.2180
4750.000000	96.369	150.5905
4820.000000	96.211	151.9122
4870.000000	96.110	152.9399
4940.000000	95.980	154.3479
5000.000000	95.881	155.5581
5080.000000	95.754	157.2049
5150.000000	95.664	158.6851
5220.000000	95.583	160.2031
5300.000000	95.525	161.9993
5380.000000	95.478	163.7480
5450.000000	95.455	165.4093
5520.000000	95.446	166.9700
5600.000000	95.455	168.8046
5700.000000	95.510	171.0836
5800.000000	95.598	173.4047
5900.000000	95.732	175.6396
6000.000000	95.902	177.8365
6080.000000	96.068	179.5625
6150.000000	96.247	-178.9717
6220.000000	96.448	-177.6137
6300.000000	96.688	-176.1353
6400.000000	97.049	-174.3072
6500.000000	97.453	-172.6271
6600.000000	97.922	-171.1334
6700.000000	98.445	-169.9122
6800.000000	99.036	-168.8928
6900.000000	99.691	-168.3029
7000.000000	100.424	-168.1325
7100.000000	101.247	-168.5820
7200.000000	102.176	-169.7294
7300.000000	103.222	-172.0213
7400.000000	104.380	-175.9326
7500.000000	105.616	177.6369
7620.000000	106.959	165.3471
7750.000000	107.610	146.7137
7880.000000	106.900	126.9681
8000.000000	105.315	113.2604
8120.000000	103.481	104.7369
8250.000000	101.574	99.7479
8380.000000	99.848	97.4906
8500.000000	98.429	97.0141
8620.000000	97.174	97.4802
8750.000000	95.941	98.7382
8850.000000	95.091	100.0750
9000.000000	93.923	102.5357
9120.000000	93.097	104.8691
9250.000000	92.269	107.3907
9380.000000	91.537	110.2360
9500.000000	90.904	112.9330
9620.000000	90.336	115.6672
9750.000000	89.778	118.7659
9880.000000	89.245	121.9069
10000.000000	88.835	124.8227
10150.000000	88.346	128.4312
10300.000000	87.924	132.2145
10440.000000	87.558	135.6935
10600.000000	87.191	139.7977
10750.000000	86.901	143.5198
10900.000000	86.652	147.2814
11060.000000	86.429	151.5461
11200.000000	86.280	154.9812
11380.000000	86.110	159.5893
11500.000000	86.053	162.6481
11720.000000	86.014	168.0804
11800.000000	85.994	170.2289
12060.000000	86.090	176.6090
12200.000000	86.185	179.9769
12410.000000	86.556	-175.0249
12500.000000	86.699	-172.9687
12650.000000	87.032	-169.4088
12800.000000	87.412	-165.9570
13150.000000	88.533	-158.2786
13200.000000	88.717	-157.1927
13400.000000	89.559	-152.9550
13600.000000	90.547	-149.0530
13800.000000	92.130	-145.7433
14000.000000	93.614	-142.9691
14300.000000	96.407	-141.1794
14500.000000	98.868	-142.7306
14750.000000	102.934	-154.3839
15000.000000	106.146	167.2235
15250.000000	103.346	128.0544
15500.000000	99.422	115.7556
15750.000000	96.344	113.8649
16000.000000	94.031	115.6686
16250.000000	92.218	119.2606
16500.000000	90.817	123.4275
16750.000000	89.687	128.2076
17000.000000	88.807	132.9865
17250.000000	88.177	137.8486
17500.000000	87.641	143.1109
17750.000000	87.269	147.5899
18000.000000	87.104	151.6778
18250.000000	87.314	154.9411
18500.000000	87.803	157.2344
18750.000000	88.776	154.1870
19000.000000	88.782	153.2629
19250.000000	90.583	141.4915
19500.000000	90.842	116.6152
19750.000000	88.136	94.4527
20000.000000	84.217	84.9063
