* Measurement data measured by REW V5.20.13
* Source: Input device not selected, no input selected, L, volume: no control
* Format: 512k Log Swept Sine, 1 sweep at -10.0 dBFS with no timing reference
* Dated: Dec 1, 2023 2:38:49 PM
* REW Settings:
*  C-weighting compensation: Off
*  Target level: 75.0 dB
* Note: 
* Measurement: KBEAR KB01 L
* Smoothing: None
* Frequency Step: 1/48 octave
* Start Frequency: 20.000 Hz
*
* Freq(Hz)	SPL(dB)	Phase(degrees)
20.000000	104.640	179.2662
20.299999	104.639	178.8259
20.600000	104.636	178.4026
20.900000	104.634	177.9998
21.200001	104.632	177.6012
21.400000	104.633	177.3348
21.799999	104.634	176.8029
22.000000	104.633	176.5331
22.400000	104.628	175.9908
22.700001	104.620	175.5995
23.000000	104.611	175.2283
23.299999	104.602	174.8744
23.600000	104.593	174.5363
24.000000	104.583	174.0967
24.299999	104.577	173.7589
24.700001	104.567	173.3040
25.000000	104.558	172.9658
25.400000	104.544	172.5218
25.799999	104.530	172.0963
26.200001	104.516	171.6746
26.500000	104.506	171.3547
26.900000	104.488	170.9290
27.200001	104.471	170.6085
27.600000	104.448	170.1974
28.000000	104.424	169.8116
28.500000	104.396	169.3419
29.000000	104.369	168.8769
29.500000	104.341	168.4147
30.000000	104.314	167.9775
30.400000	104.297	167.6322
30.700001	104.285	167.3683
31.100000	104.270	166.9967
31.500000	104.251	166.6021
32.000000	104.220	166.1178
32.500000	104.182	165.6784
33.000000	104.146	165.2934
33.500000	104.114	164.9171
34.000000	104.078	164.5217
34.500000	104.045	164.1070
35.000000	104.006	163.7127
35.500000	103.964	163.3482
36.000000	103.924	163.0014
36.500000	103.883	162.6363
37.000000	103.836	162.2607
37.500000	103.779	161.9116
38.200001	103.680	161.5606
38.700001	103.610	161.4131
39.500000	103.498	161.3407
40.000000	103.429	161.4843
40.599998	103.379	161.9264
41.200001	103.404	162.4460
41.799999	103.496	162.6069
42.500000	103.602	162.1122
43.099998	103.638	161.3975
43.700001	103.633	160.7338
44.400002	103.611	160.0831
45.000000	103.587	159.5516
45.500000	103.561	159.1196
46.200001	103.517	158.5615
46.799999	103.475	158.1240
47.500000	103.425	157.6587
48.200001	103.377	157.2264
48.700001	103.343	156.9144
49.400002	103.288	156.4990
50.000000	103.238	156.2118
50.799999	103.191	155.8874
51.500000	103.154	155.5394
52.200001	103.107	155.1739
53.000000	103.049	154.8281
53.799999	102.997	154.5037
54.500000	102.950	154.2027
55.200001	102.899	153.9141
56.000000	102.841	153.6025
57.000000	102.770	153.2224
58.000000	102.698	152.8475
59.000000	102.626	152.5017
60.000000	102.558	152.1698
60.799999	102.503	151.8983
61.500000	102.455	151.6820
62.200001	102.409	151.4766
63.000000	102.358	151.2326
64.000000	102.291	150.9535
65.000000	102.229	150.6852
66.000000	102.163	150.4039
67.000000	102.098	150.1611
68.000000	102.037	149.9043
69.000000	101.974	149.6543
70.000000	101.913	149.4203
71.000000	101.851	149.1675
72.000000	101.785	148.9543
73.000000	101.725	148.7590
74.000000	101.664	148.5453
75.000000	101.600	148.3553
76.199997	101.527	148.1361
77.500000	101.447	147.8956
78.800003	101.368	147.6593
80.000000	101.296	147.4565
81.199997	101.224	147.2716
82.500000	101.149	147.0723
83.800003	101.069	146.8940
85.000000	101.000	146.7325
86.199997	100.929	146.5756
87.500000	100.855	146.4088
88.500000	100.798	146.2865
90.000000	100.719	146.1051
91.199997	100.651	145.9973
92.500000	100.583	145.8843
93.800003	100.510	145.7756
95.000000	100.437	145.6832
96.199997	100.381	145.6030
97.500000	100.301	145.4235
98.800003	100.265	145.2538
100.000000	100.157	144.9055
101.500000	100.095	145.2797
103.000000	100.039	145.0738
104.400002	99.980	145.0358
106.000000	99.905	145.0027
107.500000	99.826	144.8834
109.000000	99.759	144.8520
110.599998	99.680	144.7555
112.000000	99.616	144.7386
113.800003	99.528	144.6854
115.000000	99.472	144.6023
117.199997	99.379	144.5079
118.000000	99.336	144.5452
120.599998	99.227	144.1345
122.000000	99.173	144.5334
124.099998	99.085	144.5854
125.000000	99.050	144.5395
126.500000	98.978	144.5644
128.000000	98.917	144.5376
131.500000	98.785	144.5470
132.000000	98.766	144.5618
134.000000	98.688	144.6013
136.000000	98.610	144.6238
138.000000	98.534	144.6391
140.000000	98.459	144.6658
143.000000	98.348	144.7563
145.000000	98.269	144.8144
147.500000	98.182	144.8336
150.000000	98.119	144.7819
152.500000	98.012	145.0238
155.000000	97.924	145.1326
157.500000	97.835	145.2264
160.000000	97.755	145.3453
162.500000	97.674	145.4951
165.000000	97.597	145.6703
167.500000	97.514	145.7990
170.000000	97.439	146.0089
172.500000	97.373	146.1294
175.000000	97.308	146.2695
177.500000	97.253	146.3727
180.000000	97.188	146.5682
182.500000	97.133	146.7290
185.000000	97.076	146.8818
187.500000	97.017	147.0437
190.000000	96.953	147.1467
192.500000	96.896	147.2515
195.000000	96.843	147.4366
197.500000	96.776	147.6601
200.000000	96.687	147.8877
203.000000	96.640	147.9406
206.000000	96.585	148.1139
209.000000	96.521	148.3686
212.000000	96.450	148.6213
214.000000	96.405	148.6720
218.000000	96.322	148.9637
220.000000	96.285	149.1869
224.000000	96.202	149.4596
227.000000	96.137	149.6406
230.000000	96.089	149.8581
233.000000	96.023	150.0943
236.000000	95.963	150.2785
240.000000	95.886	150.6012
243.000000	95.822	150.8543
247.000000	95.751	151.1811
250.000000	95.705	151.5778
254.000000	95.614	151.8989
258.000000	95.549	152.3312
262.000000	95.484	152.9704
265.000000	95.434	153.4231
269.000000	95.427	154.1096
272.000000	95.431	154.5659
276.000000	95.450	154.9881
280.000000	95.470	155.0810
285.000000	95.454	155.1613
290.000000	95.410	155.1942
295.000000	95.362	155.3028
300.000000	95.314	155.6674
304.000000	95.251	155.6834
307.000000	95.215	155.8222
311.000000	95.166	156.0501
315.000000	95.120	156.2866
320.000000	95.063	156.5847
325.000000	95.004	156.8959
330.000000	94.959	157.1830
335.000000	94.903	157.5569
340.000000	94.852	157.8875
345.000000	94.806	158.2302
350.000000	94.787	158.5198
355.000000	94.722	158.9028
360.000000	94.676	159.2566
365.000000	94.637	159.6102
370.000000	94.601	159.9260
375.000000	94.561	160.2902
382.000000	94.514	160.7721
387.000000	94.482	161.1140
395.000000	94.431	161.6381
400.000000	94.414	161.8265
406.000000	94.374	162.4003
412.000000	94.343	162.7935
418.000000	94.309	163.2139
425.000000	94.280	163.6554
431.000000	94.267	164.0592
437.000000	94.222	164.4604
444.000000	94.193	164.9161
450.000000	94.184	165.2532
455.000000	94.153	165.6468
462.000000	94.125	166.0849
468.000000	94.106	166.4814
475.000000	94.083	166.9446
482.000000	94.058	167.3718
487.000000	94.045	167.6848
494.000000	94.026	168.1314
500.000000	94.024	168.6291
508.000000	93.992	169.0300
515.000000	93.973	169.4778
522.000000	93.960	169.9269
530.000000	93.946	170.4182
538.000000	93.934	170.9341
545.000000	93.919	171.3707
552.000000	93.907	171.8083
560.000000	93.891	172.3161
570.000000	93.879	172.9368
580.000000	93.866	173.5701
590.000000	93.854	174.1895
600.000000	93.833	174.8652
608.000000	93.841	175.3161
615.000000	93.836	175.7421
622.000000	93.835	176.1843
630.000000	93.835	176.7061
640.000000	93.832	177.3206
650.000000	93.841	178.1469
660.000000	93.840	178.5820
670.000000	93.849	179.2054
680.000000	93.857	179.8207
690.000000	93.870	-179.5533
700.000000	93.888	-178.8318
710.000000	93.897	-178.3329
720.000000	93.916	-177.7020
730.000000	93.935	-177.0118
740.000000	93.958	-176.3825
750.000000	94.007	-175.9405
762.000000	94.034	-174.9369
775.000000	94.084	-174.0865
788.000000	94.149	-173.3026
800.000000	94.220	-172.5630
812.000000	94.261	-171.9103
825.000000	94.381	-170.7780
838.000000	94.662	-170.4498
850.000000	94.838	-171.3447
862.000000	94.804	-172.3549
875.000000	94.681	-173.0589
885.000000	94.523	-173.1466
900.000000	94.278	-172.2159
912.000000	94.178	-170.8627
925.000000	94.176	-169.2821
938.000000	94.222	-167.8179
950.000000	94.299	-166.6681
962.000000	94.388	-165.9279
975.000000	94.490	-164.9060
988.000000	94.586	-164.2306
1000.000000	94.672	-163.7844
1015.000000	94.787	-162.9951
1030.000000	94.927	-162.4057
1044.000000	95.033	-161.9324
1060.000000	95.152	-161.4742
1075.000000	95.269	-161.0207
1090.000000	95.340	-160.6834
1106.000000	95.424	-160.3686
1120.000000	95.505	-159.9953
1138.000000	95.592	-159.6833
1150.000000	95.638	-159.5615
1172.000000	95.761	-159.1049
1180.000000	95.804	-159.0027
1206.000000	95.924	-158.5620
1220.000000	96.033	-158.3226
1241.000000	96.236	-157.9385
1250.000000	96.333	-157.7732
1265.000000	96.480	-157.5864
1280.000000	96.644	-157.4074
1315.000000	97.026	-157.2592
1320.000000	97.081	-157.2711
1340.000000	97.291	-157.4359
1360.000000	97.525	-157.6902
1380.000000	97.708	-158.0004
1400.000000	97.880	-158.2895
1430.000000	98.094	-158.6754
1450.000000	98.233	-158.8547
1475.000000	98.402	-159.0871
1500.000000	98.567	-159.1930
1525.000000	98.730	-159.3501
1550.000000	98.849	-159.4600
1575.000000	98.955	-159.5315
1600.000000	99.076	-159.5745
1625.000000	99.189	-159.6740
1650.000000	99.307	-159.7928
1675.000000	99.417	-159.8391
1700.000000	99.534	-159.9153
1725.000000	99.651	-160.0040
1750.000000	99.765	-160.1445
1775.000000	99.879	-160.2479
1800.000000	99.989	-160.4158
1825.000000	100.098	-160.5540
1850.000000	100.211	-160.7249
1875.000000	100.333	-160.9357
1900.000000	100.444	-161.0876
1925.000000	100.555	-161.3767
1950.000000	100.669	-161.5424
1975.000000	100.781	-161.7959
2000.000000	100.891	-162.1066
2030.000000	101.021	-162.4795
2060.000000	101.150	-162.8936
2090.000000	101.279	-163.2981
2120.000000	101.400	-163.7550
2140.000000	101.482	-164.0777
2180.000000	101.643	-164.7538
2200.000000	101.717	-165.1180
2240.000000	101.868	-165.8404
2270.000000	101.976	-166.4219
2300.000000	102.081	-167.0210
2330.000000	102.176	-167.6384
2360.000000	102.271	-168.2902
2400.000000	102.384	-169.1449
2430.000000	102.465	-169.7944
2470.000000	102.564	-170.7153
2500.000000	102.630	-171.3904
2540.000000	102.706	-172.2688
2580.000000	102.774	-173.1254
2620.000000	102.827	-173.9086
2650.000000	102.860	-174.4657
2690.000000	102.905	-175.0695
2720.000000	102.939	-175.4230
2760.000000	102.996	-175.7963
2800.000000	103.085	-176.1318
2850.000000	103.240	-176.6356
2900.000000	103.423	-177.5206
2950.000000	103.584	-178.6963
3000.000000	103.725	179.8952
3040.000000	103.809	178.6832
3070.000000	103.866	177.8104
3110.000000	103.922	176.6958
3150.000000	103.969	175.5095
3200.000000	104.015	174.1237
3250.000000	104.043	172.7607
3300.000000	104.066	171.4753
3350.000000	104.080	170.2170
3400.000000	104.088	169.0082
3450.000000	104.102	167.8719
3500.000000	104.113	166.7399
3550.000000	104.121	165.6406
3600.000000	104.149	164.5575
3650.000000	104.180	163.4239
3700.000000	104.216	162.1559
3750.000000	104.259	160.7438
3820.000000	104.284	158.3883
3870.000000	104.251	156.5986
3950.000000	104.125	153.8686
4000.000000	104.017	152.4009
4060.000000	103.887	150.9333
4120.000000	103.774	149.5180
4180.000000	103.669	148.0655
4250.000000	103.539	146.2422
4310.000000	103.408	144.6211
4370.000000	103.253	142.9944
4440.000000	103.034	141.0543
4500.000000	102.818	139.5120
4550.000000	102.617	138.2292
4620.000000	102.305	136.6925
4680.000000	102.017	135.4914
4750.000000	101.659	134.3297
4820.000000	101.282	133.3877
4870.000000	100.996	132.8932
4940.000000	100.587	132.3892
5000.000000	100.231	132.1297
5080.000000	99.764	132.1503
5150.000000	99.354	132.4011
5220.000000	98.948	132.9489
5300.000000	98.499	133.9607
5380.000000	98.151	135.4291
5450.000000	97.899	136.2074
5520.000000	97.582	136.8700
5600.000000	97.205	138.0017
5700.000000	96.750	139.8130
5800.000000	96.336	141.8884
5900.000000	95.975	144.2380
6000.000000	95.636	146.8141
6080.000000	95.393	149.0348
6150.000000	95.194	150.8796
6220.000000	95.021	152.8752
6300.000000	94.846	155.3567
6400.000000	94.668	158.3097
6500.000000	94.532	161.4170
6600.000000	94.427	164.6132
6700.000000	94.360	167.8347
6800.000000	94.336	171.0868
6900.000000	94.349	174.3519
7000.000000	94.390	177.7607
7100.000000	94.519	-178.8876
7200.000000	94.674	-175.6698
7300.000000	94.872	-172.5458
7400.000000	95.130	-169.3536
7500.000000	95.447	-166.4097
7620.000000	95.925	-163.0825
7750.000000	96.513	-159.9330
7880.000000	97.246	-157.4438
8000.000000	98.024	-155.9127
8120.000000	98.924	-155.7113
8250.000000	99.973	-157.6249
8380.000000	100.947	-162.2279
8500.000000	101.545	-168.8282
8620.000000	101.695	-176.2143
8750.000000	101.394	176.8670
8850.000000	101.014	172.8038
9000.000000	100.372	168.2698
9120.000000	99.824	165.3412
9250.000000	99.151	162.7250
9380.000000	98.402	161.1761
9500.000000	97.678	160.6596
9620.000000	96.975	161.0933
9750.000000	96.255	162.5136
9880.000000	95.629	164.7981
10000.000000	95.154	167.4129
10150.000000	94.661	171.0609
10300.000000	94.308	175.2326
10440.000000	94.101	179.5401
10600.000000	94.056	-175.4305
10750.000000	94.192	-171.0693
10900.000000	94.498	-166.6454
11060.000000	95.040	-162.3854
11200.000000	95.741	-159.3037
11380.000000	97.005	-156.9073
11500.000000	98.124	-156.9372
11720.000000	100.738	-164.6680
11800.000000	101.732	-171.7287
12060.000000	102.011	149.2578
12200.000000	99.776	133.4469
12410.000000	96.232	124.7388
12500.000000	94.907	124.2800
12650.000000	92.988	125.5182
12800.000000	91.338	128.4840
13150.000000	88.457	138.8546
13200.000000	88.046	140.2740
13400.000000	86.915	147.2267
13600.000000	85.978	154.6881
13800.000000	85.549	161.7633
14000.000000	85.023	169.7319
14300.000000	84.558	179.8653
14500.000000	84.297	-172.6034
14750.000000	84.291	-164.8528
15000.000000	84.389	-157.4955
15250.000000	84.616	-150.1998
15500.000000	84.904	-144.4333
15750.000000	85.086	-140.3161
16000.000000	85.456	-137.7467
16250.000000	85.778	-137.3651
16500.000000	85.942	-138.4141
16750.000000	85.965	-140.7542
17000.000000	85.769	-145.4779
17250.000000	85.348	-150.0985
17500.000000	84.732	-156.4097
17750.000000	83.684	-163.5034
18000.000000	82.051	-173.3535
18250.000000	79.511	178.6588
18500.000000	76.634	174.9307
18750.000000	73.612	174.8807
19000.000000	70.399	176.0006
19250.000000	67.087	-171.9053
19500.000000	65.411	-166.8430
19750.000000	62.433	-152.1145
20000.000000	59.850	-149.3834
