* Measurement data measured by REW V5.20.13
* Source: Input device not selected, no input selected, L, volume: no control
* Format: 512k Log Swept Sine, 1 sweep at -10.0 dBFS with no timing reference
* Dated: Oct 4, 2023 3:04:01 PM
* REW Settings:
*  C-weighting compensation: Off
*  Target level: 75.0 dB
* Note: 
* Measurement: R2E3 Mermaid_Blk R
* Smoothing: None
* Frequency Step: 1/48 octave
* Start Frequency: 20.000 Hz
*
* Freq(Hz)	SPL(dB)	Phase(degrees)
20.000000	94.052	-129.3272
20.299999	94.063	-130.0915
20.600000	94.068	-130.4897
20.900000	94.100	-130.6235
21.200001	94.168	-130.7000
21.400000	94.228	-130.8090
21.799999	94.352	-131.1891
22.000000	94.405	-131.4233
22.400000	94.492	-131.8346
22.700001	94.557	-132.0011
23.000000	94.640	-132.0893
23.299999	94.745	-132.2185
23.600000	94.865	-132.4998
24.000000	95.009	-133.1512
24.299999	95.086	-133.7294
24.700001	95.150	-134.3496
25.000000	95.192	-134.6014
25.400000	95.281	-134.7468
25.799999	95.419	-134.9829
26.200001	95.569	-135.5566
26.500000	95.659	-136.1724
26.900000	95.732	-136.9994
27.200001	95.763	-137.4858
27.600000	95.807	-137.9108
28.000000	95.879	-138.2432
28.500000	95.987	-138.8546
29.000000	96.059	-139.6209
29.500000	96.087	-140.1487
30.000000	96.137	-140.2889
30.400000	96.223	-140.3718
30.700001	96.304	-140.5670
31.100000	96.404	-141.0445
31.500000	96.470	-141.6223
32.000000	96.515	-142.1651
32.500000	96.568	-142.4208
33.000000	96.662	-142.6497
33.500000	96.773	-143.1193
34.000000	96.859	-143.7995
34.500000	96.922	-144.5122
35.000000	96.968	-145.1381
35.500000	97.012	-145.7056
36.000000	97.054	-146.2589
36.500000	97.089	-146.7881
37.000000	97.118	-147.2133
37.500000	97.158	-147.5045
38.200001	97.255	-147.8849
38.700001	97.346	-148.3731
39.500000	97.437	-149.5124
40.000000	97.445	-150.0981
40.599998	97.455	-150.4516
41.200001	97.507	-150.6896
41.799999	97.576	-151.1235
42.500000	97.626	-151.7457
43.099998	97.658	-152.1245
43.700001	97.714	-152.4657
44.400002	97.790	-153.1020
45.000000	97.827	-153.7637
45.500000	97.841	-154.2285
46.200001	97.870	-154.7217
46.799999	97.909	-155.1592
47.500000	97.941	-155.6879
48.200001	97.974	-156.0158
48.700001	98.025	-156.2006
49.400002	98.116	-156.7721
50.000000	98.149	-157.5415
50.799999	98.111	-158.2485
51.500000	98.090	-158.3559
52.200001	98.122	-158.5157
53.000000	98.149	-158.9553
53.799999	98.167	-159.3065
54.500000	98.209	-159.7093
55.200001	98.238	-160.3166
56.000000	98.248	-160.9160
57.000000	98.296	-161.5322
58.000000	98.349	-162.3133
59.000000	98.393	-162.9868
60.000000	98.439	-163.6579
60.799999	98.462	-164.1440
61.500000	98.484	-164.5216
62.200001	98.505	-164.9414
63.000000	98.515	-165.4369
64.000000	98.521	-165.9394
65.000000	98.544	-166.5211
66.000000	98.546	-167.1533
67.000000	98.560	-167.6560
68.000000	98.580	-168.2942
69.000000	98.577	-168.8333
70.000000	98.592	-169.2802
71.000000	98.603	-169.8411
72.000000	98.596	-170.3476
73.000000	98.592	-170.7914
74.000000	98.592	-171.2157
75.000000	98.601	-171.6720
76.199997	98.601	-172.3534
77.500000	98.577	-172.9076
78.800003	98.576	-173.4746
80.000000	98.547	-173.9674
81.199997	98.548	-174.3029
82.500000	98.544	-174.9593
83.800003	98.527	-175.3870
85.000000	98.525	-175.9269
86.199997	98.504	-176.3990
87.500000	98.474	-176.8404
88.500000	98.469	-177.0980
90.000000	98.440	-177.8065
91.199997	98.402	-178.0970
92.500000	98.385	-178.5074
93.800003	98.371	-178.9450
95.000000	98.336	-179.3877
96.199997	98.311	-179.5976
97.500000	98.304	-179.9466
98.800003	98.289	179.5428
100.000000	98.223	179.2335
101.500000	98.216	179.1140
103.000000	98.188	178.6635
104.400002	98.158	178.3394
106.000000	98.124	178.0939
107.500000	98.086	177.8767
109.000000	98.055	177.7853
110.599998	98.064	177.6580
112.000000	98.055	177.3731
113.800003	98.055	177.0505
115.000000	98.071	176.8211
117.199997	98.089	176.2621
118.000000	98.068	176.0089
120.599998	98.099	175.1490
122.000000	98.011	175.0117
124.099998	97.976	174.5217
125.000000	97.965	174.2948
126.500000	97.934	173.9627
128.000000	97.914	173.5763
131.500000	97.845	172.8804
132.000000	97.834	172.7777
134.000000	97.786	172.3717
136.000000	97.747	172.0269
138.000000	97.700	171.6429
140.000000	97.645	171.3459
143.000000	97.567	170.8803
145.000000	97.505	170.5510
147.500000	97.441	170.1468
150.000000	97.384	169.6523
152.500000	97.312	169.5098
155.000000	97.241	169.2785
157.500000	97.150	169.0268
160.000000	97.063	168.8212
162.500000	96.982	168.7264
165.000000	96.873	168.6823
167.500000	96.778	168.6975
170.000000	96.692	168.8303
172.500000	96.636	169.3018
175.000000	96.629	169.9619
177.500000	96.675	170.3870
180.000000	96.762	170.3021
182.500000	96.818	170.0043
185.000000	96.828	169.6757
187.500000	96.819	169.2675
190.000000	96.794	168.7887
192.500000	96.765	168.4882
195.000000	96.714	168.2094
197.500000	96.664	167.9539
200.000000	96.606	167.6325
203.000000	96.572	167.5018
206.000000	96.523	167.3274
209.000000	96.466	167.1335
212.000000	96.417	166.9783
214.000000	96.383	166.8631
218.000000	96.307	166.6675
220.000000	96.271	166.5568
224.000000	96.198	166.4407
227.000000	96.143	166.4562
230.000000	96.083	166.2318
233.000000	96.026	166.1446
236.000000	95.970	166.0989
240.000000	95.893	166.0574
243.000000	95.843	166.0043
247.000000	95.779	165.9965
250.000000	95.717	165.9089
254.000000	95.660	166.0196
258.000000	95.595	166.0123
262.000000	95.541	166.0232
265.000000	95.492	166.0713
269.000000	95.435	166.1214
272.000000	95.383	166.1588
276.000000	95.323	166.2147
280.000000	95.261	166.2985
285.000000	95.193	166.4477
290.000000	95.122	166.6019
295.000000	95.058	166.6931
300.000000	95.020	166.9035
304.000000	94.928	166.9120
307.000000	94.892	166.9880
311.000000	94.842	167.1746
315.000000	94.792	167.2711
320.000000	94.728	167.5008
325.000000	94.662	167.7072
330.000000	94.597	167.9292
335.000000	94.535	168.0993
340.000000	94.480	168.3138
345.000000	94.422	168.5164
350.000000	94.378	168.8428
355.000000	94.314	169.0080
360.000000	94.260	169.2247
365.000000	94.207	169.4850
370.000000	94.157	169.7230
375.000000	94.113	169.9990
382.000000	94.044	170.3502
387.000000	93.997	170.6137
395.000000	93.929	171.0726
400.000000	93.872	171.5532
406.000000	93.837	171.6687
412.000000	93.790	172.0089
418.000000	93.745	172.3526
425.000000	93.693	172.7845
431.000000	93.649	173.1600
437.000000	93.608	173.4907
444.000000	93.567	173.9309
450.000000	93.515	174.2708
455.000000	93.489	174.5976
462.000000	93.448	175.0546
468.000000	93.413	175.4509
475.000000	93.371	175.9139
482.000000	93.332	176.3395
487.000000	93.306	176.6832
494.000000	93.269	177.1149
500.000000	93.231	177.6290
508.000000	93.205	178.0690
515.000000	93.177	178.5305
522.000000	93.142	178.9935
530.000000	93.109	179.5533
538.000000	93.080	-179.8752
545.000000	93.049	-179.4343
552.000000	93.021	-178.9512
560.000000	92.983	-178.3611
570.000000	92.949	-177.6358
580.000000	92.917	-176.9063
590.000000	92.889	-176.1698
600.000000	92.856	-175.3971
608.000000	92.850	-174.9088
615.000000	92.840	-174.3818
622.000000	92.829	-173.8365
630.000000	92.815	-173.2553
640.000000	92.798	-172.5184
650.000000	92.768	-171.7764
660.000000	92.776	-171.0298
670.000000	92.761	-170.2702
680.000000	92.761	-169.5745
690.000000	92.756	-168.8003
700.000000	92.759	-168.1282
710.000000	92.755	-167.2307
720.000000	92.757	-166.3938
730.000000	92.774	-165.6205
740.000000	92.794	-164.8628
750.000000	92.792	-164.1947
762.000000	92.844	-163.2046
775.000000	92.865	-162.1712
788.000000	92.891	-161.2555
800.000000	92.919	-160.3647
812.000000	92.947	-159.4794
825.000000	92.985	-158.5646
838.000000	93.028	-157.5624
850.000000	93.031	-156.5522
862.000000	93.104	-155.8184
875.000000	93.176	-154.7924
885.000000	93.212	-154.0226
900.000000	93.312	-153.0223
912.000000	93.389	-152.2461
925.000000	93.473	-151.4542
938.000000	93.559	-150.7775
950.000000	93.666	-150.0577
962.000000	93.748	-149.8165
975.000000	93.812	-149.8220
988.000000	93.705	-149.5089
1000.000000	93.720	-147.9315
1015.000000	93.870	-146.6003
1030.000000	94.016	-145.7790
1044.000000	94.146	-145.1100
1060.000000	94.273	-144.4477
1075.000000	94.396	-143.8717
1090.000000	94.481	-143.2751
1106.000000	94.578	-142.7084
1120.000000	94.659	-142.2127
1138.000000	94.773	-141.7473
1150.000000	94.872	-141.3487
1172.000000	94.984	-140.7401
1180.000000	95.036	-140.5722
1206.000000	95.177	-139.9002
1220.000000	95.301	-139.4865
1241.000000	95.507	-139.0127
1250.000000	95.601	-138.7526
1265.000000	95.735	-138.4560
1280.000000	95.879	-138.1299
1315.000000	96.210	-137.3789
1320.000000	96.262	-137.2889
1340.000000	96.448	-136.8114
1360.000000	96.687	-136.4384
1380.000000	96.885	-135.9950
1400.000000	97.109	-135.5676
1430.000000	97.418	-135.0499
1450.000000	97.626	-134.6602
1475.000000	97.878	-134.2697
1500.000000	98.124	-133.9372
1525.000000	98.380	-133.4434
1550.000000	98.595	-133.0792
1575.000000	98.811	-132.7745
1600.000000	99.032	-132.4559
1625.000000	99.261	-132.1299
1650.000000	99.481	-131.8364
1675.000000	99.717	-131.5827
1700.000000	99.951	-131.3455
1725.000000	100.194	-131.2332
1750.000000	100.435	-131.0809
1775.000000	100.668	-130.9728
1800.000000	100.913	-130.9058
1825.000000	101.165	-130.9208
1850.000000	101.419	-130.9505
1875.000000	101.675	-131.0233
1900.000000	101.936	-131.1439
1925.000000	102.208	-131.3372
1950.000000	102.480	-131.6098
1975.000000	102.762	-131.8571
2000.000000	103.046	-132.2383
2030.000000	103.405	-132.7350
2060.000000	103.781	-133.3377
2090.000000	104.175	-134.1609
2120.000000	104.601	-135.1866
2140.000000	104.897	-136.0566
2180.000000	105.504	-138.4412
2200.000000	105.804	-140.0478
2240.000000	106.336	-144.0830
2270.000000	106.631	-147.7079
2300.000000	106.805	-151.5611
2330.000000	106.863	-155.2766
2360.000000	106.831	-158.6797
2400.000000	106.690	-162.5872
2430.000000	106.545	-164.9825
2470.000000	106.327	-167.5285
2500.000000	106.180	-168.9419
2540.000000	106.025	-170.4160
2580.000000	105.934	-171.7549
2620.000000	105.876	-173.1632
2650.000000	105.814	-174.3649
2690.000000	105.717	-175.7951
2720.000000	105.634	-176.6035
2760.000000	105.561	-177.5457
2800.000000	105.524	-178.4686
2850.000000	105.483	-179.7338
2900.000000	105.446	178.9234
2950.000000	105.422	177.6140
3000.000000	105.382	176.1754
3040.000000	105.341	174.9938
3070.000000	105.304	174.1784
3110.000000	105.262	173.1409
3150.000000	105.211	172.1640
3200.000000	105.152	171.0822
3250.000000	105.107	170.1066
3300.000000	105.076	169.1577
3350.000000	105.068	168.3153
3400.000000	105.090	167.4579
3450.000000	105.146	166.5336
3500.000000	105.236	165.3712
3550.000000	105.345	163.9178
3600.000000	105.442	162.0986
3650.000000	105.536	160.0201
3700.000000	105.597	157.6435
3750.000000	105.632	155.0235
3820.000000	105.614	150.9962
3870.000000	105.534	147.8903
3950.000000	105.281	142.9204
4000.000000	105.038	139.8920
4060.000000	104.698	136.6277
4120.000000	104.313	133.6194
4180.000000	103.897	130.7693
4250.000000	103.351	127.7134
4310.000000	102.828	125.4211
4370.000000	102.275	123.5264
4440.000000	101.582	121.7898
4500.000000	100.988	120.7867
4550.000000	100.485	120.2058
4620.000000	99.763	119.8783
4680.000000	99.172	120.5816
4750.000000	98.671	120.8785
4820.000000	98.061	121.2318
4870.000000	97.628	121.8182
4940.000000	97.046	122.8527
5000.000000	96.569	124.0357
5080.000000	95.963	125.8458
5150.000000	95.437	127.5852
5220.000000	94.991	129.5627
5300.000000	94.488	131.9790
5380.000000	94.032	134.6167
5450.000000	93.655	136.9006
5520.000000	93.308	139.4221
5600.000000	92.955	142.3114
5700.000000	92.538	146.1061
5800.000000	92.180	149.9162
5900.000000	91.885	153.9680
6000.000000	91.634	157.9623
6080.000000	91.474	161.4317
6150.000000	91.362	164.2949
6220.000000	91.297	167.1865
6300.000000	91.238	170.5763
6400.000000	91.194	174.8030
6500.000000	91.239	179.1685
6600.000000	91.318	-176.5151
6700.000000	91.477	-172.3114
6800.000000	91.695	-168.0535
6900.000000	91.989	-163.9183
7000.000000	92.318	-159.7697
7100.000000	92.763	-155.7651
7200.000000	93.326	-151.9724
7300.000000	93.943	-148.5057
7400.000000	94.720	-145.3662
7500.000000	95.636	-142.7509
7620.000000	96.935	-140.7957
7750.000000	98.648	-140.8117
7880.000000	100.625	-144.9772
8000.000000	102.468	-154.9525
8120.000000	103.591	-171.9428
8250.000000	103.104	167.9339
8380.000000	101.429	154.5363
8500.000000	99.736	148.3584
8620.000000	98.218	145.9842
8750.000000	96.829	145.5482
8850.000000	95.896	146.2857
9000.000000	94.754	148.3350
9120.000000	93.988	150.5720
9250.000000	93.302	153.3222
9380.000000	92.765	156.3848
9500.000000	92.375	159.1483
9620.000000	92.110	162.1033
9750.000000	91.931	165.0371
9880.000000	91.882	167.5379
10000.000000	91.987	169.6884
10150.000000	92.245	171.1882
10300.000000	92.605	171.2428
10440.000000	93.005	169.3703
10600.000000	93.369	164.6882
10750.000000	93.372	157.8686
10900.000000	92.862	149.9647
11060.000000	91.784	143.0468
11200.000000	90.543	138.9132
11380.000000	88.834	136.9070
11500.000000	87.758	137.0304
11720.000000	85.948	139.9732
11800.000000	85.291	141.4399
12060.000000	83.605	147.0388
12200.000000	82.806	150.5527
12410.000000	81.791	155.3449
12500.000000	81.377	157.9309
12650.000000	80.641	161.3144
12800.000000	80.137	166.2243
13150.000000	78.787	177.9082
13200.000000	78.670	179.5354
13400.000000	78.074	-172.7507
13600.000000	77.708	-164.2713
13800.000000	77.938	-155.6540
14000.000000	78.009	-147.1440
14300.000000	78.156	-134.9723
14500.000000	78.589	-125.7773
14750.000000	79.439	-116.5564
15000.000000	80.593	-107.3323
15250.000000	82.265	-100.2765
15500.000000	84.432	-95.3712
15750.000000	86.947	-97.4184
16000.000000	89.536	-111.2653
16250.000000	90.109	-138.1058
16500.000000	88.207	-161.4832
16750.000000	83.829	-158.9396
17000.000000	83.107	-157.5608
17250.000000	82.473	-155.8039
17500.000000	82.253	-157.3982
17750.000000	82.261	-164.8648
18000.000000	81.401	179.4057
18250.000000	78.806	162.3609
18500.000000	75.002	154.2398
18750.000000	71.170	154.2375
19000.000000	67.930	158.5187
19250.000000	64.327	170.2413
19500.000000	61.950	178.4743
19750.000000	59.839	-175.2892
20000.000000	57.258	-157.8520
