* Measurement data measured by REW V5.20.13
* Source: Input device not selected, no input selected, L, volume: no control
* Format: 512k Log Swept Sine, 1 sweep at -10.0 dBFS with no timing reference
* Dated: Oct 4, 2023 2:52:40 PM
* REW Settings:
*  C-weighting compensation: Off
*  Target level: 75.0 dB
* Note: 
* Measurement: R2E3 Mermaid_Blk L
* Smoothing: None
* Frequency Step: 1/48 octave
* Start Frequency: 20.000 Hz
*
* Freq(Hz)	SPL(dB)	Phase(degrees)
20.000000	95.321	-131.1877
20.299999	95.419	-131.5551
20.600000	95.515	-131.9376
20.900000	95.607	-132.3259
21.200001	95.695	-132.7191
21.400000	95.752	-132.9762
21.799999	95.863	-133.4621
22.000000	95.918	-133.6966
22.400000	96.028	-134.1626
22.700001	96.109	-134.5157
23.000000	96.189	-134.8780
23.299999	96.266	-135.2511
23.600000	96.340	-135.6234
24.000000	96.433	-136.1020
24.299999	96.502	-136.4519
24.700001	96.592	-136.9071
25.000000	96.659	-137.2492
25.400000	96.746	-137.7183
25.799999	96.828	-138.1831
26.200001	96.906	-138.6297
26.500000	96.964	-138.9476
26.900000	97.040	-139.3564
27.200001	97.097	-139.6730
27.600000	97.172	-140.1159
28.000000	97.243	-140.5731
28.500000	97.324	-141.1356
29.000000	97.401	-141.6474
29.500000	97.483	-142.1419
30.000000	97.567	-142.6686
30.400000	97.632	-143.1253
30.700001	97.676	-143.4664
31.100000	97.729	-143.8949
31.500000	97.782	-144.2877
32.000000	97.852	-144.7559
32.500000	97.926	-145.2602
33.000000	97.993	-145.7977
33.500000	98.050	-146.3227
34.000000	98.098	-146.7912
34.500000	98.159	-147.2356
35.000000	98.223	-147.7016
35.500000	98.283	-148.2086
36.000000	98.336	-148.7154
36.500000	98.384	-149.1942
37.000000	98.433	-149.6383
37.500000	98.483	-150.0747
38.200001	98.548	-150.6996
38.700001	98.593	-151.1617
39.500000	98.654	-151.9006
40.000000	98.686	-152.3394
40.599998	98.724	-152.8382
41.200001	98.761	-153.3184
41.799999	98.796	-153.7907
42.500000	98.834	-154.3106
43.099998	98.869	-154.7228
43.700001	98.911	-155.1447
44.400002	98.959	-155.6931
45.000000	98.992	-156.1785
45.500000	99.016	-156.5547
46.200001	99.055	-157.0443
46.799999	99.091	-157.4968
47.500000	99.124	-158.0702
48.200001	99.146	-158.5895
48.700001	99.165	-158.9258
49.400002	99.193	-159.4544
50.000000	99.200	-159.9640
50.799999	99.185	-160.4917
51.500000	99.172	-160.7210
52.200001	99.181	-160.8371
53.000000	99.219	-160.9480
53.799999	99.289	-161.1586
54.500000	99.357	-161.5414
55.200001	99.411	-162.0523
56.000000	99.456	-162.6503
57.000000	99.498	-163.3886
58.000000	99.528	-164.0867
59.000000	99.551	-164.7478
60.000000	99.567	-165.3602
60.799999	99.583	-165.8017
61.500000	99.600	-166.2163
62.200001	99.613	-166.6579
63.000000	99.620	-167.1369
64.000000	99.627	-167.6709
65.000000	99.642	-168.1983
66.000000	99.654	-168.7569
67.000000	99.660	-169.2875
68.000000	99.665	-169.7953
69.000000	99.669	-170.2962
70.000000	99.670	-170.7689
71.000000	99.674	-171.2325
72.000000	99.677	-171.6982
73.000000	99.679	-172.1682
74.000000	99.679	-172.6311
75.000000	99.676	-173.0671
76.199997	99.676	-173.5807
77.500000	99.668	-174.1445
78.800003	99.660	-174.6688
80.000000	99.650	-175.1622
81.199997	99.639	-175.6198
82.500000	99.629	-176.1299
83.800003	99.615	-176.6239
85.000000	99.601	-177.0623
86.199997	99.587	-177.4895
87.500000	99.567	-177.9654
88.500000	99.548	-178.3026
90.000000	99.523	-178.8225
91.199997	99.501	-179.1902
92.500000	99.477	-179.6094
93.800003	99.443	-179.9546
95.000000	99.409	179.8014
96.199997	99.374	179.5796
97.500000	99.337	179.5549
98.800003	99.342	179.3156
100.000000	99.317	179.3398
101.500000	99.404	179.0525
103.000000	99.411	178.4266
104.400002	99.417	177.9273
106.000000	99.408	177.4659
107.500000	99.388	176.9565
109.000000	99.360	176.5279
110.599998	99.330	176.0872
112.000000	99.307	175.7197
113.800003	99.280	175.2770
115.000000	99.253	175.0176
117.199997	99.202	174.5361
118.000000	99.195	174.3671
120.599998	99.131	173.9208
122.000000	99.125	173.4257
124.099998	99.094	172.9976
125.000000	99.075	172.8438
126.500000	99.055	172.5571
128.000000	99.023	172.2904
131.500000	98.955	171.6385
132.000000	98.946	171.5484
134.000000	98.909	171.2057
136.000000	98.867	170.8978
138.000000	98.828	170.5836
140.000000	98.782	170.2562
143.000000	98.722	169.8320
145.000000	98.678	169.5621
147.500000	98.620	169.2577
150.000000	98.556	168.8242
152.500000	98.510	168.5587
155.000000	98.455	168.2766
157.500000	98.404	168.0184
160.000000	98.348	167.7182
162.500000	98.295	167.4673
165.000000	98.241	167.1997
167.500000	98.187	166.9729
170.000000	98.136	166.7393
172.500000	98.089	166.5168
175.000000	98.039	166.3215
177.500000	97.989	166.1285
180.000000	97.940	165.9412
182.500000	97.891	165.7784
185.000000	97.838	165.6187
187.500000	97.787	165.4852
190.000000	97.740	165.3077
192.500000	97.685	165.2211
195.000000	97.627	165.1211
197.500000	97.569	165.0701
200.000000	97.491	164.9222
203.000000	97.459	164.8819
206.000000	97.404	164.8102
209.000000	97.341	164.7888
212.000000	97.282	164.7950
214.000000	97.252	164.7784
218.000000	97.184	164.8221
220.000000	97.155	164.8411
224.000000	97.099	164.8187
227.000000	97.061	164.7773
230.000000	97.024	164.7086
233.000000	96.972	164.6178
236.000000	96.924	164.5442
240.000000	96.859	164.4514
243.000000	96.808	164.4012
247.000000	96.740	164.3990
250.000000	96.682	164.4027
254.000000	96.624	164.3955
258.000000	96.557	164.4367
262.000000	96.493	164.5121
265.000000	96.449	164.6133
269.000000	96.395	164.7830
272.000000	96.367	164.9205
276.000000	96.335	165.0295
280.000000	96.302	165.0644
285.000000	96.252	165.0161
290.000000	96.197	164.9557
295.000000	96.126	164.9537
300.000000	96.073	164.8792
304.000000	96.003	165.0347
307.000000	95.961	165.0746
311.000000	95.900	165.1543
315.000000	95.850	165.2411
320.000000	95.776	165.3644
325.000000	95.710	165.4836
330.000000	95.640	165.6476
335.000000	95.579	165.7844
340.000000	95.514	165.9960
345.000000	95.449	166.1490
350.000000	95.404	166.2914
355.000000	95.327	166.5681
360.000000	95.273	166.7804
365.000000	95.218	166.9911
370.000000	95.163	167.2009
375.000000	95.102	167.4374
382.000000	95.037	167.7471
387.000000	94.982	167.9855
395.000000	94.907	168.3932
400.000000	94.885	168.6114
406.000000	94.805	168.9952
412.000000	94.750	169.2913
418.000000	94.693	169.6249
425.000000	94.645	170.0049
431.000000	94.592	170.3256
437.000000	94.547	170.6512
444.000000	94.490	171.0576
450.000000	94.451	171.4666
455.000000	94.408	171.7198
462.000000	94.358	172.1470
468.000000	94.316	172.5223
475.000000	94.266	172.9633
482.000000	94.222	173.3725
487.000000	94.195	173.6689
494.000000	94.153	174.1395
500.000000	94.130	174.4291
508.000000	94.074	175.0160
515.000000	94.039	175.4668
522.000000	94.000	175.9268
530.000000	93.962	176.4755
538.000000	93.917	177.0288
545.000000	93.880	177.5046
552.000000	93.847	177.9976
560.000000	93.811	178.5175
570.000000	93.768	179.2108
580.000000	93.733	179.9051
590.000000	93.697	-179.4090
600.000000	93.657	-178.7798
608.000000	93.633	-178.1145
615.000000	93.609	-177.6017
622.000000	93.590	-177.0923
630.000000	93.568	-176.5115
640.000000	93.540	-175.7762
650.000000	93.528	-175.1349
660.000000	93.503	-174.2980
670.000000	93.488	-173.5427
680.000000	93.475	-172.7645
690.000000	93.461	-172.0171
700.000000	93.470	-171.2264
710.000000	93.448	-170.4839
720.000000	93.435	-169.6904
730.000000	93.432	-168.9316
740.000000	93.438	-168.0695
750.000000	93.461	-167.3559
762.000000	93.449	-166.1975
775.000000	93.469	-165.0485
788.000000	93.510	-163.9767
800.000000	93.561	-163.0665
812.000000	93.595	-162.2055
825.000000	93.638	-161.3091
838.000000	93.679	-160.4533
850.000000	93.690	-159.6392
862.000000	93.752	-158.8383
875.000000	93.800	-157.8536
885.000000	93.834	-157.3401
900.000000	93.903	-156.2664
912.000000	93.950	-155.4909
925.000000	94.011	-154.7164
938.000000	94.061	-153.8463
950.000000	94.147	-152.9079
962.000000	94.217	-152.2900
975.000000	94.312	-151.7160
988.000000	94.393	-151.2617
1000.000000	94.414	-150.7870
1015.000000	94.494	-149.7706
1030.000000	94.606	-148.9560
1044.000000	94.711	-148.3238
1060.000000	94.834	-147.6007
1075.000000	94.934	-147.0251
1090.000000	95.019	-146.4299
1106.000000	95.104	-145.8982
1120.000000	95.178	-145.4531
1138.000000	95.274	-144.8587
1150.000000	95.333	-144.7006
1172.000000	95.451	-143.9329
1180.000000	95.488	-143.7165
1206.000000	95.622	-143.0421
1220.000000	95.736	-142.7402
1241.000000	95.931	-142.2637
1250.000000	96.008	-142.1232
1265.000000	96.149	-141.7050
1280.000000	96.290	-141.3987
1315.000000	96.597	-140.7035
1320.000000	96.637	-140.6042
1340.000000	96.804	-140.1110
1360.000000	97.008	-139.6936
1380.000000	97.189	-139.2549
1400.000000	97.368	-138.7338
1430.000000	97.662	-137.8893
1450.000000	97.865	-137.3528
1475.000000	98.137	-136.7096
1500.000000	98.431	-136.3230
1525.000000	98.691	-136.0976
1550.000000	98.900	-135.8575
1575.000000	99.104	-135.6544
1600.000000	99.299	-135.4641
1625.000000	99.503	-135.0973
1650.000000	99.694	-134.9287
1675.000000	99.906	-134.6259
1700.000000	100.115	-134.3427
1725.000000	100.322	-134.1825
1750.000000	100.531	-133.9474
1775.000000	100.738	-133.7767
1800.000000	100.966	-133.5648
1825.000000	101.183	-133.4247
1850.000000	101.419	-133.2421
1875.000000	101.657	-133.1633
1900.000000	101.898	-133.0408
1925.000000	102.163	-133.0751
1950.000000	102.436	-133.0901
1975.000000	102.727	-133.1289
2000.000000	103.030	-133.3005
2030.000000	103.414	-133.6420
2060.000000	103.830	-134.2129
2090.000000	104.265	-135.1058
2120.000000	104.716	-136.4789
2140.000000	105.008	-137.6223
2180.000000	105.551	-140.6208
2200.000000	105.785	-142.4023
2240.000000	106.157	-146.3086
2270.000000	106.339	-149.4153
2300.000000	106.449	-152.4799
2330.000000	106.492	-155.2106
2360.000000	106.506	-157.6312
2400.000000	106.530	-160.5564
2430.000000	106.550	-162.8183
2470.000000	106.521	-165.8545
2500.000000	106.458	-167.9872
2540.000000	106.324	-170.6550
2580.000000	106.158	-172.9822
2620.000000	105.974	-174.9345
2650.000000	105.821	-176.2297
2690.000000	105.624	-177.5914
2720.000000	105.478	-178.4242
2760.000000	105.285	-179.2587
2800.000000	105.128	-179.8431
2850.000000	104.968	179.7240
2900.000000	104.875	179.4619
2950.000000	104.844	179.0295
3000.000000	104.836	178.4723
3040.000000	104.832	177.8955
3070.000000	104.831	177.4698
3110.000000	104.838	176.8026
3150.000000	104.845	176.1310
3200.000000	104.854	175.2361
3250.000000	104.861	174.3385
3300.000000	104.875	173.4200
3350.000000	104.897	172.4955
3400.000000	104.920	171.5442
3450.000000	104.958	170.5221
3500.000000	105.004	169.4496
3550.000000	105.055	168.2984
3600.000000	105.118	167.0254
3650.000000	105.180	165.6098
3700.000000	105.251	164.0518
3750.000000	105.315	162.2372
3820.000000	105.393	159.3900
3870.000000	105.428	157.0397
3950.000000	105.407	152.8373
4000.000000	105.336	149.9619
4060.000000	105.184	146.4164
4120.000000	104.944	142.8958
4180.000000	104.625	139.5179
4250.000000	104.164	135.7481
4310.000000	103.697	132.9479
4370.000000	103.174	130.4974
4440.000000	102.513	128.2886
4500.000000	101.919	126.8818
4550.000000	101.415	126.0547
4620.000000	100.709	125.5494
4680.000000	100.125	125.8094
4750.000000	99.620	126.6075
4820.000000	99.085	126.3474
4870.000000	98.665	126.8194
4940.000000	98.119	127.3732
5000.000000	97.628	128.0946
5080.000000	97.012	129.5084
5150.000000	96.489	131.0658
5220.000000	95.992	132.7478
5300.000000	95.478	134.8741
5380.000000	94.992	137.2708
5450.000000	94.608	139.5340
5520.000000	94.230	141.8381
5600.000000	93.854	144.5166
5700.000000	93.408	148.1263
5800.000000	93.029	152.1067
5900.000000	92.711	155.8564
6000.000000	92.417	160.0356
6080.000000	92.233	163.3125
6150.000000	92.113	166.1685
6220.000000	92.004	169.0723
6300.000000	91.903	172.3799
6400.000000	91.848	176.8157
6500.000000	91.868	-178.9233
6600.000000	91.911	-174.5094
6700.000000	92.035	-170.2899
6800.000000	92.211	-166.0287
6900.000000	92.439	-161.6626
7000.000000	92.769	-157.5133
7100.000000	93.129	-153.3523
7200.000000	93.618	-149.1522
7300.000000	94.174	-145.3983
7400.000000	94.883	-141.7963
7500.000000	95.705	-138.4950
7620.000000	96.886	-135.3005
7750.000000	98.461	-133.4157
7880.000000	100.382	-134.1963
8000.000000	102.451	-139.3699
8120.000000	104.492	-151.7566
8250.000000	105.502	-174.1852
8380.000000	104.359	164.3608
8500.000000	102.440	152.8699
8620.000000	100.562	147.6813
8750.000000	98.811	146.0087
8850.000000	97.678	146.3430
9000.000000	96.233	148.4335
9120.000000	95.313	150.7452
9250.000000	94.471	154.0313
9380.000000	93.798	157.5463
9500.000000	93.317	160.9967
9620.000000	92.994	164.5670
9750.000000	92.765	168.6663
9880.000000	92.707	172.3741
10000.000000	92.763	175.8829
10150.000000	93.093	179.3723
10300.000000	93.633	-178.0688
10440.000000	94.393	-177.1903
10600.000000	95.502	-179.1242
10750.000000	96.650	174.3239
10900.000000	97.404	161.5800
11060.000000	96.919	143.8558
11200.000000	95.318	131.2135
11380.000000	92.643	122.8296
11500.000000	90.909	121.2247
11720.000000	88.071	123.1175
11800.000000	87.161	124.5654
12060.000000	84.649	132.1766
12200.000000	83.552	136.9205
12410.000000	82.205	144.3714
12500.000000	81.688	147.9044
12650.000000	80.970	153.8922
12800.000000	80.325	160.2049
13150.000000	79.284	174.4080
13200.000000	79.124	176.9554
13400.000000	78.843	-175.3704
13600.000000	78.554	-166.9599
13800.000000	79.013	-159.1745
14000.000000	79.160	-151.4629
14300.000000	79.480	-140.7289
14500.000000	79.900	-134.4187
14750.000000	80.536	-126.7503
15000.000000	81.218	-118.7076
15250.000000	82.337	-109.1710
15500.000000	84.312	-100.8337
15750.000000	87.315	-100.5821
16000.000000	90.130	-117.6030
16250.000000	90.033	-143.9832
16500.000000	87.899	-158.1305
16750.000000	86.122	-162.5204
17000.000000	85.295	-164.7395
17250.000000	84.785	166.9684
17500.000000	82.638	-166.8817
17750.000000	82.912	178.8903
18000.000000	80.874	159.8365
18250.000000	77.315	147.6634
18500.000000	73.403	144.3679
18750.000000	70.122	147.7941
19000.000000	66.713	152.6998
19250.000000	63.331	161.3602
19500.000000	61.168	174.3745
19750.000000	58.071	-176.1643
20000.000000	55.714	-162.9341
