* Measurement data measured by REW V5.20.7
* Source: Microphone (Sound Blaster Play! 3), MICROPHONE (Master Volume), L, volume: 0.250
* Format: 256k Log Swept Sine, 1 sweep at -12.0 dBFS with no timing reference
* Dated: 15-Nov-2023 22:15:55
* REW Settings:
*  C-weighting compensation: Off
*  Target level: 75.0 dB
* Note: ; 
* Measurement: Custom Art H3 Pro L
* Smoothing: 1/24 octave
* Frequency Step: 1/48 octave
* Start Frequency: 20.000 Hz
*
* Freq(Hz)	SPL(dB)	Phase(degrees)
20.000000	90.404	45.4335
20.299999	90.442	44.2502
20.600000	90.477	43.0859
20.900000	90.510	41.9409
21.200001	90.541	40.8141
21.400000	90.560	40.0725
21.799999	90.597	38.6127
22.000000	90.613	37.8954
22.400000	90.645	36.4898
22.700001	90.667	35.4624
23.000000	90.690	34.4552
23.299999	90.714	33.4594
23.600000	90.739	32.4648
24.000000	90.770	31.1273
24.299999	90.789	30.1156
24.700001	90.806	28.7747
25.000000	90.812	27.7999
25.400000	90.812	26.5738
25.799999	90.812	25.4459
26.200001	90.817	24.3942
26.500000	90.827	23.6267
26.900000	90.846	22.5977
27.200001	90.861	21.8093
27.600000	90.879	20.7395
28.000000	90.892	19.6699
28.500000	90.901	18.3629
29.000000	90.908	17.0934
29.500000	90.912	15.8458
30.000000	90.912	14.6162
30.400000	90.909	13.6552
30.700001	90.906	12.9513
31.100000	90.902	12.0317
31.500000	90.899	11.1228
32.000000	90.894	9.9849
32.500000	90.886	8.8456
33.000000	90.872	7.7269
33.500000	90.855	6.6490
34.000000	90.839	5.6110
34.500000	90.825	4.5941
35.000000	90.812	3.5844
35.500000	90.798	2.5814
36.000000	90.782	1.5934
36.500000	90.766	0.6238
37.000000	90.749	-0.3300
37.500000	90.732	-1.2704
38.200001	90.706	-2.5598
38.700001	90.688	-3.4584
39.500000	90.658	-4.8664
40.000000	90.641	-5.7386
40.599998	90.619	-6.7893
41.200001	90.593	-7.8422
41.799999	90.561	-8.8704
42.500000	90.522	-10.0053
43.099998	90.493	-10.9485
43.700001	90.467	-11.9157
44.400002	90.431	-13.0664
45.000000	90.393	-14.0144
45.500000	90.363	-14.7662
46.200001	90.327	-15.8027
46.799999	90.298	-16.6971
47.500000	90.265	-17.7375
48.200001	90.235	-18.8063
48.700001	90.208	-19.5970
49.400002	90.155	-20.6636
50.000000	90.106	-21.4603
50.799999	90.059	-22.4246
51.500000	90.030	-23.3323
52.200001	89.993	-24.2916
53.000000	89.939	-25.3163
53.799999	89.893	-26.2734
54.500000	89.857	-27.1364
55.200001	89.816	-28.0153
56.000000	89.765	-28.9855
57.000000	89.704	-30.1709
58.000000	89.641	-31.3678
59.000000	89.575	-32.5391
60.000000	89.509	-33.6994
60.799999	89.453	-34.6127
61.500000	89.406	-35.3898
62.200001	89.361	-36.1573
63.000000	89.312	-37.0312
64.000000	89.254	-38.1191
65.000000	89.198	-39.2279
66.000000	89.131	-40.3304
67.000000	89.057	-41.3224
68.000000	88.992	-42.2106
69.000000	88.938	-43.1121
70.000000	88.882	-44.0649
71.000000	88.818	-45.0209
72.000000	88.751	-45.9439
73.000000	88.687	-46.8502
74.000000	88.625	-47.7607
75.000000	88.565	-48.6796
76.199997	88.491	-49.7797
77.500000	88.408	-50.9099
78.800003	88.331	-51.9982
80.000000	88.261	-53.0107
81.199997	88.189	-54.0131
82.500000	88.110	-55.0876
83.800003	88.027	-56.1481
85.000000	87.952	-57.0802
86.199997	87.882	-57.9883
87.500000	87.810	-58.9720
88.500000	87.756	-59.7285
90.000000	87.675	-60.8712
91.199997	87.607	-61.7816
92.500000	87.531	-62.7489
93.800003	87.453	-63.6870
95.000000	87.383	-64.5310
96.199997	87.314	-65.3548
97.500000	87.242	-66.2338
98.800003	87.172	-67.1080
100.000000	87.107	-67.8931
101.500000	87.033	-68.8549
103.000000	86.961	-69.8469
104.400002	86.889	-70.7791
106.000000	86.806	-71.8110
107.500000	86.733	-72.7552
109.000000	86.665	-73.7098
110.599998	86.591	-74.7499
112.000000	86.519	-75.6241
113.800003	86.429	-76.6763
115.000000	86.371	-77.4061
117.199997	86.247	-78.8307
118.000000	86.197	-79.3065
120.599998	86.085	-80.7058
122.000000	86.049	-81.5382
124.099998	85.981	-82.7739
125.000000	85.946	-83.2704
126.500000	85.882	-84.0824
128.000000	85.810	-84.9059
131.500000	85.653	-86.7344
132.000000	85.637	-86.9991
134.000000	85.577	-88.0618
136.000000	85.523	-89.1301
138.000000	85.454	-90.3126
140.000000	85.368	-91.4759
143.000000	85.246	-93.0867
145.000000	85.168	-94.1067
147.500000	85.065	-95.2944
150.000000	84.976	-96.4979
152.500000	84.898	-97.7756
155.000000	84.814	-99.0358
157.500000	84.724	-100.2032
160.000000	84.631	-101.3816
162.500000	84.541	-102.6063
165.000000	84.463	-103.8766
167.500000	84.395	-105.1532
170.000000	84.332	-106.3814
172.500000	84.275	-107.5619
175.000000	84.217	-108.7201
177.500000	84.150	-109.8640
180.000000	84.084	-111.0478
182.500000	84.024	-112.3025
185.000000	83.962	-113.5209
187.500000	83.901	-114.6565
190.000000	83.840	-115.7888
192.500000	83.782	-116.9516
195.000000	83.728	-118.1186
197.500000	83.675	-119.2698
200.000000	83.621	-120.4172
203.000000	83.558	-121.7980
206.000000	83.496	-123.1743
209.000000	83.435	-124.5455
212.000000	83.377	-125.9105
214.000000	83.339	-126.8116
218.000000	83.262	-128.6060
220.000000	83.225	-129.5034
224.000000	83.150	-131.3046
227.000000	83.096	-132.6655
230.000000	83.044	-134.0261
233.000000	82.993	-135.3715
236.000000	82.940	-136.6962
240.000000	82.869	-138.4586
243.000000	82.818	-139.7891
247.000000	82.754	-141.5694
250.000000	82.707	-142.8959
254.000000	82.644	-144.6481
258.000000	82.581	-146.3908
262.000000	82.518	-148.1229
265.000000	82.472	-149.4278
269.000000	82.412	-151.1707
272.000000	82.368	-152.4724
276.000000	82.308	-154.2007
280.000000	82.249	-155.9241
285.000000	82.174	-158.0578
290.000000	82.101	-160.1838
295.000000	82.032	-162.3092
300.000000	81.965	-164.4353
304.000000	81.910	-166.1318
307.000000	81.868	-167.3948
311.000000	81.811	-169.0627
315.000000	81.756	-170.7186
320.000000	81.686	-172.7891
325.000000	81.620	-174.8588
330.000000	81.555	-176.9232
335.000000	81.488	-178.9778
340.000000	81.420	178.9877
345.000000	81.351	176.9755
350.000000	81.282	174.9708
355.000000	81.215	172.9691
360.000000	81.149	170.9713
365.000000	81.083	168.9794
370.000000	81.015	167.0186
375.000000	80.945	165.0835
382.000000	80.848	162.3894
387.000000	80.780	160.4842
395.000000	80.679	157.4966
400.000000	80.617	155.6555
406.000000	80.545	153.4583
412.000000	80.474	151.2733
418.000000	80.408	149.0895
425.000000	80.334	146.5303
431.000000	80.272	144.3310
437.000000	80.208	142.1219
444.000000	80.131	139.5397
450.000000	80.062	137.3448
455.000000	80.001	135.5311
462.000000	79.915	133.0082
468.000000	79.843	130.8566
475.000000	79.760	128.3781
482.000000	79.675	125.9323
487.000000	79.610	124.1962
494.000000	79.516	121.7918
500.000000	79.433	119.7557
508.000000	79.323	117.0701
515.000000	79.227	114.7607
522.000000	79.132	112.4834
530.000000	79.021	109.9174
538.000000	78.905	107.4072
545.000000	78.798	105.2452
552.000000	78.689	103.1157
560.000000	78.565	100.7375
570.000000	78.410	97.8630
580.000000	78.252	95.1116
590.000000	78.088	92.4821
600.000000	77.916	89.9904
608.000000	77.777	88.1165
615.000000	77.658	86.5707
622.000000	77.542	85.1272
630.000000	77.414	83.6263
640.000000	77.266	81.9794
650.000000	77.132	80.5904
660.000000	77.024	79.4692
670.000000	76.962	78.6105
680.000000	76.962	77.9396
690.000000	77.033	77.3589
700.000000	77.179	76.7639
710.000000	77.392	76.0135
720.000000	77.661	74.9760
730.000000	77.977	73.5634
740.000000	78.326	71.7423
750.000000	78.686	69.4933
762.000000	79.106	66.2582
775.000000	79.522	62.2171
788.000000	79.875	57.7546
800.000000	80.147	53.4189
812.000000	80.372	49.0116
825.000000	80.572	44.2470
838.000000	80.734	39.5549
850.000000	80.854	35.3109
862.000000	80.949	31.1326
875.000000	81.031	26.6968
885.000000	81.086	23.3717
900.000000	81.163	18.5312
912.000000	81.223	14.7719
925.000000	81.285	10.7966
938.000000	81.345	6.8821
950.000000	81.396	3.2987
962.000000	81.445	-0.2475
975.000000	81.500	-4.0325
988.000000	81.560	-7.7556
1000.000000	81.620	-11.1401
1015.000000	81.698	-15.3180
1030.000000	81.775	-19.4769
1044.000000	81.845	-23.3772
1060.000000	81.923	-27.8243
1075.000000	81.997	-31.9513
1090.000000	82.075	-36.0302
1106.000000	82.162	-40.3324
1120.000000	82.236	-44.0708
1138.000000	82.327	-48.8839
1150.000000	82.385	-52.1049
1172.000000	82.486	-57.9786
1180.000000	82.522	-60.0918
1206.000000	82.646	-66.8556
1220.000000	82.713	-70.4340
1241.000000	82.809	-75.7642
1250.000000	82.848	-78.0520
1265.000000	82.911	-81.8671
1280.000000	82.972	-85.6588
1315.000000	83.120	-94.3074
1320.000000	83.143	-95.5186
1340.000000	83.237	-100.3119
1360.000000	83.330	-105.0626
1380.000000	83.424	-109.8181
1400.000000	83.518	-114.5775
1430.000000	83.665	-121.6442
1450.000000	83.772	-126.2957
1475.000000	83.908	-132.0984
1500.000000	84.025	-137.9351
1525.000000	84.119	-143.7527
1550.000000	84.198	-149.3956
1575.000000	84.290	-154.7806
1600.000000	84.411	-159.9744
1625.000000	84.554	-165.0891
1650.000000	84.711	-170.2373
1675.000000	84.880	-175.4757
1700.000000	85.054	179.2261
1725.000000	85.239	173.9221
1750.000000	85.436	168.6531
1775.000000	85.654	163.3822
1800.000000	85.882	157.9370
1825.000000	86.107	152.3046
1850.000000	86.311	146.5763
1875.000000	86.486	140.7927
1900.000000	86.650	134.9807
1925.000000	86.809	129.1646
1950.000000	86.953	123.2991
1975.000000	87.070	117.3345
2000.000000	87.157	111.2761
2030.000000	87.219	103.9509
2060.000000	87.233	96.6963
2090.000000	87.211	89.6511
2120.000000	87.160	82.8728
2140.000000	87.108	78.4932
2180.000000	86.967	69.9916
2200.000000	86.881	65.8589
2240.000000	86.688	57.8590
2270.000000	86.530	52.1604
2300.000000	86.373	46.7745
2330.000000	86.222	41.6930
2360.000000	86.072	36.8500
2400.000000	85.876	30.6357
2430.000000	85.736	26.1165
2470.000000	85.557	20.2573
2500.000000	85.421	16.0508
2540.000000	85.248	10.8467
2580.000000	85.102	5.9507
2620.000000	84.992	1.1826
2650.000000	84.928	-2.3104
2690.000000	84.859	-6.8987
2720.000000	84.817	-10.2684
2760.000000	84.781	-14.5759
2800.000000	84.772	-18.6353
2850.000000	84.790	-23.4805
2900.000000	84.831	-28.2623
2950.000000	84.899	-33.0496
3000.000000	84.994	-37.7688
3040.000000	85.097	-41.3845
3070.000000	85.192	-43.9946
3110.000000	85.335	-47.4175
3150.000000	85.492	-50.8771
3200.000000	85.707	-55.3099
3250.000000	85.955	-59.8751
3300.000000	86.232	-64.5554
3350.000000	86.518	-69.1072
3400.000000	86.802	-73.5569
3450.000000	87.086	-78.0981
3500.000000	87.373	-82.8033
3550.000000	87.665	-87.6763
3600.000000	87.960	-92.6743
3650.000000	88.268	-97.6797
3700.000000	88.603	-102.6321
3750.000000	88.965	-107.6849
3820.000000	89.492	-115.4546
3870.000000	89.853	-121.7703
3950.000000	90.297	-133.3052
4000.000000	90.432	-141.0852
4060.000000	90.416	-150.3972
4120.000000	90.199	-159.2448
4180.000000	89.806	-167.3644
4250.000000	89.199	-175.6967
4310.000000	88.611	178.1864
4370.000000	88.000	173.0243
4440.000000	87.306	168.2595
4500.000000	86.745	165.1138
4550.000000	86.300	162.9390
4620.000000	85.714	160.3325
4680.000000	85.246	158.3901
4750.000000	84.734	156.4014
4820.000000	84.251	154.8134
4870.000000	83.925	154.0316
4940.000000	83.490	153.4302
5000.000000	83.120	153.2517
5080.000000	82.624	153.4203
5150.000000	82.196	154.0372
5220.000000	81.790	155.2460
5300.000000	81.390	157.6012
5380.000000	81.126	161.1349
5450.000000	81.035	164.9067
5520.000000	81.082	168.8558
5600.000000	81.291	173.1840
5700.000000	81.748	177.9822
5800.000000	82.366	-177.9032
5900.000000	83.127	-174.0704
6000.000000	84.014	-170.5702
6080.000000	84.800	-168.3806
6150.000000	85.531	-167.1022
6220.000000	86.295	-166.4893
6300.000000	87.216	-166.6868
6400.000000	88.429	-168.2909
6500.000000	89.607	-171.4692
6600.000000	90.510	-176.5791
6700.000000	90.939	176.7577
6800.000000	90.935	169.6743
6900.000000	90.659	163.4963
7000.000000	90.222	159.4270
7100.000000	89.769	157.7545
7200.000000	89.427	157.8331
7300.000000	89.245	158.4238
7400.000000	89.196	158.2794
7500.000000	89.129	156.4729
7620.000000	88.664	152.5762
7750.000000	87.402	150.8674
7880.000000	85.742	156.7603
8000.000000	84.647	167.7932
8120.000000	84.454	-179.7147
8250.000000	85.193	-168.1929
8380.000000	86.542	-161.2257
8500.000000	87.913	-160.3337
8620.000000	88.862	-165.4924
8750.000000	88.826	-175.4374
8850.000000	87.939	177.9556
9000.000000	85.648	175.0056
9120.000000	83.540	178.5719
9250.000000	81.400	-173.5334
9380.000000	79.559	-162.7378
9500.000000	78.131	-150.9855
9620.000000	76.920	-138.2894
9750.000000	75.807	-124.0632
9880.000000	74.866	-109.6234
10000.000000	74.127	-96.1814
10150.000000	73.351	-79.1245
10300.000000	72.728	-61.3630
10440.000000	72.279	-43.9933
10600.000000	71.905	-23.7478
10750.000000	71.681	-4.8096
10900.000000	71.574	13.9689
11060.000000	71.590	33.8214
11200.000000	71.716	51.2758
11380.000000	72.049	74.3752
11500.000000	72.382	90.1002
11720.000000	73.235	118.6868
11800.000000	73.634	128.8593
12060.000000	75.338	160.6084
12200.000000	76.576	176.5681
12410.000000	78.957	-161.7544
12500.000000	80.154	-153.8838
12650.000000	82.195	-144.4451
12800.000000	83.853	-141.7671
13150.000000	83.677	-151.1045
13200.000000	83.158	-151.0396
13400.000000	80.416	-142.7695
13600.000000	77.410	-124.0222
13800.000000	74.697	-97.8282
14000.000000	72.376	-65.0126
14300.000000	71.011	-4.1011
14500.000000	72.959	36.2745
14750.000000	76.618	72.9235
15000.000000	79.702	94.4392
15250.000000	81.728	106.5841
15500.000000	82.362	112.8448
15750.000000	81.446	120.0914
16000.000000	79.428	134.9279
16250.000000	77.119	157.9381
16500.000000	75.160	-173.0213
16750.000000	73.836	-140.6670
17000.000000	73.241	-108.1224
17250.000000	73.404	-78.5245
17500.000000	74.028	-56.0350
17750.000000	74.199	-43.6476
18000.000000	72.939	-35.4652
18250.000000	70.056	-19.4810
18500.000000	66.184	7.8514
18750.000000	62.186	42.5742
19000.000000	58.615	80.9063
19250.000000	55.614	120.7828
19500.000000	53.152	160.8290
19750.000000	51.216	-162.5835
