* Measurement data measured by REW V5.20.7
* Source: Microphone (Sound Blaster Play! 3), MICROPHONE (Master Volume), R, volume: 0.250
* Format: 256k Log Swept Sine, 1 sweep at -12.0 dBFS with no timing reference
* Dated: 04-Dec-2023 17:30:02
* REW Settings:
*  C-weighting compensation: Off
*  Target level: 75.0 dB
* Note: ; 
* Measurement: FiR Audio e12 R
* Smoothing: 1/24 octave
* Frequency Step: 1/48 octave
* Start Frequency: 20.000 Hz
*
* Freq(Hz)	SPL(dB)	Phase(degrees)
20.000000	90.176	62.9826
20.299999	90.225	62.0651
20.600000	90.271	61.1673
20.900000	90.316	60.2881
21.200001	90.357	59.4279
21.400000	90.384	58.8656
21.799999	90.433	57.7683
22.000000	90.457	57.2329
22.400000	90.501	56.1856
22.700001	90.533	55.4174
23.000000	90.562	54.6620
23.299999	90.588	53.9230
23.600000	90.612	53.2065
24.000000	90.641	52.2957
24.299999	90.663	51.6479
24.700001	90.696	50.8175
25.000000	90.725	50.1981
25.400000	90.766	49.3451
25.799999	90.803	48.4424
26.200001	90.830	47.5091
26.500000	90.840	46.8220
26.900000	90.842	45.9701
27.200001	90.840	45.4030
27.600000	90.840	44.7457
28.000000	90.850	44.1652
28.500000	90.879	43.4573
29.000000	90.919	42.6848
29.500000	90.955	41.8369
30.000000	90.980	40.9663
30.400000	90.992	40.2939
30.700001	90.997	39.8134
31.100000	91.003	39.2021
31.500000	91.008	38.6162
32.000000	91.012	37.9135
32.500000	91.013	37.2543
33.000000	91.016	36.6464
33.500000	91.025	36.0654
34.000000	91.039	35.4592
34.500000	91.051	34.7995
35.000000	91.053	34.1161
35.500000	91.045	33.4726
36.000000	91.034	32.9015
36.500000	91.028	32.3774
37.000000	91.027	31.8505
37.500000	91.027	31.3032
38.200001	91.019	30.5509
38.700001	91.013	30.0553
39.500000	91.009	29.2921
40.000000	91.008	28.7950
40.599998	91.000	28.1890
41.200001	90.983	27.6295
41.799999	90.965	27.1488
42.500000	90.952	26.6465
43.099998	90.946	26.2029
43.700001	90.938	25.7401
44.400002	90.925	25.2140
45.000000	90.913	24.7789
45.500000	90.903	24.4126
46.200001	90.885	23.9047
46.799999	90.868	23.4946
47.500000	90.852	23.0157
48.200001	90.832	22.5117
48.700001	90.814	22.1726
49.400002	90.790	21.7606
50.000000	90.777	21.4078
50.799999	90.757	20.8860
51.500000	90.730	20.4816
52.200001	90.710	20.1475
53.000000	90.696	19.7130
53.799999	90.669	19.2383
54.500000	90.637	18.8948
55.200001	90.609	18.5930
56.000000	90.580	18.2296
57.000000	90.538	17.7579
58.000000	90.486	17.3130
59.000000	90.435	16.9576
60.000000	90.399	16.6069
60.799999	90.372	16.2706
61.500000	90.344	15.9717
62.200001	90.313	15.7046
63.000000	90.279	15.4487
64.000000	90.247	15.1441
65.000000	90.216	14.7908
66.000000	90.175	14.4385
67.000000	90.129	14.1284
68.000000	90.083	13.8485
69.000000	90.039	13.5767
70.000000	89.993	13.3061
71.000000	89.948	13.0649
72.000000	89.909	12.8242
73.000000	89.867	12.5575
74.000000	89.819	12.3334
75.000000	89.776	12.1412
76.199997	89.725	11.8760
77.500000	89.661	11.6145
78.800003	89.599	11.3901
80.000000	89.545	11.2025
81.199997	89.496	11.0170
82.500000	89.443	10.7815
83.800003	89.383	10.5723
85.000000	89.328	10.4114
86.199997	89.272	10.2527
87.500000	89.210	10.1213
88.500000	89.165	10.0282
90.000000	89.099	9.8574
91.199997	89.043	9.7408
92.500000	88.986	9.6409
93.800003	88.930	9.5250
95.000000	88.874	9.4250
96.199997	88.817	9.3634
97.500000	88.759	9.3070
98.800003	88.701	9.2316
100.000000	88.644	9.1754
101.500000	88.575	9.1382
103.000000	88.511	9.0942
104.400002	88.448	9.0388
106.000000	88.374	9.0103
107.500000	88.307	9.0126
109.000000	88.243	9.0093
110.599998	88.171	8.9844
112.000000	88.105	8.9742
113.800003	88.023	9.0039
115.000000	87.973	9.0352
117.199997	87.886	9.0750
118.000000	87.852	9.0865
120.599998	87.734	9.1478
122.000000	87.668	9.2095
124.099998	87.574	9.3335
125.000000	87.538	9.3954
126.500000	87.485	9.4815
128.000000	87.433	9.5299
131.500000	87.285	9.6454
132.000000	87.262	9.6770
134.000000	87.171	9.8278
136.000000	87.082	9.9913
138.000000	86.994	10.1795
140.000000	86.911	10.3593
143.000000	86.789	10.6144
145.000000	86.709	10.8021
147.500000	86.611	11.0505
150.000000	86.512	11.3024
152.500000	86.413	11.5355
155.000000	86.318	11.7878
157.500000	86.229	12.0396
160.000000	86.138	12.3035
162.500000	86.049	12.6243
165.000000	85.964	12.9651
167.500000	85.869	13.3032
170.000000	85.765	13.6439
172.500000	85.671	13.9568
175.000000	85.588	14.2404
177.500000	85.503	14.5521
180.000000	85.411	14.9225
182.500000	85.320	15.3162
185.000000	85.237	15.6946
187.500000	85.158	16.0479
190.000000	85.077	16.3773
192.500000	84.991	16.6927
195.000000	84.903	17.0221
197.500000	84.813	17.3892
200.000000	84.723	17.7877
203.000000	84.615	18.2852
206.000000	84.510	18.7990
209.000000	84.405	19.3190
212.000000	84.301	19.8386
214.000000	84.232	20.1889
218.000000	84.096	20.8868
220.000000	84.028	21.2181
224.000000	83.898	21.8457
227.000000	83.807	22.3018
230.000000	83.720	22.7684
233.000000	83.637	23.2770
236.000000	83.554	23.8345
240.000000	83.437	24.5833
243.000000	83.349	25.1138
247.000000	83.236	25.8263
250.000000	83.151	26.3844
254.000000	83.044	27.1218
258.000000	82.940	27.8798
262.000000	82.839	28.6761
265.000000	82.766	29.2645
269.000000	82.672	30.0139
272.000000	82.602	30.5569
276.000000	82.512	31.2824
280.000000	82.422	32.0152
285.000000	82.306	32.9246
290.000000	82.191	33.8489
295.000000	82.081	34.7910
300.000000	81.976	35.7297
304.000000	81.894	36.4720
307.000000	81.832	37.0263
311.000000	81.751	37.7605
315.000000	81.670	38.4882
320.000000	81.568	39.3933
325.000000	81.468	40.2897
330.000000	81.371	41.1811
335.000000	81.275	42.0822
340.000000	81.178	42.9921
345.000000	81.080	43.9033
350.000000	80.984	44.8233
355.000000	80.892	45.7444
360.000000	80.804	46.6546
365.000000	80.717	47.5625
370.000000	80.632	48.4718
375.000000	80.545	49.3875
382.000000	80.425	50.6743
387.000000	80.340	51.5950
395.000000	80.211	53.0655
400.000000	80.135	53.9690
406.000000	80.046	55.0474
412.000000	79.958	56.1365
418.000000	79.867	57.2310
425.000000	79.762	58.4963
431.000000	79.675	59.5623
437.000000	79.594	60.6224
444.000000	79.501	61.8653
450.000000	79.421	62.9385
455.000000	79.353	63.8403
462.000000	79.259	65.0874
468.000000	79.182	66.1436
475.000000	79.097	67.3880
482.000000	79.015	68.6360
487.000000	78.958	69.5241
494.000000	78.878	70.7586
500.000000	78.807	71.8108
508.000000	78.716	73.2151
515.000000	78.641	74.4265
522.000000	78.569	75.6344
530.000000	78.491	77.0169
538.000000	78.414	78.3906
545.000000	78.347	79.5848
552.000000	78.280	80.7656
560.000000	78.204	82.0942
570.000000	78.114	83.7449
580.000000	78.030	85.3889
590.000000	77.949	87.0175
600.000000	77.862	88.6281
608.000000	77.787	89.9034
615.000000	77.720	91.0170
622.000000	77.654	92.1355
630.000000	77.580	93.4399
640.000000	77.489	95.1376
650.000000	77.402	96.8944
660.000000	77.316	98.6761
670.000000	77.235	100.4700
680.000000	77.165	102.2924
690.000000	77.109	104.1283
700.000000	77.065	105.9671
710.000000	77.031	107.7994
720.000000	76.999	109.6005
730.000000	76.969	111.3597
740.000000	76.944	113.0854
750.000000	76.925	114.8056
762.000000	76.911	116.8767
775.000000	76.909	119.1141
788.000000	76.918	121.3366
800.000000	76.931	123.3330
812.000000	76.951	125.2781
825.000000	76.984	127.3443
838.000000	77.029	129.3631
850.000000	77.081	131.1827
862.000000	77.136	132.9474
875.000000	77.193	134.7674
885.000000	77.236	136.1103
900.000000	77.303	138.0834
912.000000	77.362	139.6351
925.000000	77.433	141.2817
938.000000	77.508	142.9017
950.000000	77.576	144.3481
962.000000	77.641	145.7318
975.000000	77.711	147.1773
988.000000	77.781	148.5897
1000.000000	77.851	149.8733
1015.000000	77.944	151.4551
1030.000000	78.041	153.0103
1044.000000	78.131	154.4063
1060.000000	78.229	155.8921
1075.000000	78.317	157.2061
1090.000000	78.405	158.4965
1106.000000	78.503	159.8639
1120.000000	78.591	161.0486
1138.000000	78.702	162.5285
1150.000000	78.772	163.4688
1172.000000	78.893	165.0939
1180.000000	78.935	165.6645
1206.000000	79.068	167.5035
1220.000000	79.144	168.5055
1241.000000	79.259	170.0153
1250.000000	79.307	170.6528
1265.000000	79.384	171.6813
1280.000000	79.458	172.6602
1315.000000	79.623	174.8748
1320.000000	79.647	175.1961
1340.000000	79.748	176.5065
1360.000000	79.853	177.8424
1380.000000	79.957	179.1602
1400.000000	80.060	-179.5853
1430.000000	80.210	-177.7783
1450.000000	80.315	-176.5540
1475.000000	80.460	-174.9725
1500.000000	80.611	-173.3680
1525.000000	80.764	-171.8309
1550.000000	80.921	-170.3808
1575.000000	81.083	-168.9765
1600.000000	81.257	-167.5529
1625.000000	81.445	-166.0863
1650.000000	81.644	-164.6180
1675.000000	81.851	-163.2223
1700.000000	82.068	-161.9319
1725.000000	82.293	-160.7136
1750.000000	82.533	-159.5113
1775.000000	82.794	-158.3080
1800.000000	83.076	-157.1289
1825.000000	83.371	-156.0451
1850.000000	83.684	-155.1219
1875.000000	84.013	-154.3886
1900.000000	84.357	-153.8275
1925.000000	84.719	-153.4020
1950.000000	85.107	-153.0938
1975.000000	85.522	-152.9978
2000.000000	85.948	-153.2540
2030.000000	86.451	-154.0269
2060.000000	86.921	-155.2635
2090.000000	87.344	-156.9718
2120.000000	87.726	-159.0316
2140.000000	87.954	-160.5420
2180.000000	88.327	-163.8292
2200.000000	88.468	-165.5949
2240.000000	88.661	-169.2951
2270.000000	88.732	-172.1176
2300.000000	88.746	-174.8526
2330.000000	88.716	-177.3897
2360.000000	88.653	-179.6879
2400.000000	88.515	177.5663
2430.000000	88.377	175.6810
2470.000000	88.158	173.3672
2500.000000	87.973	171.7910
2540.000000	87.705	169.9928
2580.000000	87.430	168.6299
2620.000000	87.153	167.6506
2650.000000	86.941	167.0815
2690.000000	86.657	166.4659
2720.000000	86.447	166.0927
2760.000000	86.170	165.7284
2800.000000	85.903	165.6020
2850.000000	85.597	165.8532
2900.000000	85.314	166.4119
2950.000000	85.049	167.0668
3000.000000	84.806	167.7469
3040.000000	84.626	168.3360
3070.000000	84.501	168.8614
3110.000000	84.356	169.7210
3150.000000	84.230	170.7274
3200.000000	84.088	172.0362
3250.000000	83.966	173.2869
3300.000000	83.862	174.4542
3350.000000	83.776	175.6171
3400.000000	83.714	176.9406
3450.000000	83.684	178.4578
3500.000000	83.675	-179.9874
3550.000000	83.684	-178.5671
3600.000000	83.698	-177.3088
3650.000000	83.718	-176.1797
3700.000000	83.765	-175.1221
3750.000000	83.845	-173.9529
3820.000000	83.988	-172.1551
3870.000000	84.104	-170.9387
3950.000000	84.322	-169.2638
4000.000000	84.478	-168.3966
4060.000000	84.687	-167.4318
4120.000000	84.933	-166.3870
4180.000000	85.215	-165.3203
4250.000000	85.583	-164.3686
4310.000000	85.933	-164.0110
4370.000000	86.311	-164.2469
4440.000000	86.740	-165.5151
4500.000000	86.971	-167.2313
4550.000000	86.980	-168.1286
4620.000000	86.915	-166.9099
4680.000000	87.168	-164.3854
4750.000000	87.865	-162.5852
4820.000000	88.686	-163.1710
4870.000000	89.244	-164.7343
4940.000000	89.962	-167.9407
5000.000000	90.504	-171.4443
5080.000000	91.041	-177.2866
5150.000000	91.262	176.6552
5220.000000	91.259	169.9709
5300.000000	91.028	162.1008
5380.000000	90.560	155.0130
5450.000000	89.992	150.0939
5520.000000	89.335	146.5314
5600.000000	88.527	143.8477
5700.000000	87.514	142.0206
5800.000000	86.561	141.4193
5900.000000	85.696	141.8321
6000.000000	84.939	143.4010
6080.000000	84.415	145.3673
6150.000000	84.007	147.3404
6220.000000	83.646	149.4009
6300.000000	83.288	151.7909
6400.000000	82.920	154.7997
6500.000000	82.635	157.9942
6600.000000	82.445	161.6746
6700.000000	82.343	165.7168
6800.000000	82.321	169.7367
6900.000000	82.384	173.5642
7000.000000	82.537	177.1483
7100.000000	82.783	-179.4590
7200.000000	83.134	-176.0168
7300.000000	83.598	-172.4535
7400.000000	84.176	-169.1076
7500.000000	84.883	-166.3395
7620.000000	85.924	-164.1618
7750.000000	87.305	-163.8206
7880.000000	88.873	-166.4771
8000.000000	90.140	-172.7443
8120.000000	90.743	176.5784
8250.000000	90.578	160.5772
8380.000000	89.654	144.5186
8500.000000	88.221	134.0989
8620.000000	86.548	128.7141
8750.000000	84.820	127.4919
8850.000000	83.666	128.7288
9000.000000	82.237	132.4179
9120.000000	81.334	136.1484
9250.000000	80.566	140.5376
9380.000000	79.989	145.1314
9500.000000	79.616	149.7037
9620.000000	79.396	154.7630
9750.000000	79.323	160.5077
9880.000000	79.418	166.0270
10000.000000	79.664	170.6447
10150.000000	80.205	175.4861
10300.000000	81.029	178.9317
10440.000000	82.069	-179.4613
10600.000000	83.506	179.4174
10750.000000	84.782	173.3328
10900.000000	85.488	161.2876
11060.000000	85.155	145.1488
11200.000000	83.924	133.2600
11380.000000	81.550	125.0861
11500.000000	79.835	123.9136
11720.000000	76.969	127.8709
11800.000000	76.060	130.4677
12060.000000	73.555	140.5583
12200.000000	72.430	146.4083
12410.000000	70.993	155.4799
12500.000000	70.468	159.5835
12650.000000	69.700	166.9695
12800.000000	69.055	175.0695
13150.000000	67.982	-165.2339
13200.000000	67.878	-162.4927
13400.000000	67.569	-151.9060
13600.000000	67.420	-141.8484
13800.000000	67.434	-131.8130
14000.000000	67.643	-121.1989
14300.000000	68.366	-105.0559
14500.000000	69.176	-95.3111
14750.000000	70.660	-85.3148
15000.000000	72.734	-79.2991
15250.000000	75.120	-80.2404
15500.000000	76.819	-91.3430
15750.000000	76.750	-108.6120
16000.000000	74.948	-119.5734
16250.000000	72.534	-120.1497
16500.000000	70.577	-115.0143
16750.000000	69.326	-107.8123
17000.000000	68.590	-99.6315
17250.000000	68.271	-91.8240
17500.000000	68.354	-86.4629
17750.000000	68.622	-85.7083
18000.000000	68.602	-90.3454
18250.000000	67.859	-97.6830
18500.000000	66.293	-102.4867
18750.000000	64.162	-101.7108
19000.000000	61.897	-96.2302
19250.000000	59.875	-88.5792
19500.000000	58.216	-81.0945
19750.000000	56.866	-75.2216
