* Measurement data measured by REW V5.20.7
* Source: Microphone (Sound Blaster Play! 3), MICROPHONE (Master Volume), L, volume: 0.250
* Format: 256k Log Swept Sine, 1 sweep at -12.0 dBFS with no timing reference
* Dated: 04-Dec-2023 17:29:11
* REW Settings:
*  C-weighting compensation: Off
*  Target level: 75.0 dB
* Note: ; 
* Measurement: FiR Audio e12 L
* Smoothing: 1/24 octave
* Frequency Step: 1/48 octave
* Start Frequency: 20.000 Hz
*
* Freq(Hz)	SPL(dB)	Phase(degrees)
20.000000	90.427	54.8442
20.299999	90.471	53.8082
20.600000	90.513	52.8085
20.900000	90.556	51.8415
21.200001	90.599	50.8956
21.400000	90.629	50.2676
21.799999	90.686	49.0103
22.000000	90.712	48.3820
22.400000	90.757	47.1439
22.700001	90.784	46.2571
23.000000	90.809	45.4268
23.299999	90.835	44.6511
23.600000	90.867	43.9082
24.000000	90.917	42.9177
24.299999	90.958	42.1375
24.700001	91.005	41.0365
25.000000	91.030	40.1946
25.400000	91.047	39.1177
25.799999	91.054	38.1571
26.200001	91.067	37.3116
26.500000	91.084	36.7094
26.900000	91.118	35.8798
27.200001	91.145	35.2058
27.600000	91.174	34.2418
28.000000	91.188	33.2625
28.500000	91.187	32.1251
29.000000	91.184	31.1299
29.500000	91.193	30.2167
30.000000	91.211	29.2920
30.400000	91.226	28.5193
30.700001	91.234	27.9296
31.100000	91.240	27.1548
31.500000	91.241	26.4136
32.000000	91.242	25.5464
32.500000	91.246	24.7272
33.000000	91.253	23.9225
33.500000	91.261	23.1129
34.000000	91.265	22.3036
34.500000	91.266	21.5131
35.000000	91.265	20.7520
35.500000	91.264	20.0136
36.000000	91.263	19.2848
36.500000	91.262	18.5592
37.000000	91.260	17.8381
37.500000	91.257	17.1227
38.200001	91.251	16.1286
38.700001	91.243	15.4279
39.500000	91.225	14.3590
40.000000	91.214	13.7382
40.599998	91.204	13.0291
41.200001	91.198	12.3237
41.799999	91.193	11.6014
42.500000	91.180	10.7573
43.099998	91.165	10.0633
43.700001	91.149	9.4011
44.400002	91.131	8.6493
45.000000	91.118	8.0052
45.500000	91.107	7.4587
46.200001	91.088	6.6725
46.799999	91.066	5.9961
47.500000	91.032	5.2505
48.200001	90.996	4.5838
48.700001	90.972	4.1564
49.400002	90.949	3.6032
50.000000	90.938	3.1296
50.799999	90.928	2.4420
51.500000	90.913	1.8085
52.200001	90.892	1.2014
53.000000	90.866	0.5421
53.799999	90.839	-0.1130
54.500000	90.812	-0.6719
55.200001	90.784	-1.2114
56.000000	90.753	-1.8297
57.000000	90.710	-2.6080
58.000000	90.664	-3.3500
59.000000	90.622	-4.0646
60.000000	90.583	-4.7811
60.799999	90.550	-5.3419
61.500000	90.521	-5.8115
62.200001	90.493	-6.2656
63.000000	90.462	-6.7780
64.000000	90.421	-7.4029
65.000000	90.377	-7.9855
66.000000	90.337	-8.5477
67.000000	90.296	-9.1234
68.000000	90.251	-9.7054
69.000000	90.204	-10.2618
70.000000	90.159	-10.7922
71.000000	90.117	-11.3361
72.000000	90.072	-11.8827
73.000000	90.025	-12.4046
74.000000	89.979	-12.9095
75.000000	89.932	-13.4064
76.199997	89.872	-13.9745
77.500000	89.810	-14.5543
78.800003	89.751	-15.1464
80.000000	89.696	-15.6785
81.199997	89.644	-16.2031
82.500000	89.587	-16.7635
83.800003	89.528	-17.2856
85.000000	89.474	-17.7391
86.199997	89.420	-18.1862
87.500000	89.359	-18.6811
88.500000	89.310	-19.0541
90.000000	89.237	-19.5944
91.199997	89.180	-20.0178
92.500000	89.120	-20.4513
93.800003	89.063	-20.8671
95.000000	89.009	-21.2549
96.199997	88.952	-21.6262
97.500000	88.890	-21.9983
98.800003	88.830	-22.3698
100.000000	88.774	-22.7216
101.500000	88.704	-23.1402
103.000000	88.636	-23.5314
104.400002	88.576	-23.9158
106.000000	88.498	-24.3611
107.500000	88.422	-24.7242
109.000000	88.354	-25.0566
110.599998	88.288	-25.4451
112.000000	88.228	-25.7928
113.800003	88.149	-26.2081
115.000000	88.097	-26.4550
117.199997	88.004	-26.9050
118.000000	87.969	-27.0784
120.599998	87.854	-27.6490
122.000000	87.790	-27.9288
124.099998	87.697	-28.2944
125.000000	87.658	-28.4351
126.500000	87.597	-28.6637
128.000000	87.538	-28.9142
131.500000	87.384	-29.4993
132.000000	87.362	-29.5780
134.000000	87.272	-29.8795
136.000000	87.184	-30.1616
138.000000	87.100	-30.4194
140.000000	87.023	-30.6637
143.000000	86.908	-31.0616
145.000000	86.826	-31.3026
147.500000	86.725	-31.5797
150.000000	86.625	-31.8334
152.500000	86.525	-32.0699
155.000000	86.425	-32.2993
157.500000	86.327	-32.5422
160.000000	86.231	-32.7875
162.500000	86.136	-33.0125
165.000000	86.043	-33.2288
167.500000	85.951	-33.4309
170.000000	85.860	-33.5836
172.500000	85.770	-33.7027
175.000000	85.679	-33.8536
177.500000	85.590	-34.0438
180.000000	85.500	-34.2019
182.500000	85.412	-34.2869
185.000000	85.325	-34.3640
187.500000	85.240	-34.4745
190.000000	85.161	-34.6041
192.500000	85.080	-34.7230
195.000000	84.994	-34.8276
197.500000	84.904	-34.9261
200.000000	84.813	-35.0082
203.000000	84.706	-35.0709
206.000000	84.600	-35.1082
209.000000	84.498	-35.1222
212.000000	84.396	-35.1091
214.000000	84.327	-35.0961
218.000000	84.188	-35.0945
220.000000	84.119	-35.1101
224.000000	83.983	-35.1636
227.000000	83.886	-35.2236
230.000000	83.798	-35.2820
233.000000	83.717	-35.3074
236.000000	83.639	-35.2742
240.000000	83.525	-35.1775
243.000000	83.434	-35.1429
247.000000	83.322	-35.1432
250.000000	83.245	-35.0961
254.000000	83.131	-34.9846
258.000000	83.016	-34.8903
262.000000	82.910	-34.7687
265.000000	82.830	-34.6652
269.000000	82.726	-34.5283
272.000000	82.650	-34.3959
276.000000	82.552	-34.1744
280.000000	82.463	-33.9373
285.000000	82.362	-33.6855
290.000000	82.267	-33.5365
295.000000	82.167	-33.4357
300.000000	82.062	-33.3351
304.000000	81.975	-33.2291
307.000000	81.907	-33.1263
311.000000	81.816	-32.9770
315.000000	81.726	-32.8218
320.000000	81.617	-32.6208
325.000000	81.510	-32.4099
330.000000	81.405	-32.1683
335.000000	81.299	-31.8932
340.000000	81.193	-31.5894
345.000000	81.092	-31.2672
350.000000	80.998	-30.9236
355.000000	80.911	-30.5547
360.000000	80.832	-30.1895
365.000000	80.759	-29.8553
370.000000	80.687	-29.5587
375.000000	80.612	-29.2964
382.000000	80.507	-28.9617
387.000000	80.432	-28.7280
395.000000	80.306	-28.3308
400.000000	80.225	-28.0715
406.000000	80.128	-27.7326
412.000000	80.033	-27.3686
418.000000	79.940	-26.9991
425.000000	79.836	-26.5526
431.000000	79.751	-26.1598
437.000000	79.668	-25.7602
444.000000	79.570	-25.2923
450.000000	79.486	-24.8934
455.000000	79.416	-24.5494
462.000000	79.324	-24.0527
468.000000	79.250	-23.6127
475.000000	79.167	-23.1031
482.000000	79.085	-22.5984
487.000000	79.024	-22.2325
494.000000	78.938	-21.7126
500.000000	78.869	-21.2695
508.000000	78.782	-20.6780
515.000000	78.711	-20.1526
522.000000	78.643	-19.6123
530.000000	78.565	-18.9908
538.000000	78.485	-18.3737
545.000000	78.416	-17.8336
552.000000	78.350	-17.2971
560.000000	78.281	-16.6762
570.000000	78.199	-15.8973
580.000000	78.121	-15.1143
590.000000	78.041	-14.3351
600.000000	77.962	-13.5721
608.000000	77.904	-12.9505
615.000000	77.855	-12.4004
622.000000	77.808	-11.8472
630.000000	77.755	-11.2100
640.000000	77.688	-10.4164
650.000000	77.618	-9.6352
660.000000	77.548	-8.8402
670.000000	77.483	-8.0034
680.000000	77.424	-7.1204
690.000000	77.372	-6.2090
700.000000	77.326	-5.2836
710.000000	77.281	-4.3810
720.000000	77.241	-3.4953
730.000000	77.207	-2.6052
740.000000	77.181	-1.7125
750.000000	77.161	-0.8163
762.000000	77.139	0.2546
775.000000	77.114	1.3900
788.000000	77.089	2.5167
800.000000	77.072	3.5845
812.000000	77.063	4.6763
825.000000	77.068	5.8879
838.000000	77.086	7.1115
850.000000	77.107	8.1976
862.000000	77.132	9.2109
875.000000	77.163	10.2736
885.000000	77.192	11.0975
900.000000	77.245	12.3364
912.000000	77.295	13.3176
925.000000	77.355	14.3531
938.000000	77.417	15.3256
950.000000	77.476	16.1644
962.000000	77.536	16.9691
975.000000	77.608	17.8228
988.000000	77.688	18.6606
1000.000000	77.765	19.4146
1015.000000	77.865	20.3127
1030.000000	77.963	21.1265
1044.000000	78.050	21.8152
1060.000000	78.148	22.5554
1075.000000	78.246	23.2271
1090.000000	78.348	23.8875
1106.000000	78.456	24.5787
1120.000000	78.546	25.1406
1138.000000	78.656	25.7676
1150.000000	78.726	26.1475
1172.000000	78.854	26.8318
1180.000000	78.902	27.0854
1206.000000	79.058	27.9375
1220.000000	79.139	28.3929
1241.000000	79.256	29.0141
1250.000000	79.304	29.2533
1265.000000	79.382	29.6379
1280.000000	79.460	30.0336
1315.000000	79.651	31.0416
1320.000000	79.679	31.1931
1340.000000	79.791	31.8000
1360.000000	79.900	32.3669
1380.000000	80.008	32.8824
1400.000000	80.113	33.3887
1430.000000	80.281	34.2112
1450.000000	80.404	34.8112
1475.000000	80.560	35.5699
1500.000000	80.719	36.2599
1525.000000	80.878	36.8644
1550.000000	81.041	37.4715
1575.000000	81.219	38.1297
1600.000000	81.409	38.8115
1625.000000	81.603	39.4612
1650.000000	81.803	40.0145
1675.000000	82.007	40.4791
1700.000000	82.220	40.9158
1725.000000	82.446	41.3630
1750.000000	82.686	41.8153
1775.000000	82.934	42.2208
1800.000000	83.188	42.5146
1825.000000	83.450	42.6678
1850.000000	83.717	42.7060
1875.000000	83.993	42.6868
1900.000000	84.284	42.6270
1925.000000	84.585	42.5022
1950.000000	84.889	42.2506
1975.000000	85.196	41.8403
2000.000000	85.517	41.2407
2030.000000	85.912	40.1849
2060.000000	86.304	38.8944
2090.000000	86.679	37.4933
2120.000000	87.029	35.8804
2140.000000	87.247	34.6340
2180.000000	87.642	31.7117
2200.000000	87.815	30.0463
2240.000000	88.097	26.4072
2270.000000	88.253	23.5604
2300.000000	88.363	20.7220
2330.000000	88.422	17.9244
2360.000000	88.427	15.1599
2400.000000	88.356	11.5496
2430.000000	88.253	8.9551
2470.000000	88.058	5.7735
2500.000000	87.882	3.6942
2540.000000	87.625	1.3848
2580.000000	87.344	-0.4821
2620.000000	87.046	-2.0533
2650.000000	86.819	-3.0776
2690.000000	86.514	-4.2350
2720.000000	86.288	-4.8990
2760.000000	86.000	-5.4512
2800.000000	85.731	-5.6641
2850.000000	85.409	-5.6707
2900.000000	85.108	-5.5469
2950.000000	84.829	-5.3348
3000.000000	84.573	-4.9327
3040.000000	84.393	-4.3751
3070.000000	84.272	-3.8303
3110.000000	84.124	-3.0218
3150.000000	83.990	-2.2102
3200.000000	83.842	-1.2405
3250.000000	83.712	-0.3029
3300.000000	83.604	0.7384
3350.000000	83.525	1.9968
3400.000000	83.469	3.3886
3450.000000	83.429	4.7557
3500.000000	83.406	6.0250
3550.000000	83.392	7.1780
3600.000000	83.378	8.3361
3650.000000	83.394	9.5823
3700.000000	83.458	10.9135
3750.000000	83.545	12.2592
3820.000000	83.683	13.9488
3870.000000	83.796	14.9904
3950.000000	83.999	16.4534
4000.000000	84.148	17.4174
4060.000000	84.357	18.7239
4120.000000	84.593	20.0306
4180.000000	84.855	21.1449
4250.000000	85.197	22.0930
4310.000000	85.523	22.5634
4370.000000	85.879	22.7693
4440.000000	86.343	22.6906
4500.000000	86.747	22.0010
4550.000000	87.004	20.7639
4620.000000	87.086	18.9127
4680.000000	86.973	18.9496
4750.000000	87.067	21.2755
4820.000000	87.642	23.8896
4870.000000	88.260	24.7861
4940.000000	89.185	24.0797
5000.000000	89.917	21.7862
5080.000000	90.711	16.7016
5150.000000	91.139	10.7755
5220.000000	91.277	4.0464
5300.000000	91.171	-4.0521
5380.000000	90.844	-11.5182
5450.000000	90.372	-16.9572
5520.000000	89.763	-21.2784
5600.000000	88.975	-24.8877
5700.000000	87.955	-27.6538
5800.000000	86.978	-28.6899
5900.000000	86.099	-28.0558
6000.000000	85.327	-26.2809
6080.000000	84.780	-24.4580
6150.000000	84.355	-22.6998
6220.000000	83.979	-20.8417
6300.000000	83.605	-18.5945
6400.000000	83.222	-15.3942
6500.000000	82.942	-11.6031
6600.000000	82.749	-7.5404
6700.000000	82.639	-3.5383
6800.000000	82.615	0.3008
6900.000000	82.679	3.9772
7000.000000	82.836	7.6721
7100.000000	83.104	11.6198
7200.000000	83.481	15.6268
7300.000000	83.966	19.3096
7400.000000	84.574	22.4512
7500.000000	85.322	24.8907
7620.000000	86.425	26.6654
7750.000000	87.890	26.8734
7880.000000	89.468	23.9558
8000.000000	90.513	16.5579
8120.000000	90.814	4.1534
8250.000000	90.393	-13.2844
8380.000000	89.216	-28.7751
8500.000000	87.625	-37.4485
8620.000000	85.916	-40.8925
8750.000000	84.222	-40.8190
8850.000000	83.107	-39.2637
9000.000000	81.750	-35.6425
9120.000000	80.903	-32.1235
9250.000000	80.190	-27.8063
9380.000000	79.675	-22.7626
9500.000000	79.363	-17.5930
9620.000000	79.191	-12.3730
9750.000000	79.165	-6.9948
9880.000000	79.311	-2.0685
10000.000000	79.606	1.9811
10150.000000	80.218	6.3549
10300.000000	81.148	9.9957
10440.000000	82.330	12.0074
10600.000000	83.959	10.4505
10750.000000	85.417	2.7157
10900.000000	86.222	-12.0187
11060.000000	85.845	-31.1599
11200.000000	84.478	-44.5157
11380.000000	81.926	-52.6556
11500.000000	80.138	-53.5036
11720.000000	77.220	-50.1343
11800.000000	76.312	-48.0916
12060.000000	73.864	-40.2113
12200.000000	72.802	-35.4844
12410.000000	71.479	-27.4193
12500.000000	71.000	-23.5604
12650.000000	70.297	-16.8818
12800.000000	69.698	-10.2286
13150.000000	68.636	4.5745
13200.000000	68.522	6.6484
13400.000000	68.199	15.0325
13600.000000	68.123	23.6846
13800.000000	68.265	32.5901
14000.000000	68.598	41.2061
14300.000000	69.526	52.3865
14500.000000	70.509	58.0745
14750.000000	72.221	62.2362
15000.000000	74.350	61.4702
15250.000000	76.190	52.0270
15500.000000	76.659	33.7192
15750.000000	75.384	16.7492
16000.000000	73.102	9.2103
16250.000000	70.885	9.8053
16500.000000	69.406	15.0793
16750.000000	68.851	21.4238
17000.000000	69.029	24.8442
17250.000000	69.473	22.6085
17500.000000	69.634	14.2880
17750.000000	69.117	2.0970
18000.000000	67.756	-9.3659
18250.000000	65.661	-15.8811
18500.000000	63.158	-16.5214
18750.000000	60.664	-12.5482
19000.000000	58.593	-6.0431
19250.000000	57.204	0.1360
19500.000000	56.370	3.6470
19750.000000	55.730	4.4966
