* Measurement data measured by REW V5.20.7
* Source: Microphone (Sound Blaster Play! 3), MICROPHONE (Master Volume), L, volume: 0.250
* Format: 256k Log Swept Sine, 1 sweep at -12.0 dBFS with no timing reference
* Dated: 17-Jul-2023 13:42:42
* REW Settings:
*  C-weighting compensation: Off
*  Target level: 75.0 dB
* Note: ; 
* Measurement: Nostalgia Tesseract L
* Smoothing: None
* Frequency Step: 1/48 octave
* Start Frequency: 20.000 Hz
*
* Freq(Hz)	SPL(dB)	Phase(degrees)
20.000000	82.271	-98.0698
20.299999	82.358	-98.9237
20.600000	82.446	-99.7917
20.900000	82.533	-100.6871
21.200001	82.615	-101.6102
21.400000	82.664	-102.2296
21.799999	82.751	-103.4429
22.000000	82.788	-104.0184
22.400000	82.858	-105.0767
22.700001	82.911	-105.7910
23.000000	82.969	-106.4604
23.299999	83.033	-107.1190
23.600000	83.101	-107.7909
24.000000	83.191	-108.7242
24.299999	83.253	-109.4406
24.700001	83.327	-110.3829
25.000000	83.377	-111.0571
25.400000	83.440	-111.9021
25.799999	83.504	-112.7016
26.200001	83.569	-113.4819
26.500000	83.618	-114.0639
26.900000	83.680	-114.8358
27.200001	83.724	-115.4077
27.600000	83.780	-116.1570
28.000000	83.833	-116.8905
28.500000	83.896	-117.7827
29.000000	83.954	-118.6363
29.500000	84.012	-119.4471
30.000000	84.073	-120.2365
30.400000	84.123	-120.8723
30.700001	84.159	-121.3551
31.100000	84.205	-121.9987
31.500000	84.248	-122.6308
32.000000	84.300	-123.3964
32.500000	84.352	-124.1453
33.000000	84.403	-124.8918
33.500000	84.451	-125.6347
34.000000	84.495	-126.3633
34.500000	84.535	-127.0699
35.000000	84.571	-127.7460
35.500000	84.607	-128.3811
36.000000	84.645	-128.9808
36.500000	84.687	-129.5749
37.000000	84.731	-130.1937
37.500000	84.771	-130.8325
38.200001	84.818	-131.7021
38.700001	84.851	-132.2897
39.500000	84.905	-133.2213
40.000000	84.936	-133.8052
40.599998	84.969	-134.4820
41.200001	85.000	-135.1192
41.799999	85.033	-135.7252
42.500000	85.073	-136.4138
43.099998	85.108	-137.0113
43.700001	85.139	-137.6136
44.400002	85.170	-138.2798
45.000000	85.200	-138.8195
45.500000	85.226	-139.2851
46.200001	85.258	-139.9640
46.799999	85.278	-140.5110
47.500000	85.307	-141.1084
48.200001	85.339	-141.7544
48.700001	85.355	-142.2285
49.400002	85.370	-142.8100
50.000000	85.392	-143.2510
50.799999	85.432	-143.9089
51.500000	85.456	-144.5334
52.200001	85.472	-145.1025
53.000000	85.494	-145.6994
53.799999	85.519	-146.2861
54.500000	85.542	-146.8016
55.200001	85.564	-147.3350
56.000000	85.583	-147.9307
57.000000	85.609	-148.6465
58.000000	85.629	-149.3613
59.000000	85.654	-149.9905
60.000000	85.685	-150.7180
60.799999	85.693	-151.2958
61.500000	85.702	-151.7244
62.200001	85.716	-152.1735
63.000000	85.724	-152.7027
64.000000	85.735	-153.2608
65.000000	85.758	-153.8893
66.000000	85.765	-154.5234
67.000000	85.780	-155.0845
68.000000	85.795	-155.7055
69.000000	85.805	-156.2852
70.000000	85.817	-156.8862
71.000000	85.817	-157.4280
72.000000	85.834	-157.9128
73.000000	85.846	-158.5480
74.000000	85.836	-159.0491
75.000000	85.855	-159.4787
76.199997	85.867	-160.2220
77.500000	85.868	-160.7987
78.800003	85.888	-161.5025
80.000000	85.886	-162.1120
81.199997	85.888	-162.6639
82.500000	85.900	-163.2752
83.800003	85.894	-163.9317
85.000000	85.900	-164.4316
86.199997	85.899	-165.0283
87.500000	85.906	-165.5725
88.500000	85.908	-166.0867
90.000000	85.908	-166.7232
91.199997	85.901	-167.3159
92.500000	85.897	-167.7310
93.800003	85.912	-168.3960
95.000000	85.890	-168.9032
96.199997	85.892	-169.3660
97.500000	85.888	-169.9117
98.800003	85.882	-170.4879
100.000000	85.871	-170.9039
101.500000	85.881	-171.4945
103.000000	85.869	-172.1116
104.400002	85.863	-172.6159
106.000000	85.854	-173.2202
107.500000	85.849	-173.7668
109.000000	85.846	-174.3530
110.599998	85.832	-174.9953
112.000000	85.820	-175.4695
113.800003	85.810	-176.0853
115.000000	85.802	-176.5233
117.199997	85.788	-177.3137
118.000000	85.777	-177.5743
120.599998	85.759	-178.4659
122.000000	85.754	-178.9466
124.099998	85.733	-179.6636
125.000000	85.720	-179.9477
126.500000	85.712	179.6204
128.000000	85.701	179.1288
131.500000	85.670	177.9550
132.000000	85.663	177.8031
134.000000	85.642	177.1893
136.000000	85.623	176.5471
138.000000	85.601	175.9507
140.000000	85.581	175.4017
143.000000	85.551	174.4698
145.000000	85.530	173.8736
147.500000	85.503	173.1677
150.000000	85.471	172.4494
152.500000	85.442	171.7344
155.000000	85.410	171.0134
157.500000	85.383	170.3431
160.000000	85.354	169.6356
162.500000	85.323	169.0008
165.000000	85.289	168.3105
167.500000	85.259	167.6702
170.000000	85.228	167.0240
172.500000	85.191	166.4070
175.000000	85.161	165.8068
177.500000	85.129	165.1438
180.000000	85.097	164.5526
182.500000	85.060	163.8948
185.000000	85.026	163.2947
187.500000	84.991	162.7099
190.000000	84.960	162.1451
192.500000	84.923	161.5815
195.000000	84.888	161.0341
197.500000	84.854	160.4594
200.000000	84.816	159.8932
203.000000	84.775	159.2245
206.000000	84.731	158.5622
209.000000	84.684	157.9103
212.000000	84.644	157.3324
214.000000	84.618	156.9293
218.000000	84.558	156.1027
220.000000	84.525	155.6569
224.000000	84.474	154.8488
227.000000	84.430	154.2588
230.000000	84.386	153.6787
233.000000	84.338	153.1095
236.000000	84.298	152.5618
240.000000	84.239	151.8276
243.000000	84.197	151.2534
247.000000	84.143	150.5157
250.000000	84.098	149.9847
254.000000	84.043	149.2856
258.000000	83.981	148.6375
262.000000	83.926	147.9598
265.000000	83.884	147.4510
269.000000	83.829	146.7974
272.000000	83.792	146.2923
276.000000	83.736	145.6607
280.000000	83.679	145.0249
285.000000	83.613	144.3014
290.000000	83.541	143.5125
295.000000	83.479	142.7733
300.000000	83.416	142.0493
304.000000	83.364	141.4531
307.000000	83.328	141.0771
311.000000	83.274	140.5352
315.000000	83.220	139.9675
320.000000	83.164	139.3381
325.000000	83.104	138.6756
330.000000	83.047	137.9893
335.000000	82.982	137.3765
340.000000	82.925	136.7406
345.000000	82.864	136.1171
350.000000	82.805	135.5651
355.000000	82.759	134.9389
360.000000	82.709	134.4109
365.000000	82.659	133.7682
370.000000	82.606	133.2235
375.000000	82.550	132.6892
382.000000	82.478	131.9412
387.000000	82.435	131.4004
395.000000	82.362	130.5882
400.000000	82.320	130.0656
406.000000	82.268	129.4690
412.000000	82.213	128.9149
418.000000	82.158	128.3018
425.000000	82.102	127.6680
431.000000	82.057	127.1153
437.000000	82.020	126.5211
444.000000	81.971	125.8942
450.000000	81.928	125.3841
455.000000	81.887	124.9323
462.000000	81.837	124.3440
468.000000	81.803	123.8246
475.000000	81.760	123.2401
482.000000	81.729	122.6917
487.000000	81.693	122.2888
494.000000	81.667	121.7192
500.000000	81.629	121.2657
508.000000	81.588	120.6605
515.000000	81.555	120.0846
522.000000	81.532	119.5745
530.000000	81.505	119.0360
538.000000	81.480	118.4337
545.000000	81.460	117.9284
552.000000	81.427	117.4478
560.000000	81.404	116.8159
570.000000	81.374	116.1435
580.000000	81.349	115.5033
590.000000	81.330	114.8836
600.000000	81.321	114.2227
608.000000	81.301	113.7469
615.000000	81.286	113.2553
622.000000	81.291	112.8522
630.000000	81.288	112.3705
640.000000	81.289	111.8402
650.000000	81.305	111.2800
660.000000	81.311	110.6557
670.000000	81.314	110.0114
680.000000	81.331	109.4673
690.000000	81.333	108.8490
700.000000	81.358	108.2922
710.000000	81.384	107.8050
720.000000	81.416	107.2397
730.000000	81.421	106.6924
740.000000	81.450	106.1159
750.000000	81.469	105.5872
762.000000	81.521	104.9950
775.000000	81.577	104.2967
788.000000	81.646	103.7799
800.000000	81.704	103.1691
812.000000	81.762	102.5479
825.000000	81.834	101.8604
838.000000	81.918	101.2513
850.000000	82.002	100.6156
862.000000	82.098	100.0870
875.000000	82.203	99.4633
885.000000	82.280	98.9000
900.000000	82.407	98.0261
912.000000	82.511	97.3864
925.000000	82.630	96.6640
938.000000	82.770	95.9521
950.000000	82.898	95.2459
962.000000	83.026	94.5605
975.000000	83.162	93.6748
988.000000	83.308	92.7755
1000.000000	83.442	91.9114
1015.000000	83.612	90.8359
1030.000000	83.807	89.7483
1044.000000	83.980	88.7057
1060.000000	84.171	87.4679
1075.000000	84.350	86.1541
1090.000000	84.533	84.7994
1106.000000	84.718	83.3125
1120.000000	84.908	81.9783
1138.000000	85.144	80.3580
1150.000000	85.286	79.1584
1172.000000	85.570	76.9018
1180.000000	85.648	75.9791
1206.000000	85.958	73.2586
1220.000000	86.140	71.5749
1241.000000	86.405	68.9949
1250.000000	86.525	67.8890
1265.000000	86.718	66.1092
1280.000000	86.877	64.3863
1315.000000	87.209	59.6477
1320.000000	87.251	58.9964
1340.000000	87.410	56.1511
1360.000000	87.562	53.3079
1380.000000	87.703	50.4844
1400.000000	87.816	47.7094
1430.000000	87.928	43.2864
1450.000000	87.958	40.2158
1475.000000	87.953	36.5790
1500.000000	87.915	33.1469
1525.000000	87.837	29.9759
1550.000000	87.704	27.1901
1575.000000	87.544	24.6570
1600.000000	87.364	22.4132
1625.000000	87.180	20.7331
1650.000000	87.021	19.6101
1675.000000	86.917	19.0044
1700.000000	86.854	18.7706
1725.000000	86.865	18.7065
1750.000000	86.967	18.6893
1775.000000	87.135	18.5336
1800.000000	87.379	18.2308
1825.000000	87.712	17.6587
1850.000000	88.104	16.7644
1875.000000	88.509	15.2792
1900.000000	88.931	13.0828
1925.000000	89.340	10.3193
1950.000000	89.707	6.8022
1975.000000	89.994	2.8541
2000.000000	90.212	-1.4700
2030.000000	90.338	-6.8423
2060.000000	90.291	-12.1773
2090.000000	90.087	-17.2084
2120.000000	89.764	-21.5553
2140.000000	89.511	-23.9619
2180.000000	89.009	-27.5206
2200.000000	88.806	-28.7043
2240.000000	88.530	-30.6676
2270.000000	88.371	-32.3163
2300.000000	88.223	-34.2799
2330.000000	88.034	-36.3819
2360.000000	87.809	-38.5808
2400.000000	87.420	-41.1121
2430.000000	87.110	-42.5259
2470.000000	86.690	-43.6925
2500.000000	86.355	-44.2400
2540.000000	85.917	-44.5100
2580.000000	85.504	-44.3146
2620.000000	85.115	-43.6831
2650.000000	84.844	-42.7004
2690.000000	84.585	-40.7993
2720.000000	84.430	-38.9286
2760.000000	84.306	-36.2137
2800.000000	84.312	-33.3661
2850.000000	84.513	-29.9163
2900.000000	84.928	-27.1019
2950.000000	85.559	-25.3470
3000.000000	86.247	-25.3259
3040.000000	86.711	-26.9003
3070.000000	86.968	-28.5116
3110.000000	87.169	-31.0945
3150.000000	87.235	-33.6270
3200.000000	87.184	-36.3808
3250.000000	87.062	-38.3700
3300.000000	86.900	-39.6295
3350.000000	86.682	-40.6562
3400.000000	86.409	-41.4757
3450.000000	86.070	-41.8523
3500.000000	85.663	-41.5850
3550.000000	85.259	-40.0746
3600.000000	84.967	-37.1111
3650.000000	84.856	-33.2942
3700.000000	84.954	-29.6620
3750.000000	85.230	-26.8633
3820.000000	85.763	-25.1129
3870.000000	86.115	-25.5956
3950.000000	86.410	-28.1776
4000.000000	86.316	-30.2865
4060.000000	85.857	-32.4590
4120.000000	85.131	-33.2512
4180.000000	84.260	-31.9713
4250.000000	83.266	-28.1278
4310.000000	82.567	-22.6963
4370.000000	82.080	-15.6035
4440.000000	81.786	-6.4335
4500.000000	81.773	1.2642
4550.000000	81.917	7.4190
4620.000000	82.325	15.4432
4680.000000	82.753	21.1609
4750.000000	83.351	27.1326
4820.000000	84.148	32.1336
4870.000000	84.704	34.9308
4940.000000	85.461	37.4290
5000.000000	86.056	38.1870
5080.000000	86.655	37.5046
5150.000000	86.899	35.6968
5220.000000	86.820	33.9048
5300.000000	86.450	33.2539
5380.000000	85.802	34.1569
5450.000000	85.135	36.3070
5520.000000	84.457	39.5604
5600.000000	83.706	44.1404
5700.000000	82.842	51.1917
5800.000000	82.156	59.4821
5900.000000	81.658	69.2743
6000.000000	81.320	77.9864
6080.000000	81.185	83.1554
6150.000000	80.729	85.0912
6220.000000	79.638	87.8118
6300.000000	78.033	95.9027
6400.000000	76.615	112.7672
6500.000000	75.916	131.5477
6600.000000	75.614	148.8372
6700.000000	75.534	165.3371
6800.000000	75.548	-179.1777
6900.000000	75.609	-164.1892
7000.000000	75.797	-148.8655
7100.000000	76.098	-133.1841
7200.000000	76.458	-117.9931
7300.000000	76.885	-103.1637
7400.000000	77.411	-88.8030
7500.000000	78.017	-74.9886
7620.000000	78.938	-59.5096
7750.000000	80.140	-44.1388
7880.000000	81.527	-31.7457
8000.000000	82.542	-25.2379
8120.000000	82.732	-22.6851
8250.000000	81.644	-18.9299
8380.000000	79.708	-8.6194
8500.000000	77.857	8.2930
8620.000000	76.515	32.3750
8750.000000	76.090	61.4071
8850.000000	76.580	82.0335
9000.000000	77.611	105.9795
9120.000000	78.178	121.5942
9250.000000	78.640	135.6376
9380.000000	76.083	153.4639
9500.000000	77.712	-174.5159
9620.000000	79.046	-156.2106
9750.000000	80.111	-140.0198
9880.000000	80.714	-125.9087
10000.000000	80.942	-112.6575
10150.000000	81.028	-94.8842
10300.000000	81.101	-75.8365
10440.000000	81.317	-56.2303
10600.000000	81.645	-34.7293
10750.000000	81.988	-16.8312
10900.000000	82.025	-1.3397
11060.000000	81.513	14.6729
11200.000000	80.767	30.2757
11380.000000	79.629	52.7708
11500.000000	78.699	70.0305
11720.000000	77.042	104.6648
11800.000000	76.449	117.9065
12060.000000	74.614	162.7045
12200.000000	73.817	-171.2717
12410.000000	73.035	-130.4707
12500.000000	72.989	-112.6842
12650.000000	73.119	-83.4907
12800.000000	73.306	-55.8279
13150.000000	73.854	-1.7115
13200.000000	73.846	4.8130
13400.000000	73.104	30.6960
13600.000000	71.600	58.3004
13800.000000	69.776	90.3488
14000.000000	67.948	127.8955
14300.000000	65.595	-171.3492
14500.000000	64.561	-131.9253
14750.000000	63.331	-85.4082
15000.000000	61.167	-39.0046
15250.000000	58.743	7.8630
15500.000000	55.006	73.6124
15750.000000	53.512	153.4882
16000.000000	55.102	-134.1057
16250.000000	56.662	-80.8425
16500.000000	58.396	-21.4056
16750.000000	61.785	20.0298
17000.000000	61.906	59.5264
17250.000000	62.939	104.5093
17500.000000	63.283	135.6377
17750.000000	61.355	170.8063
18000.000000	58.967	-147.2998
18250.000000	57.049	-97.7148
18500.000000	56.120	-37.9282
18750.000000	56.994	10.3240
19000.000000	57.026	51.7396
19250.000000	56.908	89.2007
19500.000000	54.777	119.0596
19750.000000	53.631	153.2290
