* Measurement data measured by REW V5.20.7
* Source: Microphone (Sound Blaster Play! 3), MICROPHONE (Master Volume), R, volume: 0.250
* Format: 256k Log Swept Sine, 1 sweep at -12.0 dBFS with no timing reference
* Dated: 17-Jul-2023 13:41:31
* REW Settings:
*  C-weighting compensation: Off
*  Target level: 75.0 dB
* Note: ; 
* Measurement: Nostalgia Tesseract R
* Smoothing: None
* Frequency Step: 1/48 octave
* Start Frequency: 20.000 Hz
*
* Freq(Hz)	SPL(dB)	Phase(degrees)
20.000000	82.002	-95.1173
20.299999	82.093	-96.1782
20.600000	82.172	-97.2456
20.900000	82.238	-98.2718
21.200001	82.293	-99.2048
21.400000	82.330	-99.7649
21.799999	82.410	-100.7714
22.000000	82.456	-101.2465
22.400000	82.560	-102.2152
22.700001	82.640	-102.9934
23.000000	82.714	-103.8125
23.299999	82.777	-104.6359
23.600000	82.832	-105.4305
24.000000	82.896	-106.4129
24.299999	82.943	-107.0953
24.700001	83.008	-107.9645
25.000000	83.058	-108.6077
25.400000	83.123	-109.4621
25.799999	83.185	-110.3005
26.200001	83.245	-111.1129
26.500000	83.291	-111.7104
26.900000	83.352	-112.5048
27.200001	83.397	-113.1046
27.600000	83.455	-113.9048
28.000000	83.510	-114.6910
28.500000	83.576	-115.6428
29.000000	83.642	-116.5765
29.500000	83.706	-117.5081
30.000000	83.763	-118.4189
30.400000	83.806	-119.1098
30.700001	83.837	-119.6014
31.100000	83.881	-120.2314
31.500000	83.927	-120.8496
32.000000	83.985	-121.6257
32.500000	84.040	-122.4040
33.000000	84.091	-123.1678
33.500000	84.138	-123.9084
34.000000	84.183	-124.6285
34.500000	84.227	-125.3312
35.000000	84.268	-126.0148
35.500000	84.309	-126.6803
36.000000	84.350	-127.3364
36.500000	84.392	-127.9927
37.000000	84.431	-128.6509
37.500000	84.468	-129.3055
38.200001	84.515	-130.2013
38.700001	84.547	-130.8165
39.500000	84.597	-131.7550
40.000000	84.630	-132.3312
40.599998	84.667	-133.0261
41.200001	84.700	-133.6993
41.799999	84.731	-134.3248
42.500000	84.774	-135.0355
43.099998	84.810	-135.6743
43.700001	84.839	-136.3074
44.400002	84.871	-136.9951
45.000000	84.902	-137.5757
45.500000	84.926	-138.0712
46.200001	84.957	-138.7498
46.799999	84.984	-139.3198
47.500000	85.013	-140.0088
48.200001	85.030	-140.6443
48.700001	85.046	-141.0292
49.400002	85.083	-141.5736
50.000000	85.114	-142.1136
50.799999	85.142	-142.8105
51.500000	85.170	-143.3645
52.200001	85.200	-143.9719
53.000000	85.219	-144.6506
53.799999	85.244	-145.2644
54.500000	85.266	-145.8726
55.200001	85.271	-146.4537
56.000000	85.286	-146.9747
57.000000	85.330	-147.7842
58.000000	85.338	-148.6307
59.000000	85.368	-149.2410
60.000000	85.407	-150.0870
60.799999	85.407	-150.6355
61.500000	85.433	-150.9583
62.200001	85.476	-151.4776
63.000000	85.478	-152.1868
64.000000	85.471	-152.6043
65.000000	85.522	-153.2060
66.000000	85.518	-153.9745
67.000000	85.526	-154.4855
68.000000	85.544	-155.1741
69.000000	85.548	-155.8334
70.000000	85.549	-156.4460
71.000000	85.563	-156.9407
72.000000	85.590	-157.5804
73.000000	85.589	-158.1931
74.000000	85.599	-158.6860
75.000000	85.611	-159.2533
76.199997	85.615	-159.9142
77.500000	85.626	-160.5824
78.800003	85.634	-161.3181
80.000000	85.643	-161.9327
81.199997	85.644	-162.5504
82.500000	85.662	-163.1659
83.800003	85.659	-163.8748
85.000000	85.653	-164.4365
86.199997	85.659	-164.9092
87.500000	85.671	-165.6498
88.500000	85.668	-166.0851
90.000000	85.666	-166.9172
91.199997	85.672	-167.3281
92.500000	85.663	-168.0281
93.800003	85.688	-168.4343
95.000000	85.674	-169.1763
96.199997	85.686	-169.5397
97.500000	85.666	-170.3345
98.800003	85.673	-170.6739
100.000000	85.659	-171.3476
101.500000	85.674	-171.7941
103.000000	85.650	-172.5641
104.400002	85.666	-173.0605
106.000000	85.641	-173.7734
107.500000	85.650	-174.3806
109.000000	85.626	-174.9728
110.599998	85.633	-175.5681
112.000000	85.620	-176.1542
113.800003	85.614	-176.8120
115.000000	85.604	-177.2758
117.199997	85.595	-178.0658
118.000000	85.590	-178.3793
120.599998	85.571	-179.3510
122.000000	85.561	-179.8843
124.099998	85.545	179.3964
125.000000	85.540	179.0485
126.500000	85.522	178.5063
128.000000	85.510	178.0137
131.500000	85.485	176.7809
132.000000	85.480	176.6146
134.000000	85.466	175.9229
136.000000	85.445	175.2706
138.000000	85.426	174.6196
140.000000	85.407	173.9603
143.000000	85.374	173.0040
145.000000	85.357	172.3632
147.500000	85.336	171.5632
150.000000	85.308	170.7670
152.500000	85.279	170.0032
155.000000	85.251	169.2521
157.500000	85.224	168.4916
160.000000	85.199	167.7518
162.500000	85.165	167.0431
165.000000	85.140	166.3042
167.500000	85.112	165.6142
170.000000	85.081	164.9021
172.500000	85.045	164.1896
175.000000	85.017	163.5021
177.500000	84.985	162.8104
180.000000	84.952	162.1421
182.500000	84.918	161.4659
185.000000	84.892	160.8348
187.500000	84.857	160.1257
190.000000	84.828	159.5058
192.500000	84.792	158.8620
195.000000	84.756	158.2249
197.500000	84.731	157.5626
200.000000	84.695	156.9567
203.000000	84.654	156.1980
206.000000	84.612	155.4795
209.000000	84.570	154.7295
212.000000	84.532	154.0644
214.000000	84.502	153.6183
218.000000	84.448	152.6655
220.000000	84.415	152.2211
224.000000	84.364	151.2908
227.000000	84.321	150.6100
230.000000	84.281	149.9527
233.000000	84.235	149.2855
236.000000	84.192	148.6445
240.000000	84.138	147.8049
243.000000	84.095	147.1780
247.000000	84.037	146.3218
250.000000	83.998	145.6965
254.000000	83.943	144.9363
258.000000	83.882	144.1451
262.000000	83.833	143.3501
265.000000	83.793	142.7766
269.000000	83.731	141.9945
272.000000	83.693	141.3970
276.000000	83.638	140.6204
280.000000	83.586	139.9251
285.000000	83.519	139.0162
290.000000	83.445	138.1525
295.000000	83.375	137.2612
300.000000	83.311	136.3857
304.000000	83.259	135.7228
307.000000	83.221	135.2265
311.000000	83.166	134.5575
315.000000	83.109	133.9470
320.000000	83.041	133.1385
325.000000	82.984	132.3639
330.000000	82.924	131.5476
335.000000	82.860	130.7993
340.000000	82.798	130.0230
345.000000	82.735	129.2783
350.000000	82.677	128.5773
355.000000	82.617	127.8819
360.000000	82.556	127.1896
365.000000	82.505	126.4735
370.000000	82.445	125.8165
375.000000	82.388	125.1507
382.000000	82.304	124.2231
387.000000	82.246	123.5744
395.000000	82.165	122.5681
400.000000	82.116	121.9836
406.000000	82.059	121.2584
412.000000	81.995	120.5217
418.000000	81.936	119.8823
425.000000	81.862	119.0072
431.000000	81.813	118.4100
437.000000	81.765	117.7405
444.000000	81.712	116.9474
450.000000	81.663	116.2840
455.000000	81.616	115.7568
462.000000	81.556	114.9772
468.000000	81.502	114.3608
475.000000	81.447	113.6523
482.000000	81.397	113.0080
487.000000	81.355	112.5554
494.000000	81.315	111.8781
500.000000	81.264	111.3541
508.000000	81.208	110.5612
515.000000	81.157	109.9828
522.000000	81.110	109.3971
530.000000	81.068	108.7702
538.000000	81.041	108.1199
545.000000	80.999	107.5799
552.000000	80.975	107.1105
560.000000	80.934	106.4429
570.000000	80.902	105.6599
580.000000	80.876	104.9693
590.000000	80.837	104.1694
600.000000	80.816	103.2877
608.000000	80.795	102.6960
615.000000	80.756	102.2549
622.000000	80.752	101.6996
630.000000	80.718	101.1931
640.000000	80.710	100.4956
650.000000	80.688	99.8798
660.000000	80.670	99.2775
670.000000	80.658	98.6606
680.000000	80.650	98.0229
690.000000	80.636	97.4674
700.000000	80.639	96.9325
710.000000	80.648	96.3170
720.000000	80.673	95.8663
730.000000	80.689	95.4216
740.000000	80.689	94.8076
750.000000	80.707	94.3340
762.000000	80.739	93.7709
775.000000	80.785	93.1329
788.000000	80.839	92.5854
800.000000	80.880	92.1217
812.000000	80.945	91.4992
825.000000	81.013	90.9464
838.000000	81.074	90.3374
850.000000	81.154	89.8578
862.000000	81.258	89.3334
875.000000	81.350	88.7923
885.000000	81.442	88.4362
900.000000	81.558	87.6420
912.000000	81.669	87.0466
925.000000	81.797	86.4473
938.000000	81.939	85.8262
950.000000	82.069	85.3127
962.000000	82.214	84.6631
975.000000	82.378	84.0515
988.000000	82.527	83.2170
1000.000000	82.676	82.5444
1015.000000	82.878	81.4509
1030.000000	83.077	80.5641
1044.000000	83.289	79.6044
1060.000000	83.514	78.4000
1075.000000	83.728	77.2635
1090.000000	83.950	75.9800
1106.000000	84.178	74.5838
1120.000000	84.394	73.3605
1138.000000	84.664	71.7501
1150.000000	84.830	70.4992
1172.000000	85.185	68.4174
1180.000000	85.297	67.5217
1206.000000	85.667	64.7808
1220.000000	85.887	63.1417
1241.000000	86.214	60.5510
1250.000000	86.357	59.3958
1265.000000	86.596	57.5624
1280.000000	86.822	55.7927
1315.000000	87.276	51.0807
1320.000000	87.346	50.3872
1340.000000	87.581	47.4408
1360.000000	87.808	44.4767
1380.000000	88.031	41.4337
1400.000000	88.242	38.3426
1430.000000	88.498	33.4516
1450.000000	88.631	30.0665
1475.000000	88.744	25.6323
1500.000000	88.791	21.2387
1525.000000	88.784	17.0455
1550.000000	88.711	13.1454
1575.000000	88.561	9.5320
1600.000000	88.367	6.3336
1625.000000	88.134	3.6089
1650.000000	87.896	1.6091
1675.000000	87.698	0.2986
1700.000000	87.573	-0.3660
1725.000000	87.507	-0.6481
1750.000000	87.549	-0.8185
1775.000000	87.692	-1.0528
1800.000000	87.916	-1.6002
1825.000000	88.223	-2.4137
1850.000000	88.597	-3.7253
1875.000000	89.008	-5.5899
1900.000000	89.403	-8.1774
1925.000000	89.767	-11.5120
1950.000000	90.073	-15.4682
1975.000000	90.281	-19.9982
2000.000000	90.376	-24.7286
2030.000000	90.351	-30.4042
2060.000000	90.161	-35.6787
2090.000000	89.817	-40.2796
2120.000000	89.380	-43.9777
2140.000000	89.077	-45.8540
2180.000000	88.526	-48.3812
2200.000000	88.313	-49.0735
2240.000000	88.081	-50.1471
2270.000000	88.016	-51.2097
2300.000000	87.959	-52.8417
2330.000000	87.858	-54.9411
2360.000000	87.700	-57.2255
2400.000000	87.385	-60.1882
2430.000000	87.090	-61.9916
2470.000000	86.680	-63.7538
2500.000000	86.351	-64.5580
2540.000000	85.889	-65.2345
2580.000000	85.427	-65.3450
2620.000000	84.978	-64.9733
2650.000000	84.653	-64.2764
2690.000000	84.269	-62.5793
2720.000000	84.050	-60.7626
2760.000000	83.848	-57.7254
2800.000000	83.751	-54.5560
2850.000000	83.833	-50.5870
2900.000000	84.126	-47.1123
2950.000000	84.599	-44.3861
3000.000000	85.227	-42.7529
3040.000000	85.738	-42.5875
3070.000000	86.080	-43.2123
3110.000000	86.438	-44.7060
3150.000000	86.668	-46.5944
3200.000000	86.812	-49.0862
3250.000000	86.813	-51.1389
3300.000000	86.765	-52.4617
3350.000000	86.680	-53.1962
3400.000000	86.551	-53.7489
3450.000000	86.405	-54.1284
3500.000000	86.217	-54.3785
3550.000000	85.974	-54.2540
3600.000000	85.723	-53.1727
3650.000000	85.556	-50.9709
3700.000000	85.503	-48.3269
3750.000000	85.635	-45.9889
3820.000000	85.978	-44.2693
3870.000000	86.222	-44.8263
3950.000000	86.293	-47.5285
4000.000000	86.081	-49.3641
4060.000000	85.518	-50.7590
4120.000000	84.706	-50.8672
4180.000000	83.768	-48.9965
4250.000000	82.706	-44.3577
4310.000000	81.897	-38.4749
4370.000000	81.278	-30.8810
4440.000000	80.909	-20.4173
4500.000000	80.821	-11.5232
4550.000000	80.934	-4.1405
4620.000000	81.330	5.4343
4680.000000	81.804	12.4473
4750.000000	82.454	19.5325
4820.000000	83.276	25.4714
4870.000000	83.884	29.0391
4940.000000	84.705	32.7182
5000.000000	85.357	34.4989
5080.000000	86.039	35.1210
5150.000000	86.401	34.4093
5220.000000	86.447	33.1881
5300.000000	86.184	32.6403
5380.000000	85.652	34.0903
5450.000000	85.037	36.5362
5520.000000	84.390	40.1044
5600.000000	83.655	45.3060
5700.000000	82.819	53.0341
5800.000000	82.066	61.9092
5900.000000	81.537	72.8186
6000.000000	81.303	84.0352
6080.000000	81.358	90.5986
6150.000000	81.130	93.2725
6220.000000	80.276	95.3031
6300.000000	78.650	102.4729
6400.000000	76.972	119.8348
6500.000000	76.288	140.4268
6600.000000	76.195	160.0651
6700.000000	76.592	176.4091
6800.000000	76.333	-168.3757
6900.000000	76.484	-152.0578
7000.000000	76.730	-136.4503
7100.000000	77.085	-120.8909
7200.000000	77.493	-105.3025
7300.000000	77.871	-89.6887
7400.000000	78.384	-74.3831
7500.000000	79.061	-59.2898
7620.000000	80.090	-42.4594
7750.000000	81.443	-26.6924
7880.000000	82.965	-14.2185
8000.000000	84.114	-7.8574
8120.000000	84.337	-5.6483
8250.000000	83.212	-1.9236
8380.000000	81.286	8.1987
8500.000000	79.419	23.4821
8620.000000	77.782	44.3607
8750.000000	76.525	72.1572
8850.000000	76.154	95.1543
9000.000000	76.662	127.3140
9120.000000	77.420	148.2518
9250.000000	78.043	167.6728
9380.000000	78.436	-175.3187
9500.000000	78.181	-156.4954
9620.000000	78.490	-138.2655
9750.000000	78.438	-117.7958
9880.000000	78.299	-96.0151
10000.000000	78.515	-77.7870
10150.000000	78.508	-54.7057
10300.000000	78.499	-31.1664
10440.000000	78.677	-8.2227
10600.000000	78.948	18.2882
10750.000000	79.233	41.5420
10900.000000	79.438	62.9571
11060.000000	79.370	84.4455
11200.000000	78.988	103.0134
11380.000000	78.104	127.8249
11500.000000	77.416	146.7286
11720.000000	76.108	-174.8014
11800.000000	75.663	-160.2242
12060.000000	74.279	-111.1812
12200.000000	73.658	-83.7849
12410.000000	72.979	-41.0444
12500.000000	72.827	-22.5715
12650.000000	72.817	8.6509
12800.000000	73.041	39.6297
13150.000000	74.002	105.9442
13200.000000	74.158	114.1461
13400.000000	74.534	145.0713
13600.000000	74.225	172.4293
13800.000000	73.076	-160.5294
14000.000000	71.319	-129.4041
14300.000000	67.677	-73.3195
14500.000000	65.367	-27.9057
14750.000000	63.740	29.4232
15000.000000	61.799	80.3942
15250.000000	59.140	141.8916
15500.000000	56.447	-148.4119
15750.000000	56.693	-59.0878
16000.000000	61.441	4.7502
16250.000000	63.952	38.8293
16500.000000	63.016	82.1730
16750.000000	63.247	131.8344
17000.000000	63.840	173.5189
17250.000000	62.521	-149.4125
17500.000000	59.822	-102.9780
17750.000000	57.513	-51.7968
18000.000000	55.385	2.4794
18250.000000	53.402	55.2299
18500.000000	51.394	113.1660
18750.000000	50.226	175.5120
19000.000000	49.711	-120.5720
19250.000000	50.218	-62.6539
19500.000000	50.623	-17.4662
19750.000000	48.025	23.8948
