* Measurement data measured by REW V5.20.7
* Source: Microphone (Sound Blaster Play! 3), MICROPHONE (Master Volume), R, volume: 0.250
* Format: 256k Log Swept Sine, 1 sweep at -12.0 dBFS with no timing reference
* Dated: 17-Jul-2023 13:22:14
* REW Settings:
*  C-weighting compensation: Off
*  Target level: 75.0 dB
* Note: ; 
* Measurement: QDC Anole V14 1000 R
* Smoothing: None
* Frequency Step: 1/48 octave
* Start Frequency: 20.000 Hz
*
* Freq(Hz)	SPL(dB)	Phase(degrees)
20.000000	89.361	-130.4291
20.299999	89.411	-131.3133
20.600000	89.461	-132.1738
20.900000	89.511	-133.0224
21.200001	89.561	-133.8698
21.400000	89.592	-134.4361
21.799999	89.650	-135.5659
22.000000	89.676	-136.1246
22.400000	89.723	-137.2175
22.700001	89.755	-138.0123
23.000000	89.788	-138.7921
23.299999	89.820	-139.5687
23.600000	89.851	-140.3505
24.000000	89.889	-141.4017
24.299999	89.913	-142.1854
24.700001	89.939	-143.2020
25.000000	89.957	-143.9341
25.400000	89.983	-144.8766
25.799999	90.013	-145.8062
26.200001	90.043	-146.7438
26.500000	90.063	-147.4507
26.900000	90.086	-148.3817
27.200001	90.101	-149.0579
27.600000	90.120	-149.9212
28.000000	90.140	-150.7474
28.500000	90.168	-151.7502
29.000000	90.197	-152.7378
29.500000	90.226	-153.7163
30.000000	90.252	-154.6902
30.400000	90.270	-155.4648
30.700001	90.281	-156.0383
31.100000	90.293	-156.7831
31.500000	90.303	-157.5004
32.000000	90.317	-158.3682
32.500000	90.333	-159.2296
33.000000	90.346	-160.0971
33.500000	90.357	-160.9563
34.000000	90.365	-161.7889
34.500000	90.375	-162.5999
35.000000	90.385	-163.4083
35.500000	90.394	-164.2192
36.000000	90.399	-165.0148
36.500000	90.403	-165.7768
37.000000	90.407	-166.5096
37.500000	90.414	-167.2353
38.200001	90.423	-168.2645
38.700001	90.426	-168.9978
39.500000	90.426	-170.1380
40.000000	90.425	-170.8381
40.599998	90.422	-171.6722
41.200001	90.417	-172.4886
41.799999	90.414	-173.2909
42.500000	90.410	-174.2311
43.099998	90.402	-175.0172
43.700001	90.397	-175.7532
44.400002	90.398	-176.6083
45.000000	90.394	-177.3841
45.500000	90.381	-177.9937
46.200001	90.365	-178.6968
46.799999	90.371	-179.2767
47.500000	90.379	179.8759
48.200001	90.355	179.0376
48.700001	90.336	178.5850
49.400002	90.344	177.9827
50.000000	90.361	177.2560
50.799999	90.345	176.1546
51.500000	90.316	175.3673
52.200001	90.307	174.6178
53.000000	90.293	173.6438
53.799999	90.262	172.7670
54.500000	90.249	172.1042
55.200001	90.248	171.3698
56.000000	90.231	170.4460
57.000000	90.188	169.4373
58.000000	90.159	168.5486
59.000000	90.134	167.5760
60.000000	90.099	166.6254
60.799999	90.074	165.8873
61.500000	90.054	165.2341
62.200001	90.034	164.5795
63.000000	90.010	163.8376
64.000000	89.980	162.9506
65.000000	89.954	162.0781
66.000000	89.924	161.1917
67.000000	89.891	160.3397
68.000000	89.857	159.5005
69.000000	89.822	158.6710
70.000000	89.790	157.8550
71.000000	89.756	157.0136
72.000000	89.718	156.2144
73.000000	89.685	155.4258
74.000000	89.650	154.6301
75.000000	89.613	153.8607
76.199997	89.569	152.9495
77.500000	89.522	151.9526
78.800003	89.473	150.9767
80.000000	89.425	150.0842
81.199997	89.384	149.2422
82.500000	89.335	148.2811
83.800003	89.289	147.3955
85.000000	89.246	146.5186
86.199997	89.198	145.6813
87.500000	89.149	144.8082
88.500000	89.119	144.1110
90.000000	89.054	143.0532
91.199997	89.011	142.2923
92.500000	88.960	141.4380
93.800003	88.912	140.5870
95.000000	88.860	139.8204
96.199997	88.816	139.0654
97.500000	88.762	138.2396
98.800003	88.714	137.4631
100.000000	88.670	136.7018
101.500000	88.609	135.7928
103.000000	88.547	134.8564
104.400002	88.492	134.0722
106.000000	88.427	133.0758
107.500000	88.369	132.2319
109.000000	88.311	131.3597
110.599998	88.246	130.4797
112.000000	88.196	129.6737
113.800003	88.118	128.6860
115.000000	88.077	128.0049
117.199997	87.984	126.7832
118.000000	87.955	126.3789
120.599998	87.854	124.9685
122.000000	87.802	124.2657
124.099998	87.721	123.1452
125.000000	87.682	122.6732
126.500000	87.625	121.9457
128.000000	87.573	121.1301
131.500000	87.436	119.4318
132.000000	87.419	119.1705
134.000000	87.333	118.1733
136.000000	87.262	117.2231
138.000000	87.194	116.2427
140.000000	87.108	115.3122
143.000000	87.006	113.9089
145.000000	86.926	112.9470
147.500000	86.834	111.8695
150.000000	86.743	110.6891
152.500000	86.647	109.5630
155.000000	86.561	108.5228
157.500000	86.476	107.3895
160.000000	86.380	106.2801
162.500000	86.287	105.2400
165.000000	86.211	104.2263
167.500000	86.127	103.1202
170.000000	86.033	102.0895
172.500000	85.938	101.0638
175.000000	85.858	100.0947
177.500000	85.779	99.1035
180.000000	85.700	98.1032
182.500000	85.622	97.0573
185.000000	85.539	96.0500
187.500000	85.447	95.0748
190.000000	85.357	94.0851
192.500000	85.268	93.1224
195.000000	85.181	92.2178
197.500000	85.093	91.2745
200.000000	85.010	90.4299
203.000000	84.909	89.3860
206.000000	84.804	88.3329
209.000000	84.702	87.2693
212.000000	84.598	86.1868
214.000000	84.535	85.4412
218.000000	84.407	83.9153
220.000000	84.354	83.1672
224.000000	84.254	81.8043
227.000000	84.175	80.8812
230.000000	84.072	79.9105
233.000000	83.973	78.8328
236.000000	83.906	77.7632
240.000000	83.806	76.5500
243.000000	83.703	75.6058
247.000000	83.599	74.2480
250.000000	83.522	73.3547
254.000000	83.414	72.0781
258.000000	83.321	70.8335
262.000000	83.218	69.6163
265.000000	83.150	68.6987
269.000000	83.056	67.5124
272.000000	82.974	66.6769
276.000000	82.892	65.5190
280.000000	82.813	64.3074
285.000000	82.709	62.8660
290.000000	82.621	61.4240
295.000000	82.530	59.8477
300.000000	82.426	58.4003
304.000000	82.350	57.1667
307.000000	82.296	56.2384
311.000000	82.223	54.9977
315.000000	82.147	53.7979
320.000000	82.060	52.2889
325.000000	81.954	50.7878
330.000000	81.856	49.3688
335.000000	81.761	47.9043
340.000000	81.664	46.4788
345.000000	81.571	45.0159
350.000000	81.479	43.6433
355.000000	81.388	42.2502
360.000000	81.299	40.8961
365.000000	81.201	39.5198
370.000000	81.124	38.1203
375.000000	81.041	36.8023
382.000000	80.920	34.8859
387.000000	80.840	33.5847
395.000000	80.710	31.4793
400.000000	80.628	30.2372
406.000000	80.528	28.6703
412.000000	80.441	27.1223
418.000000	80.357	25.6077
425.000000	80.257	23.8362
431.000000	80.170	22.3732
437.000000	80.082	20.8796
444.000000	79.978	19.1368
450.000000	79.905	17.7168
455.000000	79.837	16.5593
462.000000	79.753	14.8265
468.000000	79.676	13.4558
475.000000	79.590	11.8082
482.000000	79.495	10.2009
487.000000	79.438	9.0363
494.000000	79.352	7.4933
500.000000	79.289	6.1514
508.000000	79.207	4.4192
515.000000	79.136	2.8835
522.000000	79.069	1.4081
530.000000	78.983	-0.3370
538.000000	78.903	-2.0089
545.000000	78.833	-3.4380
552.000000	78.784	-4.9220
560.000000	78.716	-6.4796
570.000000	78.651	-8.4636
580.000000	78.571	-10.3701
590.000000	78.514	-12.2657
600.000000	78.470	-14.1583
608.000000	78.450	-15.6523
615.000000	78.437	-16.9886
622.000000	78.425	-18.2734
630.000000	78.421	-19.9446
640.000000	78.396	-21.8072
650.000000	78.379	-23.8100
660.000000	78.381	-25.7087
670.000000	78.382	-27.7242
680.000000	78.368	-29.6783
690.000000	78.385	-31.6895
700.000000	78.383	-33.7084
710.000000	78.385	-35.7643
720.000000	78.394	-37.7522
730.000000	78.395	-39.6960
740.000000	78.406	-41.6907
750.000000	78.420	-43.6429
762.000000	78.447	-45.9947
775.000000	78.454	-48.6117
788.000000	78.476	-51.1470
800.000000	78.495	-53.4485
812.000000	78.529	-55.7422
825.000000	78.566	-58.1432
838.000000	78.613	-60.6317
850.000000	78.647	-62.9576
862.000000	78.688	-65.3122
875.000000	78.738	-67.7291
885.000000	78.785	-69.6060
900.000000	78.863	-72.3945
912.000000	78.923	-74.6445
925.000000	78.998	-77.1099
938.000000	79.071	-79.6358
950.000000	79.137	-81.9755
962.000000	79.213	-84.3158
975.000000	79.292	-86.7950
988.000000	79.390	-89.3469
1000.000000	79.475	-91.5870
1015.000000	79.574	-94.5349
1030.000000	79.672	-97.5768
1044.000000	79.759	-100.4656
1060.000000	79.876	-103.7283
1075.000000	79.977	-106.7766
1090.000000	80.084	-109.8348
1106.000000	80.178	-113.0604
1120.000000	80.275	-115.9507
1138.000000	80.377	-119.7666
1150.000000	80.433	-122.2087
1172.000000	80.559	-126.8010
1180.000000	80.605	-128.4902
1206.000000	80.751	-133.6633
1220.000000	80.817	-136.6152
1241.000000	80.916	-140.8438
1250.000000	80.957	-142.7057
1265.000000	81.005	-145.8234
1280.000000	81.061	-148.8953
1315.000000	81.206	-155.7992
1320.000000	81.224	-156.7645
1340.000000	81.305	-160.6023
1360.000000	81.365	-164.4304
1380.000000	81.430	-168.3389
1400.000000	81.493	-172.2191
1430.000000	81.586	-177.8925
1450.000000	81.663	178.4514
1475.000000	81.737	174.0237
1500.000000	81.823	169.4817
1525.000000	81.892	164.8519
1550.000000	81.964	160.3987
1575.000000	82.049	156.0518
1600.000000	82.137	151.7195
1625.000000	82.221	147.4828
1650.000000	82.312	143.1650
1675.000000	82.391	138.8008
1700.000000	82.460	134.4973
1725.000000	82.549	130.2437
1750.000000	82.647	126.1300
1775.000000	82.735	122.0708
1800.000000	82.819	117.9229
1825.000000	82.907	113.7460
1850.000000	82.985	109.5110
1875.000000	83.058	105.3000
1900.000000	83.139	101.0791
1925.000000	83.235	97.1215
1950.000000	83.316	93.1514
1975.000000	83.396	89.0197
2000.000000	83.468	84.9591
2030.000000	83.551	79.9324
2060.000000	83.615	74.8508
2090.000000	83.679	69.9363
2120.000000	83.753	65.1411
2140.000000	83.795	61.9812
2180.000000	83.854	55.5745
2200.000000	83.878	52.3201
2240.000000	83.907	45.6967
2270.000000	83.902	40.7059
2300.000000	83.896	35.8601
2330.000000	83.894	31.1284
2360.000000	83.858	26.4500
2400.000000	83.781	20.2417
2430.000000	83.694	15.5073
2470.000000	83.538	9.2067
2500.000000	83.377	4.5017
2540.000000	83.116	-1.2169
2580.000000	82.832	-6.3326
2620.000000	82.482	-10.9531
2650.000000	82.232	-13.9414
2690.000000	81.891	-17.4531
2720.000000	81.692	-19.8188
2760.000000	81.451	-22.5674
2800.000000	81.295	-24.8911
2850.000000	81.210	-27.2229
2900.000000	81.203	-29.6049
2950.000000	81.296	-32.3608
3000.000000	81.435	-35.3298
3040.000000	81.544	-37.7139
3070.000000	81.673	-39.4027
3110.000000	81.896	-41.5929
3150.000000	82.159	-43.9404
3200.000000	82.531	-47.5374
3250.000000	82.894	-51.8379
3300.000000	83.235	-56.8373
3350.000000	83.477	-62.1357
3400.000000	83.694	-67.2811
3450.000000	83.848	-72.0081
3500.000000	83.950	-76.8127
3550.000000	84.038	-81.3864
3600.000000	84.113	-85.8811
3650.000000	84.175	-90.3473
3700.000000	84.239	-94.5466
3750.000000	84.334	-98.3546
3820.000000	84.473	-103.4609
3870.000000	84.574	-107.1182
3950.000000	84.764	-113.1002
4000.000000	84.886	-116.9929
4060.000000	85.017	-121.8140
4120.000000	85.185	-126.3694
4180.000000	85.352	-130.7170
4250.000000	85.522	-136.1831
4310.000000	85.645	-141.2699
4370.000000	85.728	-146.5563
4440.000000	85.759	-153.1228
4500.000000	85.710	-158.7073
4550.000000	85.641	-163.0500
4620.000000	85.423	-168.8313
4680.000000	85.132	-173.4756
4750.000000	84.716	-178.3032
4820.000000	84.269	177.5708
4870.000000	83.943	174.9662
4940.000000	83.479	171.9390
5000.000000	83.113	170.3232
5080.000000	82.644	169.1791
5150.000000	82.276	168.7816
5220.000000	81.982	168.7058
5300.000000	81.741	169.1350
5380.000000	81.634	169.8922
5450.000000	81.639	170.8446
5520.000000	81.796	172.2112
5600.000000	82.115	173.9098
5700.000000	82.694	174.8779
5800.000000	83.435	174.3875
5900.000000	84.237	171.7850
6000.000000	84.936	167.2214
6080.000000	85.390	163.1294
6150.000000	85.630	159.2734
6220.000000	85.703	155.1553
6300.000000	85.619	150.7841
6400.000000	85.315	146.1350
6500.000000	84.892	142.6846
6600.000000	84.431	140.5618
6700.000000	84.048	140.4520
6800.000000	83.711	141.5050
6900.000000	83.482	143.0769
7000.000000	83.375	145.1143
7100.000000	83.383	147.2336
7200.000000	83.521	149.4344
7300.000000	83.807	151.8481
7400.000000	84.282	154.8867
7500.000000	84.918	157.3866
7620.000000	85.888	158.3860
7750.000000	86.956	156.2638
7880.000000	87.846	151.7509
8000.000000	88.533	146.2383
8120.000000	89.099	139.6726
8250.000000	89.194	130.5648
8380.000000	88.545	121.2794
8500.000000	87.428	115.0914
8620.000000	86.110	111.9261
8750.000000	84.684	111.3792
8850.000000	83.659	113.1934
9000.000000	82.362	118.8363
9120.000000	81.486	124.5165
9250.000000	80.706	131.2367
9380.000000	80.123	138.3265
9500.000000	79.748	144.8364
9620.000000	79.491	151.3953
9750.000000	79.406	159.0903
9880.000000	79.539	167.3767
10000.000000	79.799	174.6469
10150.000000	80.401	-178.3164
10300.000000	81.105	-174.6769
10440.000000	81.609	-174.7889
10600.000000	81.442	-177.8656
10750.000000	80.470	-177.9719
10900.000000	79.309	-172.1902
11060.000000	78.309	-161.8698
11200.000000	77.839	-151.6825
11380.000000	77.751	-138.5380
11500.000000	77.988	-130.8020
11720.000000	78.814	-119.6776
11800.000000	79.158	-116.5914
12060.000000	80.276	-109.4882
12200.000000	80.483	-108.6256
12410.000000	80.184	-108.1625
12500.000000	79.839	-107.6024
12650.000000	79.151	-105.6951
12800.000000	78.365	-102.6542
13150.000000	76.613	-91.0614
13200.000000	76.357	-88.9683
13400.000000	75.295	-80.3198
13600.000000	74.253	-72.0090
13800.000000	72.989	-64.1418
14000.000000	71.529	-55.4530
14300.000000	69.162	-38.9275
14500.000000	67.744	-23.1770
14750.000000	66.181	-2.1199
15000.000000	65.023	19.7819
15250.000000	64.318	40.1389
15500.000000	63.902	55.3632
15750.000000	62.930	69.2479
16000.000000	61.343	86.8405
16250.000000	59.848	108.0818
16500.000000	58.426	131.5442
16750.000000	57.536	155.7021
17000.000000	56.782	179.1428
17250.000000	56.769	-157.8599
17500.000000	56.234	-133.3341
17750.000000	57.068	-110.8071
18000.000000	57.978	-91.1964
18250.000000	58.972	-76.1305
18500.000000	59.820	-68.9569
18750.000000	60.129	-69.1437
19000.000000	58.315	-73.8186
19250.000000	55.945	-67.1105
19500.000000	52.660	-50.2712
19750.000000	50.359	-34.0720
