* Measurement data measured by REW V5.20.7
* Source: Microphone (Sound Blaster Play! 3), MICROPHONE (Master Volume), L, volume: 0.250
* Format: 256k Log Swept Sine, 1 sweep at -12.0 dBFS with no timing reference
* Dated: 17-Jul-2023 13:18:28
* REW Settings:
*  C-weighting compensation: Off
*  Target level: 75.0 dB
* Note: ; 
* Measurement: QDC Anole V14 1010 L
* Smoothing: None
* Frequency Step: 1/48 octave
* Start Frequency: 20.000 Hz
*
* Freq(Hz)	SPL(dB)	Phase(degrees)
20.000000	89.580	-129.6266
20.299999	89.627	-130.6307
20.600000	89.669	-131.6131
20.900000	89.706	-132.5643
21.200001	89.741	-133.4755
21.400000	89.764	-134.0596
21.799999	89.811	-135.1826
22.000000	89.836	-135.7307
22.400000	89.891	-136.8254
22.700001	89.932	-137.6616
23.000000	89.970	-138.5147
23.299999	90.003	-139.3697
23.600000	90.029	-140.2051
24.000000	90.057	-141.2567
24.299999	90.079	-141.9908
24.700001	90.113	-142.9216
25.000000	90.144	-143.6195
25.400000	90.189	-144.5921
25.799999	90.228	-145.6184
26.200001	90.254	-146.6523
26.500000	90.267	-147.3947
26.900000	90.280	-148.3167
27.200001	90.291	-148.9673
27.600000	90.312	-149.8168
28.000000	90.334	-150.6810
28.500000	90.355	-151.7717
29.000000	90.369	-152.8069
29.500000	90.387	-153.7718
30.000000	90.413	-154.7419
30.400000	90.433	-155.5622
30.700001	90.442	-156.1907
31.100000	90.447	-156.9986
31.500000	90.448	-157.7373
32.000000	90.457	-158.5856
32.500000	90.478	-159.4510
33.000000	90.494	-160.3877
33.500000	90.496	-161.3205
34.000000	90.490	-162.1438
34.500000	90.494	-162.8697
35.000000	90.515	-163.6129
35.500000	90.540	-164.4587
36.000000	90.552	-165.3706
36.500000	90.550	-166.2554
37.000000	90.544	-167.0633
37.500000	90.544	-167.8223
38.200001	90.552	-168.9111
38.700001	90.555	-169.7408
39.500000	90.538	-171.0551
40.000000	90.519	-171.7755
40.599998	90.506	-172.5357
41.200001	90.512	-173.3191
41.799999	90.516	-174.2086
42.500000	90.498	-175.2454
43.099998	90.479	-176.0023
43.700001	90.476	-176.7239
44.400002	90.479	-177.6684
45.000000	90.468	-178.5140
45.500000	90.454	-179.1701
46.200001	90.440	179.9586
46.799999	90.431	179.1915
47.500000	90.415	178.2964
48.200001	90.397	177.4446
48.700001	90.386	176.8506
49.400002	90.372	176.0263
50.000000	90.362	175.3248
50.799999	90.347	174.3697
51.500000	90.327	173.5414
52.200001	90.306	172.7646
53.000000	90.287	171.8858
53.799999	90.266	170.9934
54.500000	90.247	170.2368
55.200001	90.228	169.4656
56.000000	90.199	168.5942
57.000000	90.170	167.5964
58.000000	90.143	166.4941
59.000000	90.099	165.4928
60.000000	90.075	164.5053
60.799999	90.041	163.6628
61.500000	90.011	163.0378
62.200001	89.997	162.3755
63.000000	89.967	161.5158
64.000000	89.920	160.6512
65.000000	89.904	159.6837
66.000000	89.848	158.6627
67.000000	89.813	157.8954
68.000000	89.785	156.8808
69.000000	89.726	156.0338
70.000000	89.706	155.2381
71.000000	89.665	154.2161
72.000000	89.607	153.4317
73.000000	89.582	152.6317
74.000000	89.541	151.6969
75.000000	89.488	150.8814
76.199997	89.446	149.9618
77.500000	89.392	148.7920
78.800003	89.324	147.8529
80.000000	89.292	146.8651
81.199997	89.227	145.8364
82.500000	89.163	144.9229
83.800003	89.128	143.9509
85.000000	89.070	142.9065
86.199997	89.007	142.1221
87.500000	88.968	141.1805
88.500000	88.926	140.3805
90.000000	88.843	139.2575
91.199997	88.789	138.5461
92.500000	88.757	137.5704
93.800003	88.689	136.5772
95.000000	88.627	135.7307
96.199997	88.570	135.0630
97.500000	88.542	134.0798
98.800003	88.470	133.1494
100.000000	88.422	132.2741
101.500000	88.327	131.4125
103.000000	88.303	130.4617
104.400002	88.221	129.4875
106.000000	88.161	128.3912
107.500000	88.066	127.5745
109.000000	88.024	126.6078
110.599998	87.954	125.6461
112.000000	87.907	124.7292
113.800003	87.822	123.5395
115.000000	87.751	122.8251
117.199997	87.654	121.6285
118.000000	87.619	121.1538
120.599998	87.525	119.6236
122.000000	87.473	118.8051
124.099998	87.382	117.5101
125.000000	87.339	116.9925
126.500000	87.267	116.1478
128.000000	87.202	115.3304
131.500000	87.050	113.4138
132.000000	87.034	113.1285
134.000000	86.939	111.9827
136.000000	86.858	110.9647
138.000000	86.774	109.9889
140.000000	86.695	108.9014
143.000000	86.567	107.3498
145.000000	86.487	106.2426
147.500000	86.388	105.0031
150.000000	86.289	103.7417
152.500000	86.182	102.4199
155.000000	86.096	101.1817
157.500000	86.024	100.0082
160.000000	85.911	98.9732
162.500000	85.819	97.7418
165.000000	85.693	96.4678
167.500000	85.604	95.6215
170.000000	85.528	94.3969
172.500000	85.428	93.4716
175.000000	85.349	92.2007
177.500000	85.270	91.0174
180.000000	85.210	90.4694
182.500000	85.095	89.2310
185.000000	85.080	88.5410
187.500000	84.976	87.2477
190.000000	85.037	85.7261
192.500000	84.936	84.8160
195.000000	84.819	83.6788
197.500000	84.659	82.6721
200.000000	84.535	81.2991
203.000000	84.407	80.1597
206.000000	84.343	78.7906
209.000000	84.272	78.0502
212.000000	84.236	75.9266
214.000000	84.116	75.3855
218.000000	83.961	73.8772
220.000000	83.844	72.1987
224.000000	83.982	71.6218
227.000000	83.888	69.6009
230.000000	83.689	68.4640
233.000000	83.590	67.3210
236.000000	83.489	65.9104
240.000000	83.391	64.4238
243.000000	83.320	63.1840
247.000000	83.184	61.5492
250.000000	83.125	60.4874
254.000000	83.001	58.9265
258.000000	82.905	57.3917
262.000000	82.798	55.8070
265.000000	82.719	54.7622
269.000000	82.623	53.3062
272.000000	82.535	52.1531
276.000000	82.459	50.5471
280.000000	82.340	49.2063
285.000000	82.241	47.3807
290.000000	82.118	45.5453
295.000000	81.996	43.6900
300.000000	81.904	41.9288
304.000000	81.817	40.4237
307.000000	81.746	39.4430
311.000000	81.656	38.0566
315.000000	81.582	36.6453
320.000000	81.465	34.8647
325.000000	81.363	33.1495
330.000000	81.270	31.4367
335.000000	81.160	29.7798
340.000000	81.061	28.0950
345.000000	80.956	26.3628
350.000000	80.870	24.7014
355.000000	80.767	23.1619
360.000000	80.683	21.4382
365.000000	80.585	19.9183
370.000000	80.499	18.3729
375.000000	80.408	16.9250
382.000000	80.277	14.9031
387.000000	80.226	13.4974
395.000000	80.173	11.0944
400.000000	80.146	9.5115
406.000000	80.087	7.2452
412.000000	80.013	5.3367
418.000000	79.924	3.2388
425.000000	79.826	0.9119
431.000000	79.735	-1.0345
437.000000	79.662	-2.9315
444.000000	79.564	-5.1383
450.000000	79.464	-6.9764
455.000000	79.395	-8.4905
462.000000	79.310	-10.6451
468.000000	79.236	-12.4037
475.000000	79.155	-14.5063
482.000000	79.078	-16.5657
487.000000	79.025	-18.0426
494.000000	78.949	-20.0449
500.000000	78.874	-21.7596
508.000000	78.794	-24.0992
515.000000	78.711	-26.0854
522.000000	78.644	-28.0204
530.000000	78.575	-30.3054
538.000000	78.496	-32.4806
545.000000	78.429	-34.3988
552.000000	78.358	-36.2885
560.000000	78.290	-38.4415
570.000000	78.218	-41.0779
580.000000	78.144	-43.7031
590.000000	78.083	-46.2909
600.000000	78.010	-48.8108
608.000000	77.958	-50.8965
615.000000	77.913	-52.5870
622.000000	77.885	-54.2810
630.000000	77.835	-56.3067
640.000000	77.824	-58.6568
650.000000	77.788	-61.0334
660.000000	77.760	-63.4470
670.000000	77.734	-65.8892
680.000000	77.717	-68.2958
690.000000	77.724	-70.6525
700.000000	77.728	-72.9955
710.000000	77.738	-75.3392
720.000000	77.751	-77.7706
730.000000	77.754	-80.2369
740.000000	77.758	-82.5912
750.000000	77.768	-84.9606
762.000000	77.809	-87.9252
775.000000	77.848	-90.9744
788.000000	77.875	-94.0765
800.000000	77.908	-96.9932
812.000000	77.940	-99.7909
825.000000	77.978	-102.9161
838.000000	78.031	-105.9724
850.000000	78.081	-108.7992
862.000000	78.138	-111.5566
875.000000	78.203	-114.6416
885.000000	78.244	-117.0085
900.000000	78.314	-120.5626
912.000000	78.376	-123.4520
925.000000	78.463	-126.4436
938.000000	78.541	-129.4246
950.000000	78.626	-132.1864
962.000000	78.687	-135.0321
975.000000	78.784	-138.2158
988.000000	78.859	-141.3680
1000.000000	78.950	-144.2076
1015.000000	79.057	-147.7317
1030.000000	79.177	-151.3378
1044.000000	79.262	-154.6721
1060.000000	79.376	-158.5795
1075.000000	79.471	-162.3220
1090.000000	79.562	-165.9727
1106.000000	79.660	-169.9236
1120.000000	79.763	-173.2900
1138.000000	79.876	-177.6386
1150.000000	79.950	179.5746
1172.000000	80.067	174.0575
1180.000000	80.111	172.0990
1206.000000	80.233	165.8015
1220.000000	80.300	162.4689
1241.000000	80.416	157.5551
1250.000000	80.456	155.4092
1265.000000	80.521	151.9117
1280.000000	80.581	148.4159
1315.000000	80.702	140.1993
1320.000000	80.723	139.0505
1340.000000	80.792	134.5197
1360.000000	80.883	130.0877
1380.000000	80.947	125.8036
1400.000000	81.016	121.4025
1430.000000	81.107	114.8064
1450.000000	81.165	110.4863
1475.000000	81.250	105.2210
1500.000000	81.341	100.0823
1525.000000	81.428	94.9626
1550.000000	81.510	89.9800
1575.000000	81.597	84.7906
1600.000000	81.663	79.7913
1625.000000	81.748	74.8704
1650.000000	81.850	70.1169
1675.000000	81.945	65.3399
1700.000000	82.031	60.5355
1725.000000	82.127	55.7139
1750.000000	82.206	50.8730
1775.000000	82.288	46.1552
1800.000000	82.381	41.5364
1825.000000	82.488	37.0126
1850.000000	82.575	32.4282
1875.000000	82.660	27.8718
1900.000000	82.736	23.2194
1925.000000	82.826	18.5188
1950.000000	82.890	13.9441
1975.000000	82.981	9.4216
2000.000000	83.069	5.0243
2030.000000	83.148	-0.2868
2060.000000	83.231	-5.6287
2090.000000	83.301	-11.0828
2120.000000	83.354	-16.5027
2140.000000	83.391	-20.0559
2180.000000	83.460	-27.0070
2200.000000	83.486	-30.3748
2240.000000	83.519	-37.2174
2270.000000	83.529	-42.3645
2300.000000	83.531	-47.6073
2330.000000	83.497	-52.8270
2360.000000	83.459	-57.9173
2400.000000	83.403	-64.4673
2430.000000	83.333	-69.2672
2470.000000	83.183	-75.6470
2500.000000	83.047	-80.3616
2540.000000	82.819	-86.5706
2580.000000	82.514	-92.4632
2620.000000	82.165	-97.6656
2650.000000	81.893	-100.9409
2690.000000	81.523	-104.5963
2720.000000	81.273	-106.8552
2760.000000	80.997	-109.4728
2800.000000	80.800	-111.9907
2850.000000	80.637	-114.8281
2900.000000	80.581	-117.2943
2950.000000	80.581	-119.2614
3000.000000	80.660	-121.4243
3040.000000	80.755	-123.0692
3070.000000	80.888	-124.4712
3110.000000	81.081	-126.4099
3150.000000	81.327	-128.4347
3200.000000	81.723	-131.1466
3250.000000	82.125	-134.4064
3300.000000	82.509	-138.4098
3350.000000	82.825	-142.9231
3400.000000	83.080	-147.6458
3450.000000	83.249	-152.3337
3500.000000	83.401	-156.6279
3550.000000	83.539	-160.4456
3600.000000	83.635	-164.1211
3650.000000	83.731	-167.7344
3700.000000	83.828	-171.2014
3750.000000	83.938	-174.6042
3820.000000	84.060	-179.2153
3870.000000	84.199	177.9694
3950.000000	84.419	173.7144
4000.000000	84.561	170.9341
4060.000000	84.738	167.4003
4120.000000	84.926	163.7703
4180.000000	85.085	159.9012
4250.000000	85.293	155.7367
4310.000000	85.445	152.2249
4370.000000	85.535	148.4457
4440.000000	85.556	143.9661
4500.000000	85.510	140.2765
4550.000000	85.451	137.3218
4620.000000	85.341	133.5215
4680.000000	85.255	130.7517
4750.000000	85.078	127.8098
4820.000000	84.826	125.0403
4870.000000	84.598	123.2471
4940.000000	84.230	121.2770
5000.000000	83.890	120.0930
5080.000000	83.401	119.4620
5150.000000	83.051	120.4661
5220.000000	82.743	122.5197
5300.000000	82.514	125.4087
5380.000000	82.432	128.9093
5450.000000	82.517	132.0291
5520.000000	82.737	135.0162
5600.000000	83.145	138.0870
5700.000000	83.896	141.5120
5800.000000	84.755	143.1362
5900.000000	85.543	142.4043
6000.000000	86.104	139.6974
6080.000000	86.311	136.8259
6150.000000	86.292	134.4674
6220.000000	86.176	133.2382
6300.000000	85.910	132.9989
6400.000000	85.481	133.9650
6500.000000	85.053	136.2048
6600.000000	84.681	139.4381
6700.000000	84.400	143.3247
6800.000000	84.204	148.3051
6900.000000	84.164	154.5388
7000.000000	84.212	161.1550
7100.000000	84.365	167.8485
7200.000000	84.665	174.4493
7300.000000	85.113	-179.1028
7400.000000	85.693	-173.2838
7500.000000	86.469	-167.5024
7620.000000	87.668	-161.5825
7750.000000	89.002	-159.3125
7880.000000	89.936	-160.8807
8000.000000	90.282	-163.5920
8120.000000	90.323	-167.8667
8250.000000	89.928	-172.1957
8380.000000	88.853	-172.2603
8500.000000	87.549	-169.2949
8620.000000	86.251	-163.5842
8750.000000	84.957	-155.1199
8850.000000	84.080	-147.6140
9000.000000	82.936	-134.9485
9120.000000	82.208	-123.0342
9250.000000	81.574	-108.8306
9380.000000	81.088	-94.3928
9500.000000	80.781	-80.9994
9620.000000	80.593	-67.4877
9750.000000	80.551	-53.1866
9880.000000	80.648	-39.1259
10000.000000	80.885	-26.0072
10150.000000	81.388	-9.4516
10300.000000	82.063	5.1216
10440.000000	82.635	15.6741
10600.000000	82.894	24.6907
10750.000000	82.403	33.1581
10900.000000	81.478	45.1871
11060.000000	80.699	63.9358
11200.000000	80.417	83.2214
11380.000000	80.700	107.7698
11500.000000	81.244	122.9194
11720.000000	82.611	146.2143
11800.000000	83.180	152.8184
12060.000000	84.612	167.7310
12200.000000	84.853	174.3383
12410.000000	84.329	-175.3428
12500.000000	83.886	-170.1458
12650.000000	82.966	-160.3434
12800.000000	81.955	-149.2344
13150.000000	79.279	-120.8663
13200.000000	78.845	-116.5825
13400.000000	77.034	-96.0775
13600.000000	75.161	-72.1729
13800.000000	73.360	-46.6924
14000.000000	71.660	-20.0397
14300.000000	69.302	21.8451
14500.000000	67.762	50.1804
14750.000000	66.125	88.8532
15000.000000	64.656	130.7763
15250.000000	63.359	172.3199
15500.000000	62.829	-146.9547
15750.000000	62.245	-108.9836
16000.000000	61.402	-72.8951
16250.000000	60.293	-33.2070
16500.000000	59.085	9.3003
16750.000000	58.439	53.7824
17000.000000	58.004	97.6889
17250.000000	58.192	141.8192
17500.000000	58.693	-176.5551
17750.000000	59.605	-135.6187
18000.000000	61.244	-97.1341
18250.000000	63.175	-67.1714
18500.000000	64.240	-50.3009
18750.000000	63.152	-36.2348
19000.000000	60.466	-16.0009
19250.000000	58.013	11.0427
19500.000000	56.082	40.9438
19750.000000	53.623	71.6482
