* Measurement data measured by REW V5.20.7
* Source: Microphone (Sound Blaster Play! 3), MICROPHONE (Master Volume), R, volume: 0.250
* Format: 256k Log Swept Sine, 1 sweep at -12.0 dBFS with no timing reference
* Dated: 24-Oct-2023 17:25:19
* REW Settings:
*  C-weighting compensation: Off
*  Target level: 75.0 dB
* Note: ; 
* Measurement: Sample 9 R
* Smoothing: 1/24 octave
* Frequency Step: 1/48 octave
* Start Frequency: 20.000 Hz
*
* Freq(Hz)	SPL(dB)	Phase(degrees)
20.000000	89.383	60.0453
20.299999	89.440	58.8524
20.600000	89.495	57.6810
20.900000	89.547	56.5300
21.200001	89.597	55.3981
21.400000	89.629	54.6537
21.799999	89.690	53.1898
22.000000	89.719	52.4709
22.400000	89.773	51.0604
22.700001	89.812	50.0273
23.000000	89.850	49.0147
23.299999	89.886	48.0209
23.600000	89.920	47.0436
24.000000	89.965	45.7627
24.299999	89.997	44.8167
24.700001	90.036	43.5746
25.000000	90.064	42.6591
25.400000	90.097	41.4622
25.799999	90.128	40.2953
26.200001	90.156	39.1581
26.500000	90.176	38.3221
26.900000	90.203	37.2253
27.200001	90.222	36.4127
27.600000	90.245	35.3402
28.000000	90.266	34.2817
28.500000	90.289	32.9856
29.000000	90.309	31.7250
29.500000	90.328	30.4948
30.000000	90.346	29.2834
30.400000	90.359	28.3241
30.700001	90.367	27.6127
31.100000	90.376	26.6807
31.500000	90.384	25.7708
32.000000	90.393	24.6610
32.500000	90.403	23.5686
33.000000	90.411	22.4838
33.500000	90.416	21.4120
34.000000	90.417	20.3665
34.500000	90.417	19.3525
35.000000	90.416	18.3637
35.500000	90.415	17.3901
36.000000	90.414	16.4294
36.500000	90.410	15.4840
37.000000	90.406	14.5542
37.500000	90.402	13.6356
38.200001	90.394	12.3633
38.700001	90.386	11.4702
39.500000	90.371	10.0858
40.000000	90.362	9.2448
40.599998	90.353	8.2429
41.200001	90.342	7.2402
41.799999	90.328	6.2506
42.500000	90.308	5.1353
43.099998	90.292	4.2079
43.700001	90.276	3.2907
44.400002	90.255	2.2319
45.000000	90.237	1.3386
45.500000	90.221	0.6010
46.200001	90.196	-0.4187
46.799999	90.173	-1.2676
47.500000	90.149	-2.2351
48.200001	90.126	-3.2091
48.700001	90.107	-3.9061
49.400002	90.077	-4.8529
50.000000	90.052	-5.6332
50.799999	90.022	-6.6621
51.500000	89.994	-7.5551
52.200001	89.966	-8.4271
53.000000	89.935	-9.4169
53.799999	89.901	-10.4059
54.500000	89.868	-11.2434
55.200001	89.836	-12.0596
56.000000	89.801	-12.9969
57.000000	89.751	-14.1423
58.000000	89.705	-15.2396
59.000000	89.660	-16.3606
60.000000	89.610	-17.4504
60.799999	89.573	-18.2907
61.500000	89.541	-19.0361
62.200001	89.507	-19.7819
63.000000	89.466	-20.6102
64.000000	89.417	-21.6208
65.000000	89.368	-22.6248
66.000000	89.317	-23.6221
67.000000	89.264	-24.5885
68.000000	89.215	-25.5205
69.000000	89.169	-26.4825
70.000000	89.114	-27.4395
71.000000	89.061	-28.3281
72.000000	89.014	-29.2301
73.000000	88.962	-30.1410
74.000000	88.910	-31.0254
75.000000	88.856	-31.9019
76.199997	88.792	-32.9077
77.500000	88.730	-34.0168
78.800003	88.659	-35.1488
80.000000	88.588	-36.1287
81.199997	88.524	-37.0538
82.500000	88.459	-38.0897
83.800003	88.388	-39.1232
85.000000	88.319	-40.0508
86.199997	88.248	-40.9302
87.500000	88.178	-41.8167
88.500000	88.132	-42.5149
90.000000	88.061	-43.6045
91.199997	88.002	-44.4830
92.500000	87.932	-45.4204
93.800003	87.862	-46.3055
95.000000	87.801	-47.1009
96.199997	87.742	-47.8885
97.500000	87.683	-48.7355
98.800003	87.625	-49.6101
100.000000	87.568	-50.4382
101.500000	87.490	-51.4298
103.000000	87.418	-52.4085
104.400002	87.345	-53.3552
106.000000	87.255	-54.3675
107.500000	87.178	-55.2598
109.000000	87.105	-56.1715
110.599998	87.024	-57.1165
112.000000	86.957	-57.9148
113.800003	86.873	-58.9773
115.000000	86.813	-59.6870
117.199997	86.705	-60.9281
118.000000	86.669	-61.3851
120.599998	86.548	-62.9063
122.000000	86.481	-63.6792
124.099998	86.393	-64.8239
125.000000	86.358	-65.3450
126.500000	86.295	-66.2421
128.000000	86.226	-67.1035
131.500000	86.080	-68.7970
132.000000	86.061	-69.0283
134.000000	85.983	-70.0132
136.000000	85.889	-71.0919
138.000000	85.789	-72.1835
140.000000	85.699	-73.2094
143.000000	85.591	-74.6260
145.000000	85.520	-75.5670
147.500000	85.423	-76.8233
150.000000	85.319	-78.1213
152.500000	85.211	-79.3466
155.000000	85.097	-80.4857
157.500000	84.978	-81.6050
160.000000	84.865	-82.7361
162.500000	84.759	-83.8466
165.000000	84.658	-84.9207
167.500000	84.558	-85.9977
170.000000	84.457	-87.0915
172.500000	84.358	-88.1805
175.000000	84.263	-89.2618
177.500000	84.174	-90.3533
180.000000	84.088	-91.4460
182.500000	84.005	-92.5164
185.000000	83.923	-93.5538
187.500000	83.842	-94.5610
190.000000	83.757	-95.5629
192.500000	83.671	-96.5884
195.000000	83.588	-97.6273
197.500000	83.509	-98.6428
200.000000	83.430	-99.6252
203.000000	83.334	-100.7972
206.000000	83.241	-101.9737
209.000000	83.151	-103.1306
212.000000	83.060	-104.2814
214.000000	83.001	-105.0568
218.000000	82.882	-106.6061
220.000000	82.824	-107.3678
224.000000	82.709	-108.8590
227.000000	82.625	-109.9545
230.000000	82.542	-111.0508
233.000000	82.458	-112.1513
236.000000	82.376	-113.2466
240.000000	82.268	-114.7074
243.000000	82.189	-115.7900
247.000000	82.086	-117.2006
250.000000	82.008	-118.2487
254.000000	81.908	-119.6461
258.000000	81.809	-121.0430
262.000000	81.712	-122.4397
265.000000	81.641	-123.4808
269.000000	81.547	-124.8506
272.000000	81.476	-125.8648
276.000000	81.382	-127.2019
280.000000	81.291	-128.5263
285.000000	81.180	-130.1709
290.000000	81.070	-131.8124
295.000000	80.963	-133.4306
300.000000	80.856	-135.0283
304.000000	80.771	-136.2933
307.000000	80.708	-137.2363
311.000000	80.625	-138.4846
315.000000	80.545	-139.7220
320.000000	80.447	-141.2449
325.000000	80.349	-142.7270
330.000000	80.254	-144.1669
335.000000	80.161	-145.5687
340.000000	80.076	-146.9352
345.000000	80.000	-148.2698
350.000000	79.934	-149.5842
355.000000	79.880	-150.8892
360.000000	79.839	-152.2144
365.000000	79.808	-153.6093
370.000000	79.783	-155.1057
375.000000	79.758	-156.7129
382.000000	79.715	-159.0984
387.000000	79.671	-160.8583
395.000000	79.575	-163.6956
400.000000	79.498	-165.4487
406.000000	79.393	-167.5320
412.000000	79.275	-169.5738
418.000000	79.144	-171.5452
425.000000	78.972	-173.6982
431.000000	78.808	-175.3579
437.000000	78.638	-176.7913
444.000000	78.453	-178.1666
450.000000	78.326	-179.1398
455.000000	78.247	-179.8670
462.000000	78.181	179.1356
468.000000	78.156	178.2069
475.000000	78.149	176.9833
482.000000	78.154	175.6111
487.000000	78.159	174.5493
494.000000	78.167	172.9908
500.000000	78.176	171.6132
508.000000	78.190	169.6964
515.000000	78.197	167.9525
522.000000	78.196	166.2001
530.000000	78.194	164.2059
538.000000	78.191	162.1707
545.000000	78.187	160.3677
552.000000	78.183	158.5625
560.000000	78.178	156.4935
570.000000	78.163	153.8727
580.000000	78.136	151.2030
590.000000	78.110	148.4794
600.000000	78.067	145.7211
608.000000	77.998	143.5229
615.000000	77.912	141.7117
622.000000	77.809	140.1153
630.000000	77.685	138.5678
640.000000	77.560	136.9906
650.000000	77.494	135.6459
660.000000	77.482	134.3010
670.000000	77.508	132.8723
680.000000	77.553	131.3354
690.000000	77.607	129.6970
700.000000	77.662	127.9707
710.000000	77.718	126.1897
720.000000	77.779	124.4052
730.000000	77.844	122.6319
740.000000	77.916	120.8657
750.000000	77.991	119.1078
762.000000	78.081	116.9788
775.000000	78.179	114.6519
788.000000	78.283	112.3562
800.000000	78.391	110.2684
812.000000	78.508	108.1967
825.000000	78.647	105.9620
838.000000	78.791	103.7071
850.000000	78.926	101.5974
862.000000	79.068	99.4826
875.000000	79.232	97.2089
885.000000	79.366	95.4640
900.000000	79.577	92.8525
912.000000	79.752	90.7496
925.000000	79.946	88.4236
938.000000	80.144	86.0563
950.000000	80.330	83.8496
962.000000	80.525	81.6349
975.000000	80.746	79.2330
988.000000	80.975	76.8184
1000.000000	81.190	74.5609
1015.000000	81.463	71.6615
1030.000000	81.736	68.6685
1044.000000	81.992	65.8295
1060.000000	82.291	62.5474
1075.000000	82.577	59.4435
1090.000000	82.866	56.3140
1106.000000	83.171	52.9178
1120.000000	83.438	49.8721
1138.000000	83.780	45.8635
1150.000000	84.008	43.1542
1172.000000	84.432	38.1394
1180.000000	84.588	36.2974
1206.000000	85.090	30.2844
1220.000000	85.366	26.9937
1241.000000	85.785	21.8166
1250.000000	85.962	19.5305
1265.000000	86.251	15.7001
1280.000000	86.532	11.8875
1315.000000	87.150	2.9229
1320.000000	87.235	1.6147
1340.000000	87.564	-3.7014
1360.000000	87.876	-9.1719
1380.000000	88.166	-14.7621
1400.000000	88.435	-20.4092
1430.000000	88.807	-28.9192
1450.000000	89.026	-34.6115
1475.000000	89.259	-41.7887
1500.000000	89.443	-49.0460
1525.000000	89.577	-56.3036
1550.000000	89.668	-63.4335
1575.000000	89.723	-70.3739
1600.000000	89.740	-77.1224
1625.000000	89.714	-83.7217
1650.000000	89.654	-90.1777
1675.000000	89.560	-96.4289
1700.000000	89.443	-102.3862
1725.000000	89.312	-107.9936
1750.000000	89.171	-113.2631
1775.000000	89.024	-118.2865
1800.000000	88.879	-123.1448
1825.000000	88.737	-127.8671
1850.000000	88.598	-132.4270
1875.000000	88.466	-136.7788
1900.000000	88.344	-140.9154
1925.000000	88.228	-144.8767
1950.000000	88.113	-148.7257
1975.000000	88.003	-152.4998
2000.000000	87.899	-156.2068
2030.000000	87.779	-160.5396
2060.000000	87.672	-164.6768
2090.000000	87.583	-168.5908
2120.000000	87.507	-172.3301
2140.000000	87.461	-174.7719
2180.000000	87.379	-179.6061
2200.000000	87.344	177.9988
2240.000000	87.284	173.3221
2270.000000	87.257	169.9856
2300.000000	87.249	166.8025
2330.000000	87.253	163.7170
2360.000000	87.265	160.6531
2400.000000	87.294	156.5430
2430.000000	87.325	153.4401
2470.000000	87.375	149.3499
2500.000000	87.426	146.3931
2540.000000	87.515	142.6111
2580.000000	87.616	138.9006
2620.000000	87.728	135.1328
2650.000000	87.819	132.2544
2690.000000	87.947	128.3853
2720.000000	88.049	125.5237
2760.000000	88.201	121.8230
2800.000000	88.366	118.2144
2850.000000	88.578	113.6531
2900.000000	88.797	108.9264
2950.000000	89.019	104.0305
3000.000000	89.240	99.1016
3040.000000	89.424	95.2515
3070.000000	89.563	92.4139
3110.000000	89.743	88.6229
3150.000000	89.915	84.7512
3200.000000	90.118	79.7664
3250.000000	90.303	74.6553
3300.000000	90.468	69.5762
3350.000000	90.623	64.6819
3400.000000	90.760	59.9282
3450.000000	90.871	55.1838
3500.000000	90.957	50.4093
3550.000000	91.021	45.6249
3600.000000	91.060	40.9136
3650.000000	91.084	36.4407
3700.000000	91.101	32.2849
3750.000000	91.105	28.3508
3820.000000	91.087	23.0022
3870.000000	91.065	19.2554
3950.000000	91.015	13.4457
4000.000000	90.981	10.0803
4060.000000	90.952	6.4272
4120.000000	90.927	3.0554
4180.000000	90.906	-0.2458
4250.000000	90.886	-4.1283
4310.000000	90.869	-7.4974
4370.000000	90.849	-10.8121
4440.000000	90.828	-14.3855
4500.000000	90.810	-17.1858
4550.000000	90.786	-19.4536
4620.000000	90.736	-22.6511
4680.000000	90.680	-25.4250
4750.000000	90.594	-28.6443
4820.000000	90.487	-31.6426
4870.000000	90.406	-33.5040
4940.000000	90.290	-35.7141
5000.000000	90.184	-37.3910
5080.000000	90.040	-39.4932
5150.000000	89.921	-41.2645
5220.000000	89.813	-42.9983
5300.000000	89.704	-44.8514
5380.000000	89.617	-46.4113
5450.000000	89.545	-47.6385
5520.000000	89.451	-48.9541
5600.000000	89.298	-50.6327
5700.000000	89.015	-52.7885
5800.000000	88.628	-54.5105
5900.000000	88.182	-55.0813
6000.000000	87.725	-54.3627
6080.000000	87.371	-53.1815
6150.000000	87.080	-51.8630
6220.000000	86.815	-50.3402
6300.000000	86.544	-48.3721
6400.000000	86.257	-45.4338
6500.000000	86.044	-41.6865
6600.000000	85.906	-37.2760
6700.000000	85.839	-32.6140
6800.000000	85.854	-27.8964
6900.000000	85.960	-23.1998
7000.000000	86.167	-18.5110
7100.000000	86.493	-13.6626
7200.000000	86.941	-8.7092
7300.000000	87.491	-4.0709
7400.000000	88.149	-0.1056
7500.000000	88.916	2.7115
7620.000000	89.862	3.8612
7750.000000	90.613	2.2581
7880.000000	90.852	-1.0901
8000.000000	90.732	-4.9829
8120.000000	90.327	-8.3947
8250.000000	89.584	-10.1960
8380.000000	88.662	-9.6179
8500.000000	87.783	-7.0284
8620.000000	86.966	-2.5271
8750.000000	86.192	4.0244
8850.000000	85.680	9.6750
9000.000000	85.042	18.3889
9120.000000	84.615	25.2563
9250.000000	84.194	32.5659
9380.000000	83.786	40.0852
9500.000000	83.412	47.6250
9620.000000	83.033	55.7421
9750.000000	82.613	64.9224
9880.000000	82.200	74.3479
10000.000000	81.833	83.2167
10150.000000	81.391	94.6035
10300.000000	80.976	106.8125
10440.000000	80.673	119.5332
10600.000000	80.511	135.2791
10750.000000	80.558	150.0657
10900.000000	80.750	164.1078
11060.000000	81.036	178.0603
11200.000000	81.303	-170.3710
11380.000000	81.680	-155.5627
11500.000000	81.981	-145.5374
11720.000000	82.561	-127.8733
11800.000000	82.749	-121.8852
12060.000000	83.177	-103.7941
12200.000000	83.272	-94.5690
12410.000000	83.283	-80.5358
12500.000000	83.270	-74.1326
12650.000000	83.246	-62.7197
12800.000000	83.225	-50.6496
13150.000000	83.235	-22.3303
13200.000000	83.248	-18.4253
13400.000000	83.308	-3.4930
13600.000000	83.313	10.2618
13800.000000	83.153	23.5162
14000.000000	82.731	37.1550
14300.000000	81.517	58.9843
14500.000000	80.374	74.9830
14750.000000	78.689	96.8434
15000.000000	76.676	121.6661
15250.000000	74.447	160.7793
15500.000000	75.030	-146.6671
15750.000000	76.256	-115.6776
16000.000000	76.305	-90.9487
16250.000000	76.350	-63.2004
16500.000000	76.812	-34.7896
16750.000000	77.634	-7.4247
17000.000000	78.599	17.3149
17250.000000	79.362	37.2952
17500.000000	79.488	52.6530
17750.000000	78.765	66.7373
18000.000000	77.325	82.8363
18250.000000	75.438	102.3238
18500.000000	73.313	125.3547
18750.000000	71.030	150.8792
19000.000000	68.537	177.9818
19250.000000	65.705	-152.3268
19500.000000	62.444	-117.5394
19750.000000	59.047	-79.4566
