* Measurement data measured by REW V5.20.7
* Source: Microphone (Sound Blaster Play! 3), MICROPHONE (Master Volume), R, volume: 0.250
* Format: 256k Log Swept Sine, 1 sweep at -12.0 dBFS with no timing reference
* Dated: 15-Nov-2023 21:36:35
* REW Settings:
*  C-weighting compensation: Off
*  Target level: 75.0 dB
* Note: ; 
* Measurement: Simgot EA1000 R
* Smoothing: 1/24 octave
* Frequency Step: 1/48 octave
* Start Frequency: 20.000 Hz
*
* Freq(Hz)	SPL(dB)	Phase(degrees)
20.000000	87.222	72.4896
20.299999	87.297	71.4249
20.600000	87.369	70.3857
20.900000	87.440	69.3659
21.200001	87.507	68.3615
21.400000	87.550	67.7010
21.799999	87.630	66.4070
22.000000	87.667	65.7765
22.400000	87.737	64.5537
22.700001	87.787	63.6694
23.000000	87.835	62.8081
23.299999	87.883	61.9623
23.600000	87.928	61.1274
24.000000	87.985	60.0294
24.299999	88.024	59.2214
24.700001	88.072	58.1719
25.000000	88.107	57.4069
25.400000	88.152	56.4095
25.799999	88.196	55.4247
26.200001	88.237	54.4464
26.500000	88.264	53.7238
26.900000	88.297	52.7903
27.200001	88.320	52.1210
27.600000	88.352	51.2687
28.000000	88.387	50.4437
28.500000	88.435	49.4152
29.000000	88.483	48.3747
29.500000	88.527	47.3364
30.000000	88.566	46.3142
30.400000	88.594	45.5070
30.700001	88.612	44.9079
31.100000	88.631	44.1283
31.500000	88.645	43.3874
32.000000	88.658	42.5354
32.500000	88.671	41.7577
33.000000	88.688	41.0231
33.500000	88.707	40.3117
34.000000	88.727	39.6184
34.500000	88.749	38.9317
35.000000	88.772	38.2310
35.500000	88.791	37.5091
36.000000	88.802	36.7881
36.500000	88.808	36.0982
37.000000	88.811	35.4520
37.500000	88.815	34.8415
38.200001	88.824	34.0229
38.700001	88.832	33.4498
39.500000	88.847	32.5297
40.000000	88.855	31.9584
40.599998	88.861	31.2949
41.200001	88.868	30.6544
41.799999	88.874	30.0250
42.500000	88.878	29.3142
43.099998	88.882	28.7323
43.700001	88.888	28.1448
44.400002	88.890	27.4330
45.000000	88.883	26.8420
45.500000	88.875	26.3911
46.200001	88.868	25.7985
46.799999	88.864	25.2881
47.500000	88.854	24.7070
48.200001	88.845	24.1801
48.700001	88.843	23.8191
49.400002	88.844	23.2839
50.000000	88.839	22.7988
50.799999	88.822	22.1885
51.500000	88.806	21.7275
52.200001	88.796	21.2953
53.000000	88.789	20.7432
53.799999	88.766	20.1216
54.500000	88.726	19.6616
55.200001	88.690	19.3687
56.000000	88.679	19.0667
57.000000	88.677	18.4591
58.000000	88.652	17.8342
59.000000	88.635	17.2604
60.000000	88.615	16.6315
60.799999	88.593	16.1757
61.500000	88.574	15.8108
62.200001	88.554	15.4835
63.000000	88.535	15.1805
64.000000	88.527	14.8046
65.000000	88.512	14.3408
66.000000	88.475	13.9262
67.000000	88.429	13.6720
68.000000	88.399	13.5063
69.000000	88.379	13.2610
70.000000	88.352	12.9354
71.000000	88.319	12.6064
72.000000	88.286	12.2574
73.000000	88.251	11.9072
74.000000	88.216	11.5952
75.000000	88.187	11.2895
76.199997	88.143	10.9183
77.500000	88.080	10.7097
78.800003	88.041	10.6356
80.000000	88.014	10.4766
81.199997	87.983	10.2482
82.500000	87.940	9.9238
83.800003	87.885	9.6217
85.000000	87.836	9.4228
86.199997	87.795	9.2486
87.500000	87.752	9.0780
88.500000	87.720	8.9618
90.000000	87.672	8.8161
91.199997	87.636	8.7161
92.500000	87.597	8.5839
93.800003	87.553	8.4486
95.000000	87.509	8.3578
96.199997	87.465	8.2993
97.500000	87.420	8.2330
98.800003	87.374	8.1402
100.000000	87.328	8.0625
101.500000	87.274	7.9803
103.000000	87.221	7.9086
104.400002	87.174	7.8883
106.000000	87.127	7.8828
107.500000	87.081	7.8544
109.000000	87.026	7.8444
110.599998	86.957	7.9329
112.000000	86.905	8.1183
113.800003	86.862	8.2350
115.000000	86.822	8.2022
117.199997	86.739	8.2330
118.000000	86.717	8.2437
120.599998	86.649	8.1489
122.000000	86.605	8.1603
124.099998	86.543	8.3141
125.000000	86.514	8.4122
126.500000	86.464	8.6119
128.000000	86.412	8.8134
131.500000	86.267	9.1445
132.000000	86.245	9.1904
134.000000	86.166	9.3922
136.000000	86.096	9.6234
138.000000	86.026	9.8915
140.000000	85.947	10.1555
143.000000	85.818	10.5732
145.000000	85.753	10.8232
147.500000	85.688	11.0530
150.000000	85.620	11.2952
152.500000	85.554	11.6240
155.000000	85.490	12.0269
157.500000	85.422	12.4888
160.000000	85.349	12.9170
162.500000	85.278	13.2655
165.000000	85.211	13.6087
167.500000	85.144	14.0396
170.000000	85.074	14.5298
172.500000	85.003	15.0095
175.000000	84.935	15.4835
177.500000	84.872	15.9632
180.000000	84.811	16.4312
182.500000	84.747	16.8978
185.000000	84.681	17.3793
187.500000	84.616	17.8796
190.000000	84.551	18.3894
192.500000	84.486	18.9029
195.000000	84.419	19.4122
197.500000	84.353	19.9257
200.000000	84.289	20.4686
203.000000	84.214	21.1622
206.000000	84.133	21.8846
209.000000	84.047	22.6205
212.000000	83.960	23.3975
214.000000	83.904	23.9678
218.000000	83.809	25.2712
220.000000	83.776	25.9826
224.000000	83.750	27.3678
227.000000	83.756	28.2043
230.000000	83.762	28.8314
233.000000	83.750	29.3231
236.000000	83.715	29.8068
240.000000	83.649	30.5234
243.000000	83.597	31.1102
247.000000	83.526	31.9140
250.000000	83.472	32.5557
254.000000	83.403	33.4504
258.000000	83.335	34.3565
262.000000	83.266	35.2920
265.000000	83.217	36.0096
269.000000	83.154	36.9460
272.000000	83.106	37.6441
276.000000	83.043	38.6056
280.000000	82.983	39.5827
285.000000	82.910	40.8064
290.000000	82.837	42.0388
295.000000	82.768	43.2803
300.000000	82.704	44.5031
304.000000	82.654	45.4669
307.000000	82.617	46.1983
311.000000	82.565	47.1880
315.000000	82.513	48.1876
320.000000	82.451	49.4514
325.000000	82.390	50.7115
330.000000	82.334	51.9479
335.000000	82.282	53.1835
340.000000	82.231	54.4295
345.000000	82.179	55.6868
350.000000	82.126	56.9495
355.000000	82.075	58.2094
360.000000	82.027	59.4595
365.000000	81.982	60.7009
370.000000	81.938	61.9409
375.000000	81.894	63.1905
382.000000	81.834	64.9417
387.000000	81.792	66.1824
395.000000	81.728	68.1589
400.000000	81.690	69.3919
406.000000	81.647	70.8620
412.000000	81.603	72.3346
418.000000	81.556	73.8124
425.000000	81.504	75.5356
431.000000	81.463	77.0132
437.000000	81.426	78.4832
444.000000	81.386	80.1880
450.000000	81.352	81.6502
455.000000	81.323	82.8693
462.000000	81.280	84.5677
468.000000	81.243	86.0163
475.000000	81.203	87.7047
482.000000	81.167	89.3958
487.000000	81.145	90.6016
494.000000	81.116	92.2877
500.000000	81.089	93.7375
508.000000	81.050	95.6624
515.000000	81.016	97.3345
522.000000	80.986	99.0110
530.000000	80.959	100.9372
538.000000	80.938	102.8581
545.000000	80.921	104.5136
552.000000	80.902	106.1404
560.000000	80.878	107.9783
570.000000	80.847	110.2653
580.000000	80.819	112.5491
590.000000	80.797	114.8543
600.000000	80.776	117.1656
608.000000	80.757	119.0030
615.000000	80.739	120.5977
622.000000	80.723	122.1864
630.000000	80.708	124.0093
640.000000	80.694	126.2885
650.000000	80.684	128.5643
660.000000	80.677	130.8289
670.000000	80.668	133.0663
680.000000	80.657	135.2883
690.000000	80.649	137.5085
700.000000	80.646	139.7291
710.000000	80.648	141.9586
720.000000	80.654	144.1876
730.000000	80.661	146.3989
740.000000	80.666	148.5751
750.000000	80.671	150.7310
762.000000	80.682	153.3223
775.000000	80.701	156.1232
788.000000	80.727	158.9303
800.000000	80.752	161.4960
812.000000	80.773	164.0083
825.000000	80.790	166.7049
838.000000	80.805	169.4252
850.000000	80.814	172.0184
862.000000	80.828	174.8009
875.000000	80.884	178.0182
885.000000	80.968	-179.6144
900.000000	81.096	-176.4991
912.000000	81.169	-173.9684
925.000000	81.298	-170.9402
938.000000	81.510	-168.2373
950.000000	81.692	-166.3077
962.000000	81.818	-164.5647
975.000000	81.916	-162.6339
988.000000	82.001	-160.6467
1000.000000	82.078	-158.7791
1015.000000	82.179	-156.4241
1030.000000	82.288	-154.0639
1044.000000	82.394	-151.8761
1060.000000	82.513	-149.4244
1075.000000	82.622	-147.2109
1090.000000	82.726	-145.0777
1106.000000	82.835	-142.8474
1120.000000	82.930	-140.9141
1138.000000	83.055	-138.4449
1150.000000	83.138	-136.8120
1172.000000	83.282	-133.8926
1180.000000	83.332	-132.8688
1206.000000	83.482	-129.6425
1220.000000	83.559	-127.9227
1241.000000	83.677	-125.3374
1250.000000	83.728	-124.2266
1265.000000	83.812	-122.3790
1280.000000	83.892	-120.5550
1315.000000	84.063	-116.4783
1320.000000	84.086	-115.9117
1340.000000	84.176	-113.6456
1360.000000	84.267	-111.3605
1380.000000	84.363	-109.0540
1400.000000	84.458	-106.7473
1430.000000	84.592	-103.3928
1450.000000	84.678	-101.2387
1475.000000	84.781	-98.5688
1500.000000	84.892	-95.8623
1525.000000	85.008	-93.1331
1550.000000	85.122	-90.4473
1575.000000	85.234	-87.8642
1600.000000	85.344	-85.3804
1625.000000	85.454	-82.9229
1650.000000	85.570	-80.4423
1675.000000	85.694	-77.8989
1700.000000	85.835	-75.4050
1725.000000	85.984	-73.0961
1750.000000	86.129	-70.8811
1775.000000	86.259	-68.6579
1800.000000	86.383	-66.4459
1825.000000	86.513	-64.2380
1850.000000	86.646	-62.0467
1875.000000	86.777	-59.9347
1900.000000	86.908	-57.9323
1925.000000	87.038	-56.0380
1950.000000	87.165	-54.2147
1975.000000	87.295	-52.4061
2000.000000	87.431	-50.5909
2030.000000	87.597	-48.4313
2060.000000	87.761	-46.3740
2090.000000	87.924	-44.4813
2120.000000	88.083	-42.7610
2140.000000	88.186	-41.6860
2180.000000	88.390	-39.6008
2200.000000	88.493	-38.5740
2240.000000	88.688	-36.6072
2270.000000	88.819	-35.2818
2300.000000	88.937	-34.1056
2330.000000	89.040	-33.0592
2360.000000	89.127	-32.0849
2400.000000	89.229	-30.7641
2430.000000	89.297	-29.7194
2470.000000	89.371	-28.3191
2500.000000	89.411	-27.3296
2540.000000	89.447	-26.1187
2580.000000	89.465	-25.0037
2620.000000	89.465	-23.8636
2650.000000	89.461	-22.9189
2690.000000	89.450	-21.5415
2720.000000	89.432	-20.4753
2760.000000	89.397	-19.0784
2800.000000	89.354	-17.7198
2850.000000	89.296	-16.0219
2900.000000	89.246	-14.1768
2950.000000	89.218	-12.1790
3000.000000	89.186	-10.2300
3040.000000	89.152	-8.7780
3070.000000	89.125	-7.7444
3110.000000	89.086	-6.4291
3150.000000	89.044	-5.1334
3200.000000	88.995	-3.4051
3250.000000	88.952	-1.5235
3300.000000	88.905	0.3690
3350.000000	88.856	2.1649
3400.000000	88.810	3.8471
3450.000000	88.768	5.4375
3500.000000	88.732	7.0647
3550.000000	88.709	8.8207
3600.000000	88.693	10.6205
3650.000000	88.676	12.3169
3700.000000	88.660	13.8557
3750.000000	88.646	15.2445
3820.000000	88.623	17.0746
3870.000000	88.616	18.4736
3950.000000	88.624	20.8560
4000.000000	88.631	22.2329
4060.000000	88.643	23.6555
4120.000000	88.653	24.8093
4180.000000	88.655	25.7586
4250.000000	88.645	26.8852
4310.000000	88.630	28.0255
4370.000000	88.602	29.2549
4440.000000	88.574	30.6564
4500.000000	88.571	31.7237
4550.000000	88.583	32.4548
4620.000000	88.616	33.2891
4680.000000	88.656	33.9726
4750.000000	88.705	34.7430
4820.000000	88.738	35.3035
4870.000000	88.751	35.5149
4940.000000	88.752	35.5471
5000.000000	88.737	35.3599
5080.000000	88.693	34.9596
5150.000000	88.640	34.7061
5220.000000	88.574	34.5927
5300.000000	88.469	34.4287
5380.000000	88.334	34.0817
5450.000000	88.195	33.6200
5520.000000	88.037	33.0613
5600.000000	87.833	32.4953
5700.000000	87.562	32.2341
5800.000000	87.253	32.3081
5900.000000	86.888	32.4964
6000.000000	86.483	33.1286
6080.000000	86.183	34.3016
6150.000000	86.047	36.0671
6220.000000	86.151	37.6114
6300.000000	86.314	37.5261
6400.000000	86.206	36.5445
6500.000000	85.963	36.3829
6600.000000	85.754	36.6214
6700.000000	85.597	36.9257
6800.000000	85.494	37.4446
6900.000000	85.456	38.3450
7000.000000	85.475	39.3418
7100.000000	85.552	40.0748
7200.000000	85.691	40.3679
7300.000000	85.886	40.1560
7400.000000	86.133	39.5004
7500.000000	86.439	38.6265
7620.000000	86.890	37.3268
7750.000000	87.451	34.9089
7880.000000	88.054	30.7239
8000.000000	88.589	24.9446
8120.000000	89.015	17.2752
8250.000000	89.243	7.4569
8380.000000	89.138	-2.9019
8500.000000	88.705	-12.2864
8620.000000	87.988	-20.9177
8750.000000	86.993	-28.9476
8850.000000	86.146	-34.0973
9000.000000	84.849	-40.0794
9120.000000	83.856	-43.2564
9250.000000	82.860	-45.4137
9380.000000	81.951	-46.9046
9500.000000	81.194	-48.0627
9620.000000	80.515	-49.1699
9750.000000	79.865	-50.3833
9880.000000	79.297	-51.5026
10000.000000	78.851	-52.1740
10150.000000	78.395	-52.4804
10300.000000	78.033	-52.7479
10440.000000	77.774	-53.3264
10600.000000	77.567	-54.4882
10750.000000	77.452	-56.0103
10900.000000	77.414	-57.5981
11060.000000	77.475	-58.8605
11200.000000	77.623	-59.7468
11380.000000	77.949	-61.3031
11500.000000	78.256	-62.8596
11720.000000	78.983	-67.0541
11800.000000	79.293	-68.9452
12060.000000	80.584	-75.2890
12200.000000	81.568	-78.8495
12410.000000	83.476	-86.2424
12500.000000	84.455	-90.7463
12650.000000	86.237	-100.9712
12800.000000	87.994	-115.9916
13150.000000	89.851	-171.7074
13200.000000	89.711	179.5441
13400.000000	88.239	149.3639
13600.000000	85.935	128.7806
13800.000000	83.591	114.9824
14000.000000	81.629	104.6425
14300.000000	79.575	91.4583
14500.000000	78.718	83.1469
14750.000000	78.116	73.3282
15000.000000	77.949	63.0752
15250.000000	78.166	50.7759
15500.000000	78.724	35.3116
15750.000000	79.494	15.7133
16000.000000	80.274	-8.1326
16250.000000	80.763	-36.5630
16500.000000	80.361	-68.5686
16750.000000	79.023	-99.0800
17000.000000	77.229	-126.3506
17250.000000	75.364	-151.6431
17500.000000	73.562	-176.2572
17750.000000	71.744	159.6094
18000.000000	69.697	136.4630
18250.000000	67.224	116.3315
18500.000000	64.505	102.1414
18750.000000	62.585	91.0197
19000.000000	61.983	73.8542
19250.000000	61.388	48.9365
19500.000000	60.041	22.7752
19750.000000	58.122	1.3787
