* Measurement data measured by REW V5.20.7
* Source: Microphone (Sound Blaster Play! 3), MICROPHONE (Master Volume), R, volume: 0.250
* Format: 256k Log Swept Sine, 1 sweep at -12.0 dBFS with no timing reference
* Dated: 04-Dec-2023 17:13:24
* REW Settings:
*  C-weighting compensation: Off
*  Target level: 75.0 dB
* Note: ; 
* Measurement: Tansio Mirai Halo R
* Smoothing: 1/24 octave
* Frequency Step: 1/48 octave
* Start Frequency: 20.000 Hz
*
* Freq(Hz)	SPL(dB)	Phase(degrees)
20.000000	88.813	-128.4588
20.299999	88.864	-129.2707
20.600000	88.913	-130.0650
20.900000	88.961	-130.8413
21.200001	89.007	-131.5996
21.400000	89.037	-132.0959
21.799999	89.095	-133.0687
22.000000	89.123	-133.5467
22.400000	89.179	-134.4880
22.700001	89.219	-135.1817
23.000000	89.257	-135.8642
23.299999	89.294	-136.5341
23.600000	89.330	-137.1913
24.000000	89.376	-138.0476
24.299999	89.409	-138.6761
24.700001	89.451	-139.4963
25.000000	89.482	-140.0976
25.400000	89.521	-140.8788
25.799999	89.558	-141.6360
26.200001	89.596	-142.3736
26.500000	89.624	-142.9193
26.900000	89.660	-143.6432
27.200001	89.686	-144.1847
27.600000	89.718	-144.9006
28.000000	89.745	-145.5988
28.500000	89.777	-146.4325
29.000000	89.807	-147.2240
29.500000	89.840	-147.9922
30.000000	89.872	-148.7563
30.400000	89.897	-149.3661
30.700001	89.914	-149.8191
31.100000	89.935	-150.4118
31.500000	89.954	-150.9894
32.000000	89.978	-151.6925
32.500000	90.002	-152.3800
33.000000	90.024	-153.0554
33.500000	90.045	-153.7185
34.000000	90.065	-154.3694
34.500000	90.084	-155.0085
35.000000	90.102	-155.6356
35.500000	90.119	-156.2500
36.000000	90.134	-156.8524
36.500000	90.149	-157.4447
37.000000	90.163	-158.0274
37.500000	90.176	-158.5988
38.200001	90.193	-159.3781
38.700001	90.204	-159.9233
39.500000	90.222	-160.7806
40.000000	90.231	-161.3042
40.599998	90.242	-161.9183
41.200001	90.253	-162.5218
41.799999	90.262	-163.1177
42.500000	90.271	-163.7967
43.099998	90.278	-164.3614
43.700001	90.285	-164.9186
44.400002	90.293	-165.5674
45.000000	90.297	-166.1171
45.500000	90.300	-166.5661
46.200001	90.303	-167.1832
46.799999	90.305	-167.7030
47.500000	90.307	-168.2957
48.200001	90.310	-168.8815
48.700001	90.311	-169.3025
49.400002	90.310	-169.8866
50.000000	90.307	-170.3622
50.799999	90.305	-170.9589
51.500000	90.306	-171.4767
52.200001	90.307	-172.0030
53.000000	90.304	-172.5953
53.799999	90.300	-173.1681
54.500000	90.296	-173.6608
55.200001	90.291	-174.1487
56.000000	90.285	-174.6991
57.000000	90.276	-175.3766
58.000000	90.266	-176.0400
59.000000	90.255	-176.6901
60.000000	90.243	-177.3289
60.799999	90.233	-177.8279
61.500000	90.224	-178.2567
62.200001	90.215	-178.6803
63.000000	90.203	-179.1571
64.000000	90.187	-179.7381
65.000000	90.171	179.6936
66.000000	90.156	179.1259
67.000000	90.138	178.5595
68.000000	90.118	178.0026
69.000000	90.097	177.4678
70.000000	90.077	176.9498
71.000000	90.058	176.4337
72.000000	90.038	175.9209
73.000000	90.016	175.4195
74.000000	89.996	174.9296
75.000000	89.975	174.4422
76.199997	89.948	173.8755
77.500000	89.921	173.2796
78.800003	89.895	172.6818
80.000000	89.866	172.1154
81.199997	89.832	171.5930
82.500000	89.798	171.0339
83.800003	89.761	170.4853
85.000000	89.727	169.9879
86.199997	89.691	169.5013
87.500000	89.652	169.0018
88.500000	89.622	168.6335
90.000000	89.581	168.0934
91.199997	89.547	167.6497
92.500000	89.509	167.1757
93.800003	89.471	166.7046
95.000000	89.435	166.2737
96.199997	89.398	165.8584
97.500000	89.358	165.4190
98.800003	89.318	164.9962
100.000000	89.281	164.6092
101.500000	89.233	164.1274
103.000000	89.185	163.6663
104.400002	89.141	163.2332
106.000000	89.089	162.7420
107.500000	89.040	162.2961
109.000000	88.990	161.8620
110.599998	88.938	161.4254
112.000000	88.893	161.0427
113.800003	88.832	160.5603
115.000000	88.791	160.2567
117.199997	88.718	159.6850
118.000000	88.690	159.4781
120.599998	88.600	158.8607
122.000000	88.554	158.5278
124.099998	88.479	158.0406
125.000000	88.448	157.8459
126.500000	88.397	157.5219
128.000000	88.347	157.1830
131.500000	88.222	156.4620
132.000000	88.205	156.3682
134.000000	88.139	155.9761
136.000000	88.068	155.5760
138.000000	87.994	155.2167
140.000000	87.927	154.8811
143.000000	87.829	154.3405
145.000000	87.756	153.9819
147.500000	87.660	153.5956
150.000000	87.570	153.2590
152.500000	87.490	152.9060
155.000000	87.410	152.5229
157.500000	87.321	152.1499
160.000000	87.227	151.8117
162.500000	87.133	151.5125
165.000000	87.042	151.2365
167.500000	86.956	150.9818
170.000000	86.872	150.7349
172.500000	86.788	150.4961
175.000000	86.703	150.2590
177.500000	86.616	150.0287
180.000000	86.530	149.8037
182.500000	86.444	149.5837
185.000000	86.359	149.3707
187.500000	86.277	149.1561
190.000000	86.195	148.9511
192.500000	86.116	148.7592
195.000000	86.037	148.5933
197.500000	85.959	148.4834
200.000000	85.879	148.4014
203.000000	85.775	148.2587
206.000000	85.671	148.0777
209.000000	85.578	147.9431
212.000000	85.487	147.8474
214.000000	85.422	147.7719
218.000000	85.289	147.6214
220.000000	85.226	147.5885
224.000000	85.105	147.5641
227.000000	85.018	147.5001
230.000000	84.930	147.4096
233.000000	84.838	147.3267
236.000000	84.741	147.2629
240.000000	84.611	147.2419
243.000000	84.513	147.2723
247.000000	84.383	147.3376
250.000000	84.288	147.4016
254.000000	84.162	147.5100
258.000000	84.037	147.6120
262.000000	83.913	147.6898
265.000000	83.822	147.7354
269.000000	83.708	147.7858
272.000000	83.631	147.8332
276.000000	83.533	147.9464
280.000000	83.433	148.1157
285.000000	83.301	148.3281
290.000000	83.174	148.5302
295.000000	83.051	148.7902
300.000000	82.927	149.0545
304.000000	82.833	149.2639
307.000000	82.765	149.4303
311.000000	82.675	149.6649
315.000000	82.585	149.9164
320.000000	82.474	150.2473
325.000000	82.363	150.5957
330.000000	82.257	150.9489
335.000000	82.156	151.3087
340.000000	82.058	151.6858
345.000000	81.960	152.0738
350.000000	81.864	152.4734
355.000000	81.771	152.9013
360.000000	81.682	153.3382
365.000000	81.597	153.7791
370.000000	81.516	154.2241
375.000000	81.436	154.6736
382.000000	81.326	155.3251
387.000000	81.250	155.8016
395.000000	81.136	156.5677
400.000000	81.071	157.0524
406.000000	80.996	157.6440
412.000000	80.922	158.2405
418.000000	80.851	158.8437
425.000000	80.772	159.5536
431.000000	80.710	160.1629
437.000000	80.654	160.7751
444.000000	80.595	161.4878
450.000000	80.548	162.0986
455.000000	80.508	162.6092
462.000000	80.452	163.3313
468.000000	80.408	163.9510
475.000000	80.364	164.6690
482.000000	80.327	165.3819
487.000000	80.304	165.8883
494.000000	80.274	166.5920
500.000000	80.250	167.1921
508.000000	80.221	167.9774
515.000000	80.200	168.6564
522.000000	80.184	169.3371
530.000000	80.174	170.1034
538.000000	80.171	170.8388
545.000000	80.170	171.4530
552.000000	80.167	172.0440
560.000000	80.164	172.7008
570.000000	80.164	173.5029
580.000000	80.169	174.3088
590.000000	80.181	175.1002
600.000000	80.193	175.8528
608.000000	80.202	176.4466
615.000000	80.212	176.9578
622.000000	80.224	177.4603
630.000000	80.241	178.0300
640.000000	80.269	178.7370
650.000000	80.299	179.4164
660.000000	80.329	-179.9321
670.000000	80.357	-179.3026
680.000000	80.388	-178.6898
690.000000	80.425	-178.0877
700.000000	80.466	-177.4871
710.000000	80.510	-176.8934
720.000000	80.553	-176.3330
730.000000	80.594	-175.8077
740.000000	80.635	-175.2962
750.000000	80.680	-174.7860
762.000000	80.740	-174.1779
775.000000	80.811	-173.5316
788.000000	80.882	-172.9138
800.000000	80.946	-172.3939
812.000000	81.010	-171.8991
825.000000	81.084	-171.3642
838.000000	81.167	-170.8403
850.000000	81.248	-170.3673
862.000000	81.329	-169.9234
875.000000	81.415	-169.5020
885.000000	81.479	-169.2044
900.000000	81.579	-168.7721
912.000000	81.666	-168.4390
925.000000	81.764	-168.0945
938.000000	81.864	-167.7802
950.000000	81.955	-167.5415
962.000000	82.043	-167.3591
975.000000	82.138	-167.1953
988.000000	82.234	-167.0501
1000.000000	82.325	-166.9272
1015.000000	82.442	-166.7923
1030.000000	82.556	-166.6993
1044.000000	82.657	-166.6808
1060.000000	82.765	-166.7324
1075.000000	82.863	-166.8080
1090.000000	82.959	-166.8860
1106.000000	83.062	-166.9745
1120.000000	83.150	-167.0637
1138.000000	83.255	-167.2184
1150.000000	83.320	-167.3641
1172.000000	83.426	-167.6835
1180.000000	83.462	-167.7972
1206.000000	83.580	-168.1238
1220.000000	83.643	-168.2740
1241.000000	83.730	-168.4881
1250.000000	83.764	-168.5905
1265.000000	83.817	-168.7843
1280.000000	83.866	-168.9878
1315.000000	83.975	-169.3665
1320.000000	83.991	-169.4033
1340.000000	84.059	-169.5119
1360.000000	84.126	-169.5953
1380.000000	84.192	-169.7130
1400.000000	84.258	-169.8671
1430.000000	84.359	-170.0803
1450.000000	84.433	-170.1837
1475.000000	84.528	-170.2813
1500.000000	84.619	-170.3961
1525.000000	84.707	-170.5844
1550.000000	84.792	-170.8004
1575.000000	84.882	-170.9774
1600.000000	84.981	-171.0932
1625.000000	85.083	-171.1826
1650.000000	85.185	-171.3201
1675.000000	85.286	-171.5309
1700.000000	85.387	-171.7749
1725.000000	85.493	-171.9924
1750.000000	85.608	-172.1382
1775.000000	85.741	-172.2350
1800.000000	85.887	-172.4440
1825.000000	86.035	-172.7715
1850.000000	86.175	-173.1167
1875.000000	86.302	-173.4549
1900.000000	86.433	-173.7996
1925.000000	86.573	-174.1313
1950.000000	86.713	-174.4852
1975.000000	86.853	-174.9170
2000.000000	86.992	-175.4488
2030.000000	87.156	-176.2074
2060.000000	87.317	-177.0314
2090.000000	87.483	-177.8490
2120.000000	87.653	-178.6559
2140.000000	87.763	-179.2164
2180.000000	87.976	179.5192
2200.000000	88.080	178.8024
2240.000000	88.281	177.2228
2270.000000	88.428	175.9885
2300.000000	88.577	174.7675
2330.000000	88.725	173.5402
2360.000000	88.865	172.2414
2400.000000	89.042	170.3108
2430.000000	89.167	168.6952
2470.000000	89.319	166.3674
2500.000000	89.425	164.5557
2540.000000	89.555	162.0677
2580.000000	89.648	159.3998
2620.000000	89.687	156.4716
2650.000000	89.674	154.1455
2690.000000	89.595	151.0095
2720.000000	89.491	148.7712
2760.000000	89.310	146.1098
2800.000000	89.091	143.8664
2850.000000	88.774	141.5264
2900.000000	88.435	139.5733
2950.000000	88.093	137.9713
3000.000000	87.765	136.8137
3040.000000	87.528	136.2676
3070.000000	87.367	136.0340
3110.000000	87.173	135.8347
3150.000000	87.003	135.6441
3200.000000	86.830	135.2979
3250.000000	86.689	134.7640
3300.000000	86.572	134.0970
3350.000000	86.464	133.3110
3400.000000	86.328	132.2806
3450.000000	86.133	130.9414
3500.000000	85.857	129.4185
3550.000000	85.478	128.0027
3600.000000	85.001	127.1708
3650.000000	84.461	127.3963
3700.000000	83.911	128.8671
3750.000000	83.417	131.4565
3820.000000	82.962	136.3268
3870.000000	82.859	140.0874
3950.000000	83.051	145.6066
4000.000000	83.343	148.4877
4060.000000	83.794	151.1417
4120.000000	84.289	152.7323
4180.000000	84.789	153.2406
4250.000000	85.329	152.5717
4310.000000	85.718	151.1792
4370.000000	86.052	149.3148
4440.000000	86.367	146.7439
4500.000000	86.537	144.2394
4550.000000	86.598	141.9736
4620.000000	86.567	138.7199
4680.000000	86.443	136.0692
4750.000000	86.210	133.4603
4820.000000	85.926	131.6395
4870.000000	85.706	130.7794
4940.000000	85.378	129.9607
5000.000000	85.087	129.4968
5080.000000	84.694	129.1824
5150.000000	84.353	129.2386
5220.000000	84.029	129.7538
5300.000000	83.701	131.0369
5380.000000	83.420	132.8384
5450.000000	83.216	134.5576
5520.000000	83.050	136.2611
5600.000000	82.895	138.1595
5700.000000	82.737	140.7480
5800.000000	82.685	144.3281
5900.000000	82.838	148.2984
6000.000000	83.153	151.2871
6080.000000	83.423	152.6758
6150.000000	83.635	153.3879
6220.000000	83.822	153.8876
6300.000000	84.021	154.4760
6400.000000	84.256	155.3822
6500.000000	84.457	156.2251
6600.000000	84.622	156.8372
6700.000000	84.760	157.2852
6800.000000	84.881	157.7288
6900.000000	85.009	158.4996
7000.000000	85.182	159.8416
7100.000000	85.414	161.3952
7200.000000	85.694	162.6193
7300.000000	86.003	163.3624
7400.000000	86.338	163.6409
7500.000000	86.695	163.5496
7620.000000	87.157	163.2098
7750.000000	87.670	162.3839
7880.000000	88.125	160.3971
8000.000000	88.428	157.3426
8120.000000	88.563	153.3917
8250.000000	88.483	148.9067
8380.000000	88.187	145.3431
8500.000000	87.761	143.2637
8620.000000	87.238	142.1846
8750.000000	86.635	141.9738
8850.000000	86.186	142.3811
9000.000000	85.581	143.8218
9120.000000	85.189	145.8358
9250.000000	84.878	148.8372
9380.000000	84.678	152.0875
9500.000000	84.582	154.8099
9620.000000	84.559	157.0103
9750.000000	84.592	158.6320
9880.000000	84.641	159.4645
10000.000000	84.664	159.8219
10150.000000	84.610	160.1227
10300.000000	84.401	160.2838
10440.000000	84.048	160.4550
10600.000000	83.493	161.1614
10750.000000	82.896	162.7215
10900.000000	82.309	165.4977
11060.000000	81.790	170.0854
11200.000000	81.475	175.0882
11380.000000	81.287	-178.3120
11500.000000	81.299	-174.3413
11720.000000	81.550	-168.8710
11800.000000	81.681	-167.6019
12060.000000	82.020	-165.6121
12200.000000	82.020	-165.2463
12410.000000	81.660	-164.6666
12500.000000	81.391	-164.1005
12650.000000	80.849	-162.4129
12800.000000	80.277	-159.7205
13150.000000	79.241	-149.9693
13200.000000	79.153	-148.1931
13400.000000	78.977	-140.4813
13600.000000	79.068	-132.8770
13800.000000	79.389	-126.5391
14000.000000	79.880	-122.0834
14300.000000	80.775	-119.5295
14500.000000	81.279	-120.4007
14750.000000	81.519	-123.2903
15000.000000	81.163	-126.6450
15250.000000	80.449	-128.5232
15500.000000	79.729	-129.1632
15750.000000	79.294	-128.9281
16000.000000	79.677	-130.7317
16250.000000	80.428	-145.2567
16500.000000	79.803	177.8440
16750.000000	76.302	119.8958
17000.000000	70.054	41.6282
17250.000000	65.891	-25.2358
17500.000000	67.276	-53.9755
17750.000000	68.451	-65.8585
18000.000000	68.428	-74.2050
18250.000000	67.449	-79.4329
18500.000000	65.933	-80.9223
18750.000000	64.238	-79.4679
19000.000000	62.578	-76.0932
19250.000000	60.981	-71.5444
19500.000000	59.290	-66.1106
19750.000000	57.496	-60.3375
