* Measurement data measured by REW V5.20.4
* Source: Microphone (USB Sound Device        ), MICROPHONE (Master Volume), L, volume: 0.250
* Format: 256k Log Swept Sine, 1 sweep at -12.0 dBFS with no timing reference
* Dated: 20-Sep-2023 17:24:21
* REW Settings:
*  C-weighting compensation: Off
*  Target level: 75.0 dB
* Note: 
* Measurement: Volur M15 L
* Smoothing: 1/24 octave
* Frequency Step: 1/48 octave
* Start Frequency: 20.000 Hz
*
* Freq(Hz)	SPL(dB)	Phase(degrees)
20.000000	84.451	169.3185
20.299999	84.419	168.6156
20.600000	84.383	168.0076
20.900000	84.350	167.5057
21.200001	84.332	167.0766
21.400000	84.331	166.7845
21.799999	84.347	166.0992
22.000000	84.359	165.6758
22.400000	84.371	164.6669
22.700001	84.360	163.8482
23.000000	84.331	163.0810
23.299999	84.296	162.4235
23.600000	84.267	161.8660
24.000000	84.251	161.1837
24.299999	84.254	160.6164
24.700001	84.261	159.7194
25.000000	84.254	158.9817
25.400000	84.226	158.0366
25.799999	84.190	157.2417
26.200001	84.170	156.5504
26.500000	84.169	156.0013
26.900000	84.171	155.1367
27.200001	84.160	154.4067
27.600000	84.117	153.4514
28.000000	84.057	152.6785
28.500000	84.002	151.9721
29.000000	83.994	151.2045
29.500000	83.988	150.1006
30.000000	83.929	148.8710
30.400000	83.848	148.1077
30.700001	83.790	147.7360
31.100000	83.748	147.3891
31.500000	83.748	146.9830
32.000000	83.769	146.1487
32.500000	83.757	145.0826
33.000000	83.708	144.1534
33.500000	83.665	143.4604
34.000000	83.650	142.7571
34.500000	83.627	141.8549
35.000000	83.556	140.9205
35.500000	83.443	140.3042
36.000000	83.339	140.1301
36.500000	83.291	140.1869
37.000000	83.304	140.1170
37.500000	83.350	139.6723
38.200001	83.387	138.3023
38.700001	83.341	136.9950
39.500000	83.131	135.3489
40.000000	82.999	134.9498
40.599998	82.941	134.7324
41.200001	82.977	134.0307
41.799999	82.997	132.6714
42.500000	82.918	130.9312
43.099998	82.799	129.8501
43.700001	82.683	129.2056
44.400002	82.588	128.8856
45.000000	82.564	128.8207
45.500000	82.589	128.6836
46.200001	82.647	128.0739
46.799999	82.662	127.2200
47.500000	82.619	126.1977
48.200001	82.544	125.2921
48.700001	82.476	124.6849
49.400002	82.360	123.9581
50.000000	82.262	123.5682
50.799999	82.192	123.2078
51.500000	82.184	122.6273
52.200001	82.170	121.7220
53.000000	82.121	120.6010
53.799999	82.053	119.5602
54.500000	81.983	118.7565
55.200001	81.920	118.0914
56.000000	81.870	117.2979
57.000000	81.776	116.0677
58.000000	81.629	115.1737
59.000000	81.528	114.5737
60.000000	81.456	113.7917
60.799999	81.395	113.1299
61.500000	81.343	112.5652
62.200001	81.291	112.0101
63.000000	81.233	111.3929
64.000000	81.161	110.6060
65.000000	81.080	109.8145
66.000000	81.003	109.0339
67.000000	80.932	108.1432
68.000000	80.850	107.1763
69.000000	80.767	106.3124
70.000000	80.707	105.5104
71.000000	80.656	104.7069
72.000000	80.605	103.9909
73.000000	80.558	103.3461
74.000000	80.501	102.7177
75.000000	80.433	102.1417
76.199997	80.349	101.4473
77.500000	80.249	100.5734
78.800003	80.146	99.6881
80.000000	80.064	98.8588
81.199997	79.991	98.0591
82.500000	79.924	97.2482
83.800003	79.858	96.4469
85.000000	79.787	95.7242
86.199997	79.710	95.0225
87.500000	79.626	94.2560
88.500000	79.564	93.6520
90.000000	79.481	92.7103
91.199997	79.417	91.9673
92.500000	79.352	91.2092
93.800003	79.286	90.4690
95.000000	79.222	89.8254
96.199997	79.156	89.2045
97.500000	79.086	88.5335
98.800003	79.017	87.8570
100.000000	78.957	87.2089
101.500000	78.880	86.4122
103.000000	78.808	85.6423
104.400002	78.747	84.9445
106.000000	78.675	84.1449
107.500000	78.607	83.4214
109.000000	78.539	82.7298
110.599998	78.464	81.9576
112.000000	78.397	81.3169
113.800003	78.318	80.5215
115.000000	78.275	79.9541
117.199997	78.185	78.8965
118.000000	78.150	78.5229
120.599998	78.037	77.4570
122.000000	77.981	76.8969
124.099998	77.908	76.0384
125.000000	77.874	75.6667
126.500000	77.818	75.0590
128.000000	77.754	74.4459
131.500000	77.609	73.0912
132.000000	77.590	72.9061
134.000000	77.524	72.0868
136.000000	77.454	71.3347
138.000000	77.391	70.5715
140.000000	77.330	69.8964
143.000000	77.234	68.8149
145.000000	77.179	68.1563
147.500000	77.093	67.4293
150.000000	77.017	66.6148
152.500000	76.943	65.8909
155.000000	76.865	64.9693
157.500000	76.805	64.2929
160.000000	76.733	63.4556
162.500000	76.687	62.8639
165.000000	76.612	61.9911
167.500000	76.554	61.5624
170.000000	76.514	60.6573
172.500000	76.433	60.1975
175.000000	76.437	59.4545
177.500000	76.335	58.5462
180.000000	76.289	58.3351
182.500000	76.299	57.3763
185.000000	76.181	56.5786
187.500000	76.143	56.5551
190.000000	76.194	55.7042
192.500000	76.101	54.4452
195.000000	75.966	54.2337
197.500000	75.993	54.3109
200.000000	76.069	53.3598
203.000000	75.968	51.6379
206.000000	75.755	51.1400
209.000000	75.704	51.5775
212.000000	75.815	51.3753
214.000000	75.884	50.6048
218.000000	75.856	48.3882
220.000000	75.763	47.4351
224.000000	75.537	46.3679
227.000000	75.397	46.0959
230.000000	75.299	45.9456
233.000000	75.235	45.6990
236.000000	75.187	45.3057
240.000000	75.140	44.5714
243.000000	75.118	43.8531
247.000000	75.114	42.7854
250.000000	75.131	42.0181
254.000000	75.185	41.2323
258.000000	75.224	40.9213
262.000000	75.172	40.9071
265.000000	75.077	40.7039
269.000000	74.957	39.8548
272.000000	74.931	39.0387
276.000000	74.942	38.3757
280.000000	74.886	38.0923
285.000000	74.790	37.2642
290.000000	74.751	36.6663
295.000000	74.684	36.1079
300.000000	74.644	35.4608
304.000000	74.601	34.9724
307.000000	74.574	34.6225
311.000000	74.544	34.2482
315.000000	74.512	33.8997
320.000000	74.479	33.4585
325.000000	74.455	32.9359
330.000000	74.430	32.3682
335.000000	74.405	31.7860
340.000000	74.383	31.2243
345.000000	74.353	30.6145
350.000000	74.316	30.0132
355.000000	74.279	29.4560
360.000000	74.243	28.9173
365.000000	74.202	28.4338
370.000000	74.159	27.9720
375.000000	74.117	27.5165
382.000000	74.054	26.8967
387.000000	74.012	26.4556
395.000000	73.946	25.7949
400.000000	73.902	25.4158
406.000000	73.853	25.0223
412.000000	73.812	24.6344
418.000000	73.777	24.2286
425.000000	73.733	23.7999
431.000000	73.688	23.4392
437.000000	73.640	23.0669
444.000000	73.591	22.6257
450.000000	73.554	22.3005
455.000000	73.523	22.0625
462.000000	73.479	21.7432
468.000000	73.439	21.4967
475.000000	73.395	21.2136
482.000000	73.358	20.8898
487.000000	73.334	20.6520
494.000000	73.299	20.3632
500.000000	73.266	20.1498
508.000000	73.222	19.8584
515.000000	73.180	19.6422
522.000000	73.143	19.4463
530.000000	73.110	19.1823
538.000000	73.075	18.9397
545.000000	73.041	18.7637
552.000000	73.004	18.6154
560.000000	72.964	18.4681
570.000000	72.922	18.3054
580.000000	72.883	18.1044
590.000000	72.844	17.9366
600.000000	72.800	17.8176
608.000000	72.764	17.7578
615.000000	72.733	17.7084
622.000000	72.705	17.6652
630.000000	72.677	17.6414
640.000000	72.644	17.6324
650.000000	72.611	17.6255
660.000000	72.580	17.6014
670.000000	72.556	17.5897
680.000000	72.536	17.6404
690.000000	72.510	17.6976
700.000000	72.484	17.7932
710.000000	72.463	17.9009
720.000000	72.447	17.9934
730.000000	72.432	18.1299
740.000000	72.420	18.3005
750.000000	72.408	18.4875
762.000000	72.397	18.7164
775.000000	72.395	18.9725
788.000000	72.397	19.2484
800.000000	72.401	19.5079
812.000000	72.411	19.8040
825.000000	72.430	20.1665
838.000000	72.453	20.5234
850.000000	72.476	20.8546
862.000000	72.507	21.1750
875.000000	72.548	21.5220
885.000000	72.579	21.8065
900.000000	72.634	22.2852
912.000000	72.690	22.6498
925.000000	72.755	22.9653
938.000000	72.821	23.2315
950.000000	72.886	23.4926
962.000000	72.956	23.7657
975.000000	73.042	24.0735
988.000000	73.133	24.3699
1000.000000	73.216	24.5819
1015.000000	73.315	24.7830
1030.000000	73.424	24.9879
1044.000000	73.535	25.1259
1060.000000	73.663	25.2379
1075.000000	73.781	25.3068
1090.000000	73.895	25.3292
1106.000000	74.024	25.3179
1120.000000	74.135	25.2905
1138.000000	74.270	25.2065
1150.000000	74.361	25.1246
1172.000000	74.531	24.9307
1180.000000	74.591	24.8524
1206.000000	74.779	24.5044
1220.000000	74.876	24.2600
1241.000000	75.016	23.9120
1250.000000	75.075	23.7787
1265.000000	75.172	23.5619
1280.000000	75.267	23.3300
1315.000000	75.479	22.7186
1320.000000	75.509	22.6313
1340.000000	75.626	22.2783
1360.000000	75.738	21.9164
1380.000000	75.846	21.5648
1400.000000	75.950	21.2152
1430.000000	76.108	20.7176
1450.000000	76.212	20.3878
1475.000000	76.340	19.9718
1500.000000	76.471	19.5781
1525.000000	76.605	19.2030
1550.000000	76.738	18.8313
1575.000000	76.871	18.4387
1600.000000	77.007	18.0518
1625.000000	77.144	17.6423
1650.000000	77.286	17.2080
1675.000000	77.433	16.7538
1700.000000	77.585	16.2765
1725.000000	77.738	15.7712
1750.000000	77.889	15.2181
1775.000000	78.038	14.6095
1800.000000	78.191	13.9418
1825.000000	78.345	13.2415
1850.000000	78.501	12.4880
1875.000000	78.655	11.6349
1900.000000	78.801	10.7232
1925.000000	78.937	9.7855
1950.000000	79.067	8.7698
1975.000000	79.192	7.6520
2000.000000	79.310	6.4753
2030.000000	79.435	5.0277
2060.000000	79.541	3.5052
2090.000000	79.627	1.9155
2120.000000	79.691	0.2920
2140.000000	79.718	-0.8015
2180.000000	79.740	-2.9805
2200.000000	79.738	-4.0486
2240.000000	79.706	-6.1192
2270.000000	79.660	-7.6027
2300.000000	79.594	-9.0089
2330.000000	79.515	-10.3236
2360.000000	79.422	-11.5447
2400.000000	79.280	-13.0235
2430.000000	79.164	-14.0244
2470.000000	78.999	-15.2041
2500.000000	78.869	-15.9784
2540.000000	78.694	-16.8798
2580.000000	78.520	-17.6409
2620.000000	78.344	-18.2698
2650.000000	78.213	-18.6521
2690.000000	78.041	-19.0636
2720.000000	77.916	-19.3177
2760.000000	77.751	-19.5716
2800.000000	77.592	-19.7098
2850.000000	77.400	-19.7630
2900.000000	77.218	-19.7065
2950.000000	77.050	-19.5157
3000.000000	76.900	-19.2181
3040.000000	76.787	-18.9341
3070.000000	76.705	-18.6833
3110.000000	76.602	-18.2892
3150.000000	76.512	-17.8450
3200.000000	76.412	-17.2371
3250.000000	76.326	-16.5385
3300.000000	76.260	-15.7783
3350.000000	76.211	-14.9814
3400.000000	76.187	-14.1363
3450.000000	76.188	-13.2343
3500.000000	76.210	-12.3492
3550.000000	76.252	-11.5402
3600.000000	76.316	-10.8076
3650.000000	76.400	-10.1683
3700.000000	76.493	-9.6039
3750.000000	76.594	-9.1095
3820.000000	76.753	-8.5198
3870.000000	76.879	-8.1867
3950.000000	77.109	-7.8445
4000.000000	77.264	-7.7849
4060.000000	77.458	-7.8973
4120.000000	77.658	-8.1956
4180.000000	77.852	-8.6703
4250.000000	78.074	-9.4452
4310.000000	78.262	-10.2823
4370.000000	78.443	-11.2780
4440.000000	78.647	-12.6982
4500.000000	78.817	-14.1881
4550.000000	78.949	-15.6710
4620.000000	79.093	-18.1720
4680.000000	79.155	-20.7135
4750.000000	79.118	-24.0128
4820.000000	78.933	-27.3478
4870.000000	78.705	-29.4813
4940.000000	78.276	-31.7750
5000.000000	77.848	-32.9078
5080.000000	77.266	-33.2169
5150.000000	76.801	-32.6211
5220.000000	76.404	-31.5023
5300.000000	76.028	-29.8447
5380.000000	75.722	-27.9791
5450.000000	75.501	-26.2418
5520.000000	75.316	-24.4423
5600.000000	75.147	-22.3534
5700.000000	74.992	-19.7406
5800.000000	74.890	-17.2031
5900.000000	74.823	-14.8160
6000.000000	74.783	-12.6218
6080.000000	74.755	-11.0388
6150.000000	74.723	-9.7728
6220.000000	74.675	-8.5999
6300.000000	74.588	-7.2979
6400.000000	74.424	-5.5396
6500.000000	74.204	-3.3869
6600.000000	73.964	-0.6337
6700.000000	73.758	2.7167
6800.000000	73.619	6.4606
6900.000000	73.554	10.4012
7000.000000	73.546	14.2913
7100.000000	73.576	18.1293
7200.000000	73.647	22.0925
7300.000000	73.808	26.0471
7400.000000	74.056	29.5099
7500.000000	74.323	32.3180
7620.000000	74.627	35.0456
7750.000000	74.925	37.3500
7880.000000	75.182	38.9046
8000.000000	75.357	39.5888
8120.000000	75.426	39.5063
8250.000000	75.307	38.7546
8380.000000	74.929	37.8260
8500.000000	74.335	37.5056
8620.000000	73.544	38.4117
8750.000000	72.564	41.2099
8850.000000	71.817	44.5462
9000.000000	70.792	50.6153
9120.000000	70.006	56.2148
9250.000000	69.210	63.1336
9380.000000	68.517	70.6916
9500.000000	67.970	78.0539
9620.000000	67.503	85.6922
9750.000000	67.082	94.1612
9880.000000	66.749	102.6747
10000.000000	66.510	110.4827
10150.000000	66.297	120.1631
10300.000000	66.156	129.7740
10440.000000	66.069	138.6189
10600.000000	66.011	148.6378
10750.000000	65.998	158.0062
10900.000000	66.013	167.3196
11060.000000	66.069	177.2764
11200.000000	66.152	-173.9143
11380.000000	66.312	-162.4558
11500.000000	66.451	-154.7392
11720.000000	66.779	-140.4087
11800.000000	66.928	-135.1672
12060.000000	67.553	-118.1667
12200.000000	67.970	-109.1345
12410.000000	68.687	-95.9717
12500.000000	69.021	-90.5154
12650.000000	69.609	-81.7277
12800.000000	70.229	-73.3627
13150.000000	71.755	-55.8792
13200.000000	71.971	-53.6473
13400.000000	72.809	-45.3912
13600.000000	73.571	-38.1798
13800.000000	74.214	-31.8643
14000.000000	74.707	-26.1093
14300.000000	75.200	-17.5469
14500.000000	75.434	-11.4491
14750.000000	75.709	-3.2705
15000.000000	76.053	5.3962
15250.000000	76.568	14.4219
15500.000000	77.380	23.3730
15750.000000	78.627	31.2371
16000.000000	80.355	36.1769
16250.000000	82.332	35.4272
16500.000000	83.942	26.1969
16750.000000	84.451	9.4968
17000.000000	83.591	-8.0045
17250.000000	81.685	-20.8261
17500.000000	79.216	-28.5154
17750.000000	76.470	-32.1679
18000.000000	73.593	-32.4948
18250.000000	70.704	-30.3319
18500.000000	67.886	-26.5174
18750.000000	65.151	-21.6045
19000.000000	62.485	-15.8876
19250.000000	59.897	-9.7912
19500.000000	57.402	-4.2244
19750.000000	55.088	-0.7221
