* Measurement data measured by REW V5.20.4
* Source: Trace Arithmetic result A * B
* Format: Trace Arithmetic result A * B
* Dated: 16-Feb-2022 19:24:19
* REW Settings:
*  C-weighting compensation: Off
*  Target level: 75.0 dB
* Note: Trace Arithmetic A times B A = LCD-X L VSG B = VSG to Crin
* Measurement: LCD-X L VSG to Crin
* Smoothing: 1/24 octave
* Frequency Step: 1/48 octave
* Start Frequency: 20.000 Hz
*
* Freq(Hz)	SPL(dB)
20.000000	76.502
20.299999	76.708
20.600000	76.922
20.900000	77.141
21.200001	77.364
21.400000	77.513
21.799999	77.810
22.000000	77.958
22.400000	78.245
22.700001	78.452
23.000000	78.648
23.299999	78.832
23.600000	79.005
24.000000	79.221
24.299999	79.374
24.700001	79.570
25.000000	79.710
25.400000	79.887
25.799999	80.047
26.200001	80.184
26.500000	80.271
26.900000	80.364
27.200001	80.418
27.600000	80.475
28.000000	80.517
28.500000	80.554
29.000000	80.576
29.500000	80.581
30.000000	80.571
30.400000	80.559
30.700001	80.551
31.100000	80.547
31.500000	80.554
32.000000	80.578
32.500000	80.616
33.000000	80.659
33.500000	80.698
34.000000	80.728
34.500000	80.745
35.000000	80.751
35.500000	80.749
36.000000	80.744
36.500000	80.741
37.000000	80.745
37.500000	80.760
38.200001	80.802
38.700001	80.847
39.500000	80.939
40.000000	81.004
40.599998	81.083
41.200001	81.160
41.799999	81.229
42.500000	81.297
43.099998	81.343
43.700001	81.379
44.400002	81.408
45.000000	81.423
45.500000	81.428
46.200001	81.420
46.799999	81.400
47.500000	81.365
48.200001	81.324
48.700001	81.294
49.400002	81.257
50.000000	81.229
50.799999	81.195
51.500000	81.165
52.200001	81.134
53.000000	81.102
53.799999	81.081
54.500000	81.077
55.200001	81.090
56.000000	81.128
57.000000	81.205
58.000000	81.304
59.000000	81.409
60.000000	81.509
60.799999	81.578
61.500000	81.627
62.200001	81.666
63.000000	81.696
64.000000	81.718
65.000000	81.724
66.000000	81.721
67.000000	81.713
68.000000	81.701
69.000000	81.687
70.000000	81.672
71.000000	81.656
72.000000	81.638
73.000000	81.620
74.000000	81.601
75.000000	81.583
76.199997	81.564
77.500000	81.548
78.800003	81.535
80.000000	81.527
81.199997	81.521
82.500000	81.517
83.800003	81.513
85.000000	81.510
86.199997	81.508
87.500000	81.506
88.500000	81.505
90.000000	81.507
91.199997	81.509
92.500000	81.511
93.800003	81.511
95.000000	81.509
96.199997	81.507
97.500000	81.506
98.800003	81.505
100.000000	81.507
101.500000	81.508
103.000000	81.508
104.400002	81.506
106.000000	81.502
107.500000	81.501
109.000000	81.500
110.599998	81.499
112.000000	81.497
113.800003	81.490
115.000000	81.485
117.199997	81.472
118.000000	81.467
120.599998	81.447
122.000000	81.433
124.099998	81.409
125.000000	81.398
126.500000	81.380
128.000000	81.363
131.500000	81.336
132.000000	81.333
134.000000	81.324
136.000000	81.317
138.000000	81.313
140.000000	81.309
143.000000	81.305
145.000000	81.302
147.500000	81.299
150.000000	81.298
152.500000	81.298
155.000000	81.300
157.500000	81.302
160.000000	81.301
162.500000	81.299
165.000000	81.301
167.500000	81.314
170.000000	81.342
172.500000	81.388
175.000000	81.450
177.500000	81.525
180.000000	81.610
182.500000	81.700
185.000000	81.791
187.500000	81.881
190.000000	81.967
192.500000	82.047
195.000000	82.114
197.500000	82.167
200.000000	82.203
203.000000	82.230
206.000000	82.246
209.000000	82.261
212.000000	82.284
214.000000	82.305
218.000000	82.356
220.000000	82.380
224.000000	82.405
227.000000	82.396
230.000000	82.359
233.000000	82.301
236.000000	82.233
240.000000	82.147
243.000000	82.097
247.000000	82.056
250.000000	82.046
254.000000	82.051
258.000000	82.070
262.000000	82.095
265.000000	82.112
269.000000	82.131
272.000000	82.140
276.000000	82.146
280.000000	82.148
285.000000	82.152
290.000000	82.159
295.000000	82.167
300.000000	82.174
304.000000	82.174
307.000000	82.169
311.000000	82.153
315.000000	82.126
320.000000	82.079
325.000000	82.018
330.000000	81.953
335.000000	81.902
340.000000	81.891
345.000000	81.949
350.000000	82.089
355.000000	82.295
360.000000	82.521
365.000000	82.716
370.000000	82.842
375.000000	82.887
382.000000	82.829
387.000000	82.720
395.000000	82.469
400.000000	82.293
406.000000	82.100
412.000000	81.962
418.000000	81.896
425.000000	81.924
431.000000	82.067
437.000000	82.346
444.000000	82.810
450.000000	83.210
455.000000	83.451
462.000000	83.554
468.000000	83.422
475.000000	83.111
482.000000	82.779
487.000000	82.594
494.000000	82.433
500.000000	82.374
508.000000	82.370
515.000000	82.414
522.000000	82.485
530.000000	82.576
538.000000	82.650
545.000000	82.685
552.000000	82.690
560.000000	82.670
570.000000	82.635
580.000000	82.615
590.000000	82.625
600.000000	82.666
608.000000	82.712
615.000000	82.757
622.000000	82.804
630.000000	82.868
640.000000	82.975
650.000000	83.117
660.000000	83.268
670.000000	83.403
680.000000	83.556
690.000000	83.811
700.000000	84.163
710.000000	84.452
720.000000	84.493
730.000000	84.253
740.000000	83.874
750.000000	83.573
762.000000	83.464
775.000000	83.569
788.000000	83.726
800.000000	83.835
812.000000	83.900
825.000000	83.941
838.000000	83.976
850.000000	84.008
862.000000	84.024
875.000000	83.980
885.000000	83.881
900.000000	83.630
912.000000	83.378
925.000000	83.098
938.000000	82.831
950.000000	82.611
962.000000	82.428
975.000000	82.281
988.000000	82.182
1000.000000	82.127
1015.000000	82.106
1030.000000	82.140
1044.000000	82.223
1060.000000	82.373
1075.000000	82.546
1090.000000	82.727
1106.000000	82.900
1120.000000	83.014
1138.000000	83.091
1150.000000	83.101
1172.000000	83.058
1180.000000	83.031
1206.000000	82.959
1220.000000	82.963
1241.000000	83.051
1250.000000	83.110
1265.000000	83.213
1280.000000	83.300
1315.000000	83.394
1320.000000	83.395
1340.000000	83.364
1360.000000	83.287
1380.000000	83.181
1400.000000	83.077
1430.000000	82.987
1450.000000	82.985
1475.000000	83.036
1500.000000	83.141
1525.000000	83.341
1550.000000	83.674
1575.000000	84.084
1600.000000	84.426
1625.000000	84.581
1650.000000	84.538
1675.000000	84.402
1700.000000	84.296
1725.000000	84.255
1750.000000	84.216
1775.000000	84.116
1800.000000	83.954
1825.000000	83.806
1850.000000	83.771
1875.000000	83.890
1900.000000	84.115
1925.000000	84.371
1950.000000	84.621
1975.000000	84.865
2000.000000	85.115
2030.000000	85.429
2060.000000	85.746
2090.000000	86.035
2120.000000	86.260
2140.000000	86.361
2180.000000	86.443
2200.000000	86.431
2240.000000	86.343
2270.000000	86.259
2300.000000	86.203
2330.000000	86.202
2360.000000	86.252
2400.000000	86.341
2430.000000	86.386
2470.000000	86.408
2500.000000	86.411
2540.000000	86.399
2580.000000	86.343
2620.000000	86.222
2650.000000	86.091
2690.000000	85.875
2720.000000	85.687
2760.000000	85.401
2800.000000	85.099
2850.000000	84.828
2900.000000	84.857
2950.000000	85.176
3000.000000	85.538
3040.000000	85.696
3070.000000	85.700
3110.000000	85.559
3150.000000	85.292
3200.000000	84.869
3250.000000	84.415
3300.000000	83.941
3350.000000	83.420
3400.000000	82.830
3450.000000	82.169
3500.000000	81.470
3550.000000	80.784
3600.000000	80.176
3650.000000	79.705
3700.000000	79.404
3750.000000	79.260
3820.000000	79.220
3870.000000	79.243
3950.000000	79.340
4000.000000	79.453
4060.000000	79.653
4120.000000	79.918
4180.000000	80.247
4250.000000	80.701
4310.000000	81.130
4370.000000	81.563
4440.000000	82.037
4500.000000	82.389
4550.000000	82.629
4620.000000	82.863
4680.000000	82.957
4750.000000	82.939
4820.000000	82.787
4870.000000	82.606
4940.000000	82.275
5000.000000	81.950
5080.000000	81.526
5150.000000	81.244
5220.000000	81.134
5300.000000	81.315
5380.000000	81.861
5450.000000	82.576
5520.000000	83.398
5600.000000	84.334
5700.000000	85.355
5800.000000	86.128
5900.000000	86.628
6000.000000	86.879
6080.000000	86.936
6150.000000	86.907
6220.000000	86.822
6300.000000	86.679
6400.000000	86.446
6500.000000	86.140
6600.000000	85.720
6700.000000	85.159
6800.000000	84.469
6900.000000	83.699
7000.000000	82.923
7100.000000	82.222
7200.000000	81.683
7300.000000	81.387
7400.000000	81.392
7500.000000	81.704
7620.000000	82.367
7750.000000	83.193
7880.000000	83.890
8000.000000	84.311
8120.000000	84.478
8250.000000	84.343
8380.000000	83.858
8500.000000	83.104
8620.000000	82.084
8750.000000	80.716
8850.000000	79.508
9000.000000	77.564
9120.000000	76.092
9250.000000	74.829
9380.000000	74.000
9500.000000	73.529
9620.000000	73.206
9750.000000	72.927
9880.000000	72.694
10000.000000	72.566
10150.000000	72.665
10300.000000	73.154
10440.000000	73.889
10600.000000	74.828
10750.000000	75.593
10900.000000	76.124
11060.000000	76.397
11200.000000	76.425
11380.000000	76.290
11500.000000	76.184
11720.000000	76.203
11800.000000	76.338
12060.000000	77.326
12200.000000	78.066
12410.000000	79.076
12500.000000	79.389
12650.000000	79.682
12800.000000	79.668
13150.000000	78.610
13200.000000	78.383
13400.000000	77.437
13600.000000	76.593
13800.000000	75.990
14000.000000	75.677
14300.000000	75.686
14500.000000	75.854
14750.000000	76.008
15000.000000	75.992
15250.000000	75.946
15500.000000	76.297
15750.000000	77.371
16000.000000	78.836
16250.000000	80.112
16500.000000	80.924
16750.000000	81.273
17000.000000	81.225
17250.000000	80.796
17500.000000	79.972
17750.000000	78.769
18000.000000	77.261
18250.000000	75.580
18500.000000	73.890
18750.000000	72.346
19000.000000	71.088
19250.000000	70.247
19500.000000	69.860
19750.000000	69.779
