* Measurement data measured by REW V5.20.4
* Source: Trace Arithmetic result A * B
* Format: Trace Arithmetic result A * B
* Dated: 16-Feb-2022 20:22:11
* REW Settings:
*  C-weighting compensation: Off
*  Target level: 75.0 dB
* Note: Trace Arithmetic A times B A = RMS Average 1 B = VSG to Crin
* Measurement: LCD-5 L VSG to Crin
* Smoothing: 1/24 octave
* Frequency Step: 1/48 octave
* Start Frequency: 20.000 Hz
*
* Freq(Hz)	SPL(dB)
20.000000	70.502
20.299999	70.573
20.600000	70.638
20.900000	70.694
21.200001	70.740
21.400000	70.767
21.799999	70.810
22.000000	70.828
22.400000	70.860
22.700001	70.880
23.000000	70.899
23.299999	70.916
23.600000	70.932
24.000000	70.951
24.299999	70.965
24.700001	70.985
25.000000	71.003
25.400000	71.032
25.799999	71.068
26.200001	71.109
26.500000	71.143
26.900000	71.190
27.200001	71.227
27.600000	71.276
28.000000	71.324
28.500000	71.382
29.000000	71.433
29.500000	71.473
30.000000	71.501
30.400000	71.519
30.700001	71.531
31.100000	71.548
31.500000	71.569
32.000000	71.599
32.500000	71.634
33.000000	71.668
33.500000	71.699
34.000000	71.726
34.500000	71.748
35.000000	71.764
35.500000	71.776
36.000000	71.782
36.500000	71.785
37.000000	71.784
37.500000	71.781
38.200001	71.773
38.700001	71.766
39.500000	71.751
40.000000	71.739
40.599998	71.721
41.200001	71.700
41.799999	71.677
42.500000	71.653
43.099998	71.639
43.700001	71.634
44.400002	71.645
45.000000	71.670
45.500000	71.700
46.200001	71.751
46.799999	71.799
47.500000	71.860
48.200001	71.926
48.700001	71.977
49.400002	72.054
50.000000	72.125
50.799999	72.217
51.500000	72.292
52.200001	72.359
53.000000	72.425
53.799999	72.486
54.500000	72.538
55.200001	72.588
56.000000	72.644
57.000000	72.705
58.000000	72.751
59.000000	72.777
60.000000	72.783
60.799999	72.775
61.500000	72.762
62.200001	72.745
63.000000	72.725
64.000000	72.702
65.000000	72.687
66.000000	72.683
67.000000	72.690
68.000000	72.706
69.000000	72.729
70.000000	72.756
71.000000	72.783
72.000000	72.808
73.000000	72.827
74.000000	72.842
75.000000	72.852
76.199997	72.860
77.500000	72.863
78.800003	72.863
80.000000	72.860
81.199997	72.854
82.500000	72.846
83.800003	72.836
85.000000	72.825
86.199997	72.815
87.500000	72.805
88.500000	72.800
90.000000	72.795
91.199997	72.793
92.500000	72.792
93.800003	72.790
95.000000	72.788
96.199997	72.786
97.500000	72.785
98.800003	72.786
100.000000	72.788
101.500000	72.792
103.000000	72.792
104.400002	72.791
106.000000	72.787
107.500000	72.783
109.000000	72.779
110.599998	72.774
112.000000	72.766
113.800003	72.752
115.000000	72.740
117.199997	72.716
118.000000	72.707
120.599998	72.674
122.000000	72.654
124.099998	72.621
125.000000	72.607
126.500000	72.584
128.000000	72.563
131.500000	72.527
132.000000	72.523
134.000000	72.510
136.000000	72.500
138.000000	72.491
140.000000	72.485
143.000000	72.476
145.000000	72.470
147.500000	72.464
150.000000	72.460
152.500000	72.457
155.000000	72.456
157.500000	72.454
160.000000	72.449
162.500000	72.443
165.000000	72.441
167.500000	72.450
170.000000	72.474
172.500000	72.516
175.000000	72.575
177.500000	72.647
180.000000	72.729
182.500000	72.815
185.000000	72.903
187.500000	72.989
190.000000	73.072
192.500000	73.148
195.000000	73.211
197.500000	73.260
200.000000	73.292
203.000000	73.313
206.000000	73.323
209.000000	73.332
212.000000	73.347
214.000000	73.363
218.000000	73.403
220.000000	73.421
224.000000	73.435
227.000000	73.417
230.000000	73.372
233.000000	73.306
236.000000	73.230
240.000000	73.133
243.000000	73.076
247.000000	73.027
250.000000	73.010
254.000000	73.007
258.000000	73.018
262.000000	73.035
265.000000	73.046
269.000000	73.055
272.000000	73.056
276.000000	73.051
280.000000	73.042
285.000000	73.031
290.000000	73.021
295.000000	73.013
300.000000	73.004
304.000000	72.990
307.000000	72.975
311.000000	72.947
315.000000	72.908
320.000000	72.846
325.000000	72.772
330.000000	72.696
335.000000	72.635
340.000000	72.617
345.000000	72.670
350.000000	72.808
355.000000	73.015
360.000000	73.246
365.000000	73.447
370.000000	73.581
375.000000	73.638
382.000000	73.599
387.000000	73.506
395.000000	73.285
400.000000	73.129
406.000000	72.962
412.000000	72.851
418.000000	72.812
425.000000	72.871
431.000000	73.039
437.000000	73.343
444.000000	73.831
450.000000	74.250
455.000000	74.503
462.000000	74.620
468.000000	74.499
475.000000	74.197
482.000000	73.873
487.000000	73.692
494.000000	73.537
500.000000	73.482
508.000000	73.484
515.000000	73.533
522.000000	73.610
530.000000	73.710
538.000000	73.792
545.000000	73.834
552.000000	73.845
560.000000	73.829
570.000000	73.793
580.000000	73.763
590.000000	73.753
600.000000	73.764
608.000000	73.781
615.000000	73.796
622.000000	73.811
630.000000	73.836
640.000000	73.897
650.000000	73.996
660.000000	74.112
670.000000	74.221
680.000000	74.357
690.000000	74.604
700.000000	74.959
710.000000	75.258
720.000000	75.317
730.000000	75.100
740.000000	74.754
750.000000	74.493
762.000000	74.444
775.000000	74.625
788.000000	74.869
800.000000	75.072
812.000000	75.246
825.000000	75.427
838.000000	75.628
850.000000	75.836
862.000000	76.047
875.000000	76.233
885.000000	76.319
900.000000	76.354
912.000000	76.333
925.000000	76.296
938.000000	76.259
950.000000	76.235
962.000000	76.231
975.000000	76.255
988.000000	76.304
1000.000000	76.365
1015.000000	76.463
1030.000000	76.590
1044.000000	76.739
1060.000000	76.942
1075.000000	77.146
1090.000000	77.343
1106.000000	77.518
1120.000000	77.625
1138.000000	77.684
1150.000000	77.677
1172.000000	77.593
1180.000000	77.549
1206.000000	77.404
1220.000000	77.360
1241.000000	77.364
1250.000000	77.384
1265.000000	77.418
1280.000000	77.433
1315.000000	77.354
1320.000000	77.330
1340.000000	77.202
1360.000000	77.031
1380.000000	76.836
1400.000000	76.652
1430.000000	76.461
1450.000000	76.407
1475.000000	76.408
1500.000000	76.475
1525.000000	76.638
1550.000000	76.927
1575.000000	77.280
1600.000000	77.555
1625.000000	77.631
1650.000000	77.498
1675.000000	77.260
1700.000000	77.043
1725.000000	76.884
1750.000000	76.724
1775.000000	76.501
1800.000000	76.218
1825.000000	75.950
1850.000000	75.798
1875.000000	75.804
1900.000000	75.923
1925.000000	76.082
1950.000000	76.246
1975.000000	76.418
2000.000000	76.615
2030.000000	76.894
2060.000000	77.208
2090.000000	77.526
2120.000000	77.808
2140.000000	77.961
2180.000000	78.169
2200.000000	78.229
2240.000000	78.300
2270.000000	78.347
2300.000000	78.434
2330.000000	78.589
2360.000000	78.808
2400.000000	79.141
2430.000000	79.382
2470.000000	79.687
2500.000000	79.914
2540.000000	80.212
2580.000000	80.471
2620.000000	80.669
2650.000000	80.778
2690.000000	80.883
2720.000000	80.935
2760.000000	80.970
2800.000000	80.987
2850.000000	81.107
2900.000000	81.503
2950.000000	82.145
3000.000000	82.792
3040.000000	83.162
3070.000000	83.323
3110.000000	83.397
3150.000000	83.357
3200.000000	83.241
3250.000000	83.120
3300.000000	82.999
3350.000000	82.844
3400.000000	82.623
3450.000000	82.321
3500.000000	81.950
3550.000000	81.542
3600.000000	81.139
3650.000000	80.785
3700.000000	80.505
3750.000000	80.295
3820.000000	80.042
3870.000000	79.845
3950.000000	79.497
4000.000000	79.278
4060.000000	79.022
4120.000000	78.770
4180.000000	78.528
4250.000000	78.273
4310.000000	78.087
4370.000000	77.930
4440.000000	77.768
4500.000000	77.629
4550.000000	77.494
4620.000000	77.243
4680.000000	76.942
4750.000000	76.466
4820.000000	75.845
4870.000000	75.319
4940.000000	74.492
5000.000000	73.738
5080.000000	72.753
5150.000000	72.014
5220.000000	71.495
5300.000000	71.280
5380.000000	71.493
5450.000000	71.939
5520.000000	72.484
5600.000000	73.065
5700.000000	73.569
5800.000000	73.765
5900.000000	73.697
6000.000000	73.512
6080.000000	73.412
6150.000000	73.437
6220.000000	73.592
6300.000000	73.911
6400.000000	74.415
6500.000000	74.864
6600.000000	75.096
6700.000000	75.022
6800.000000	74.628
6900.000000	73.969
7000.000000	73.143
7100.000000	72.284
7200.000000	71.543
7300.000000	71.071
7400.000000	70.971
7500.000000	71.247
7620.000000	71.912
7750.000000	72.719
7880.000000	73.342
8000.000000	73.652
8120.000000	73.699
8250.000000	73.460
8380.000000	72.936
8500.000000	72.225
8620.000000	71.331
8750.000000	70.194
8850.000000	69.227
9000.000000	67.740
9120.000000	66.710
9250.000000	65.974
9380.000000	65.675
9500.000000	65.652
9620.000000	65.707
9750.000000	65.712
9880.000000	65.552
10000.000000	65.203
10150.000000	64.489
10300.000000	63.532
10440.000000	62.525
10600.000000	61.374
10750.000000	60.405
10900.000000	59.607
11060.000000	58.958
11200.000000	58.541
11380.000000	58.189
11500.000000	58.086
11720.000000	58.290
11800.000000	58.525
12060.000000	59.875
12200.000000	60.809
12410.000000	62.114
12500.000000	62.567
12650.000000	63.136
12800.000000	63.486
13150.000000	63.860
13200.000000	63.922
13400.000000	64.334
13600.000000	65.063
13800.000000	66.010
14000.000000	66.968
14300.000000	68.026
14500.000000	68.338
14750.000000	68.288
15000.000000	67.910
15250.000000	67.530
15500.000000	67.649
15750.000000	68.564
16000.000000	69.858
16250.000000	70.879
16500.000000	71.322
16750.000000	71.199
17000.000000	70.624
17250.000000	69.682
17500.000000	68.411
17750.000000	66.851
18000.000000	65.082
18250.000000	63.232
18500.000000	61.462
18750.000000	59.932
19000.000000	58.794
19250.000000	58.179
19500.000000	58.080
19750.000000	58.257
