* Measurement data measured by REW V5.19
* Source: Microphone (USB Sound Device        ), no input selected, L, volume: no control
* Format: 256k Log Swept Sine, 1 sweep at -12.0 dBFS  With no timing reference
* Dated: Aug 22, 2021 1:48:29 PM
* REW Settings:
*  C-weighting compensation: Off
*  Target level: 75.0 dB
* Note: 
* Measurement: Audeze LCD-XC
* Smoothing: 1/24 octave
* Frequency Step: 1/48 octave
* Start Frequency: 20.000 Hz
*
* Freq(Hz)	SPL(dB)	Phase(degrees)
20.000000	90.460	-159.5919
20.299999	90.443	-158.7953
20.600000	90.542	-158.2096
20.900000	90.730	-158.0547
21.200001	90.965	-158.4701
21.400000	91.120	-159.0167
21.799999	91.398	-160.4745
22.000000	91.514	-161.2206
22.400000	91.717	-162.4346
22.700001	91.874	-163.0431
23.000000	92.051	-163.5031
23.299999	92.234	-163.9690
23.600000	92.396	-164.4581
24.000000	92.551	-164.9399
24.299999	92.632	-164.8865
24.700001	92.774	-164.0965
25.000000	92.971	-163.2572
25.400000	93.377	-162.6533
25.799999	93.821	-163.5942
26.200001	94.108	-166.2461
26.500000	94.135	-168.8334
26.900000	93.889	-172.0100
27.200001	93.539	-173.4180
27.600000	92.991	-173.4455
28.000000	92.570	-171.7553
28.500000	92.409	-169.1760
29.000000	92.482	-167.9568
29.500000	92.520	-167.9244
30.000000	92.484	-167.8077
30.400000	92.494	-167.3483
30.700001	92.562	-167.0021
31.100000	92.714	-166.9492
31.500000	92.874	-167.5516
32.000000	92.986	-168.9789
32.500000	92.966	-170.4760
33.000000	92.858	-171.4875
33.500000	92.727	-171.9524
34.000000	92.608	-172.0907
34.500000	92.496	-172.0754
35.000000	92.378	-171.8924
35.500000	92.262	-171.4394
36.000000	92.175	-170.6888
36.500000	92.143	-169.7590
37.000000	92.175	-168.8778
37.500000	92.251	-168.2319
38.200001	92.373	-167.7714
38.700001	92.444	-167.6009
39.500000	92.539	-167.2935
40.000000	92.600	-167.0731
40.599998	92.673	-166.8052
41.200001	92.753	-166.4914
41.799999	92.860	-166.1678
42.500000	93.035	-166.0554
43.099998	93.201	-166.4126
43.700001	93.348	-167.1592
44.400002	93.482	-168.3270
45.000000	93.568	-169.4824
45.500000	93.617	-170.5226
46.200001	93.644	-171.9849
46.799999	93.633	-173.1182
47.500000	93.597	-174.2643
48.200001	93.536	-175.2706
48.700001	93.474	-175.8918
49.400002	93.369	-176.5888
50.000000	93.270	-177.0679
50.799999	93.126	-177.6355
51.500000	92.982	-178.0463
52.200001	92.830	-178.3299
53.000000	92.653	-178.4984
53.799999	92.475	-178.4527
54.500000	92.328	-178.1879
55.200001	92.191	-177.7278
56.000000	92.043	-176.9286
57.000000	91.890	-175.3533
58.000000	91.836	-173.2941
59.000000	91.911	-171.2580
60.000000	92.099	-169.6767
60.799999	92.299	-168.9630
61.500000	92.480	-168.7566
62.200001	92.650	-168.8422
63.000000	92.829	-169.2120
64.000000	93.009	-170.0553
65.000000	93.103	-171.1214
66.000000	93.114	-172.0618
67.000000	93.076	-172.7545
68.000000	93.015	-173.2038
69.000000	92.964	-173.4177
70.000000	92.948	-173.5597
71.000000	92.958	-173.7412
72.000000	92.985	-173.9464
73.000000	93.021	-174.1657
74.000000	93.061	-174.4486
75.000000	93.078	-174.8566
76.199997	93.051	-175.3147
77.500000	92.982	-175.7344
78.800003	92.885	-175.8335
80.000000	92.844	-175.7620
81.199997	92.821	-175.8656
82.500000	92.799	-175.9251
83.800003	92.794	-175.9876
85.000000	92.788	-176.0988
86.199997	92.770	-176.2542
87.500000	92.726	-176.3647
88.500000	92.690	-176.3630
90.000000	92.645	-176.3705
91.199997	92.606	-176.3918
92.500000	92.565	-176.3603
93.800003	92.531	-176.2768
95.000000	92.501	-176.1265
96.199997	92.481	-175.8813
97.500000	92.475	-175.5840
98.800003	92.481	-175.3279
100.000000	92.489	-175.1739
101.500000	92.499	-175.0245
103.000000	92.512	-174.9848
104.400002	92.514	-174.9942
106.000000	92.523	-175.0146
107.500000	92.531	-175.1573
109.000000	92.521	-175.2833
110.599998	92.496	-175.2460
112.000000	92.478	-174.9789
113.800003	92.497	-174.5618
115.000000	92.525	-174.4274
117.199997	92.565	-174.4357
118.000000	92.577	-174.4597
120.599998	92.605	-174.5250
122.000000	92.612	-174.5724
124.099998	92.613	-174.6875
125.000000	92.613	-174.7627
126.500000	92.613	-174.8867
128.000000	92.618	-175.0202
131.500000	92.588	-175.1817
132.000000	92.584	-175.1745
134.000000	92.575	-175.1715
136.000000	92.581	-175.1627
138.000000	92.602	-175.1409
140.000000	92.613	-175.1028
143.000000	92.602	-175.0449
145.000000	92.584	-175.1118
147.500000	92.561	-175.2264
150.000000	92.554	-175.3609
152.500000	92.543	-175.5408
155.000000	92.518	-175.6664
157.500000	92.475	-175.7113
160.000000	92.434	-175.5805
162.500000	92.434	-175.4027
165.000000	92.448	-175.4599
167.500000	92.436	-175.6068
170.000000	92.402	-175.7170
172.500000	92.358	-175.7766
175.000000	92.302	-175.8355
177.500000	92.238	-175.8114
180.000000	92.198	-175.7396
182.500000	92.174	-175.6720
185.000000	92.145	-175.5149
187.500000	92.114	-175.2763
190.000000	92.079	-175.1028
192.500000	92.037	-174.9407
195.000000	91.990	-174.7286
197.500000	91.938	-174.4846
200.000000	91.894	-174.2438
203.000000	91.861	-173.9633
206.000000	91.830	-173.6228
209.000000	91.789	-173.1477
212.000000	91.773	-172.5841
214.000000	91.776	-172.2199
218.000000	91.784	-171.4650
220.000000	91.795	-171.1755
224.000000	91.820	-170.8872
227.000000	91.834	-170.6269
230.000000	91.851	-170.2927
233.000000	91.870	-170.0015
236.000000	91.896	-169.7971
240.000000	91.937	-169.6465
243.000000	91.961	-169.5087
247.000000	91.986	-169.1415
250.000000	92.000	-168.9129
254.000000	92.011	-168.8071
258.000000	92.016	-168.6946
262.000000	92.009	-168.4937
265.000000	91.987	-168.3246
269.000000	91.966	-168.1748
272.000000	91.962	-168.1504
276.000000	91.958	-167.9962
280.000000	91.953	-167.6227
285.000000	91.933	-167.1400
290.000000	91.897	-166.6189
295.000000	91.874	-165.9680
300.000000	91.886	-165.2177
304.000000	91.904	-164.5339
307.000000	91.915	-164.0336
311.000000	91.927	-163.3829
315.000000	91.961	-162.7486
320.000000	92.044	-162.0273
325.000000	92.140	-161.3924
330.000000	92.249	-160.9130
335.000000	92.356	-160.5103
340.000000	92.464	-160.1816
345.000000	92.572	-159.9125
350.000000	92.686	-159.6910
355.000000	92.838	-159.6875
360.000000	92.974	-159.8792
365.000000	93.054	-160.1471
370.000000	93.107	-160.3772
375.000000	93.168	-160.6749
382.000000	93.235	-161.1838
387.000000	93.263	-161.5295
395.000000	93.285	-161.9282
400.000000	93.298	-162.0330
406.000000	93.306	-162.1236
412.000000	93.310	-162.2305
418.000000	93.327	-162.3362
425.000000	93.349	-162.4808
431.000000	93.347	-162.6501
437.000000	93.336	-162.7863
444.000000	93.325	-162.8549
450.000000	93.319	-162.8839
455.000000	93.316	-162.8543
462.000000	93.300	-162.6631
468.000000	93.287	-162.4385
475.000000	93.289	-162.1937
482.000000	93.309	-162.0285
487.000000	93.321	-161.9154
494.000000	93.331	-161.6778
500.000000	93.346	-161.4479
508.000000	93.382	-161.1495
515.000000	93.416	-160.9350
522.000000	93.456	-160.8091
530.000000	93.510	-160.7484
538.000000	93.563	-160.7872
545.000000	93.597	-160.8123
552.000000	93.626	-160.7826
560.000000	93.652	-160.7911
570.000000	93.679	-160.8069
580.000000	93.713	-160.8470
590.000000	93.740	-160.8810
600.000000	93.759	-160.8215
608.000000	93.785	-160.8102
615.000000	93.806	-160.7643
622.000000	93.817	-160.6843
630.000000	93.831	-160.6635
640.000000	93.847	-160.6809
650.000000	93.867	-160.6874
660.000000	93.892	-160.6884
670.000000	93.904	-160.6388
680.000000	93.908	-160.5251
690.000000	93.943	-160.4276
700.000000	93.989	-160.3954
710.000000	94.012	-160.3504
720.000000	94.032	-160.3275
730.000000	94.059	-160.3299
740.000000	94.087	-160.3437
750.000000	94.118	-160.4060
762.000000	94.152	-160.5594
775.000000	94.184	-160.7850
788.000000	94.208	-161.0246
800.000000	94.219	-161.2656
812.000000	94.219	-161.6164
825.000000	94.204	-162.0476
838.000000	94.172	-162.4981
850.000000	94.126	-162.9118
862.000000	94.061	-163.2984
875.000000	93.954	-163.6754
885.000000	93.841	-163.8596
900.000000	93.648	-163.7927
912.000000	93.493	-163.4343
925.000000	93.337	-162.7095
938.000000	93.202	-161.6182
950.000000	93.116	-160.4336
962.000000	93.076	-159.2327
975.000000	93.071	-158.0000
988.000000	93.093	-156.8814
1000.000000	93.134	-155.8925
1015.000000	93.221	-154.6458
1030.000000	93.323	-153.5444
1044.000000	93.428	-152.6715
1060.000000	93.555	-151.8613
1075.000000	93.672	-151.2487
1090.000000	93.800	-150.7119
1106.000000	93.939	-150.3114
1120.000000	94.060	-150.0981
1138.000000	94.210	-149.9500
1150.000000	94.305	-149.9177
1172.000000	94.455	-149.9283
1180.000000	94.505	-149.9359
1206.000000	94.645	-150.0266
1220.000000	94.711	-150.1371
1241.000000	94.795	-150.3146
1250.000000	94.826	-150.3978
1265.000000	94.876	-150.5410
1280.000000	94.924	-150.6523
1315.000000	95.021	-150.8959
1320.000000	95.030	-150.9452
1340.000000	95.060	-151.1699
1360.000000	95.092	-151.3313
1380.000000	95.121	-151.4003
1400.000000	95.140	-151.5171
1430.000000	95.134	-151.7033
1450.000000	95.115	-151.5940
1475.000000	95.093	-151.2634
1500.000000	95.084	-150.9363
1525.000000	95.072	-150.5206
1550.000000	95.060	-149.8699
1575.000000	95.069	-148.8805
1600.000000	95.133	-147.7325
1625.000000	95.266	-146.6417
1650.000000	95.445	-145.7746
1675.000000	95.646	-145.2413
1700.000000	95.849	-144.9820
1725.000000	96.047	-144.8894
1750.000000	96.230	-144.9456
1775.000000	96.406	-145.2201
1800.000000	96.581	-145.6544
1825.000000	96.737	-146.1582
1850.000000	96.865	-146.6900
1875.000000	96.970	-147.1873
1900.000000	97.069	-147.6516
1925.000000	97.166	-148.1633
1950.000000	97.255	-148.7075
1975.000000	97.340	-149.2293
2000.000000	97.423	-149.7614
2030.000000	97.514	-150.4331
2060.000000	97.582	-151.1138
2090.000000	97.640	-151.8005
2120.000000	97.688	-152.5080
2140.000000	97.709	-152.9809
2180.000000	97.722	-153.7969
2200.000000	97.714	-154.0459
2240.000000	97.703	-154.0386
2270.000000	97.757	-153.7007
2300.000000	97.900	-153.3883
2330.000000	98.108	-153.4896
2360.000000	98.327	-154.2086
2400.000000	98.545	-155.9067
2430.000000	98.627	-157.3660
2470.000000	98.655	-159.0760
2500.000000	98.656	-160.1234
2540.000000	98.661	-161.4037
2580.000000	98.654	-162.6051
2620.000000	98.641	-163.6412
2650.000000	98.636	-164.4265
2690.000000	98.619	-165.6150
2720.000000	98.578	-166.5258
2760.000000	98.487	-167.5047
2800.000000	98.385	-168.0464
2850.000000	98.275	-168.2768
2900.000000	98.205	-168.0030
2950.000000	98.243	-167.0916
3000.000000	98.505	-165.9967
3040.000000	98.876	-165.8224
3070.000000	99.206	-166.4149
3110.000000	99.656	-168.2011
3150.000000	100.066	-171.0914
3200.000000	100.454	-176.1875
3250.000000	100.592	177.4506
3300.000000	100.394	170.7117
3350.000000	99.885	164.7401
3400.000000	99.183	160.3410
3450.000000	98.422	157.5032
3500.000000	97.668	155.7435
3550.000000	96.940	154.8031
3600.000000	96.241	154.5292
3650.000000	95.570	154.8055
3700.000000	94.920	155.6878
3750.000000	94.297	157.3098
3820.000000	93.572	161.0335
3870.000000	93.292	164.1919
3950.000000	93.189	167.7816
4000.000000	93.138	168.9310
4060.000000	93.022	169.8392
4120.000000	92.840	170.7872
4180.000000	92.634	171.9267
4250.000000	92.397	173.4635
4310.000000	92.208	175.0421
4370.000000	92.058	176.9210
4440.000000	91.969	179.1800
4500.000000	91.944	-179.2192
4550.000000	91.926	-178.1259
4620.000000	91.880	-176.6182
4680.000000	91.839	-175.1675
4750.000000	91.816	-173.4367
4820.000000	91.818	-171.6705
4870.000000	91.831	-170.4173
4940.000000	91.854	-168.6546
5000.000000	91.888	-166.9770
5080.000000	92.012	-164.3674
5150.000000	92.251	-162.0646
5220.000000	92.584	-160.3123
5300.000000	92.995	-159.1084
5380.000000	93.381	-158.5702
5450.000000	93.686	-158.4903
5520.000000	93.951	-158.4933
5600.000000	94.235	-158.0961
5700.000000	94.760	-156.8176
5800.000000	95.683	-156.1920
5900.000000	96.838	-158.5764
6000.000000	97.843	-165.1259
6080.000000	98.308	-172.7596
6150.000000	98.386	179.8729
6220.000000	98.170	172.8776
6300.000000	97.652	166.1757
6400.000000	96.776	160.0986
6500.000000	95.810	156.1277
6600.000000	94.852	153.7787
6700.000000	93.895	152.9939
6800.000000	93.017	153.9417
6900.000000	92.392	155.9622
7000.000000	91.997	157.6896
7100.000000	91.672	159.0564
7200.000000	91.432	160.5280
7300.000000	91.365	161.6154
7400.000000	91.374	161.5641
7500.000000	91.295	160.6476
7620.000000	91.079	159.7471
7750.000000	91.000	158.8010
7880.000000	90.981	155.3206
8000.000000	90.570	150.5514
8120.000000	89.748	146.7016
8250.000000	88.543	145.4422
8380.000000	87.367	149.4662
8500.000000	87.200	155.5047
8620.000000	87.783	156.5599
8750.000000	87.952	151.2741
8850.000000	87.638	146.8930
9000.000000	87.073	140.1317
9120.000000	86.380	131.8794
9250.000000	84.917	121.8268
9380.000000	82.492	115.1454
9500.000000	79.410	116.5188
9620.000000	75.652	130.9319
9750.000000	71.978	164.3521
9880.000000	72.167	-160.6264
10000.000000	74.137	-141.6428
10150.000000	76.111	-130.3995
10300.000000	77.623	-123.1611
10440.000000	79.050	-116.7437
10600.000000	80.843	-110.1918
10750.000000	82.602	-106.4754
10900.000000	84.290	-105.6183
11060.000000	85.955	-106.9004
11200.000000	87.318	-109.3103
11380.000000	88.906	-114.0586
11500.000000	89.851	-118.2210
11720.000000	91.394	-127.7859
11800.000000	91.881	-131.9075
12060.000000	93.017	-147.9334
12200.000000	93.260	-157.6181
12410.000000	93.202	-171.7989
12500.000000	93.073	-177.6092
12650.000000	92.768	172.8185
12800.000000	92.356	163.0669
13150.000000	90.886	135.6528
13200.000000	90.557	130.7643
13400.000000	88.626	109.1451
13600.000000	85.380	85.8848
13800.000000	80.638	46.5080
14000.000000	74.747	-76.8154
14300.000000	73.115	15.3884
14500.000000	77.767	-49.8801
14750.000000	81.893	-77.4869
15000.000000	84.979	-91.6756
15250.000000	87.296	-105.3016
15500.000000	88.787	-119.3369
15750.000000	89.821	-131.6587
16000.000000	90.705	-143.1914
16250.000000	91.371	-155.5356
16500.000000	91.738	-168.1890
16750.000000	91.913	178.7515
17000.000000	91.704	164.3364
17250.000000	90.821	150.7651
17500.000000	89.298	142.2581
17750.000000	87.688	141.6328
18000.000000	87.221	145.2767
18250.000000	87.947	144.3549
18500.000000	88.637	136.6974
18750.000000	88.904	125.3088
19000.000000	88.655	111.6420
19250.000000	87.704	98.0012
19500.000000	86.134	86.8850
19750.000000	83.942	81.2622
