* Measurement data measured by REW V5.20.4
* Source: Trace Arithmetic result Merge B to A
* Format: Trace Arithmetic result Merge B to A
* Dated: 14-Nov-2023 13:57:07
* REW Settings:
*  C-weighting compensation: Off
*  Target level: 75.0 dB
* Note: 
* Measurement: FT3 32 L suede
* Smoothing: 1/24 octave
* Frequency Step: 1/48 octave
* Start Frequency: 20.000 Hz
*
* Freq(Hz)	SPL(dB)
20.000000	61.233
20.299999	61.380
20.600000	61.515
20.900000	61.641
21.200001	61.761
21.400000	61.841
21.799999	62.006
22.000000	62.091
22.400000	62.266
22.700001	62.397
23.000000	62.524
23.299999	62.643
23.600000	62.753
24.000000	62.887
24.299999	62.983
24.700001	63.115
25.000000	63.220
25.400000	63.373
25.799999	63.537
26.200001	63.706
26.500000	63.829
26.900000	63.986
27.200001	64.097
27.600000	64.235
28.000000	64.366
28.500000	64.524
29.000000	64.676
29.500000	64.822
30.000000	64.957
30.400000	65.054
30.700001	65.121
31.100000	65.203
31.500000	65.280
32.000000	65.374
32.500000	65.475
33.000000	65.587
33.500000	65.713
34.000000	65.851
34.500000	65.994
35.000000	66.137
35.500000	66.275
36.000000	66.402
36.500000	66.518
37.000000	66.623
37.500000	66.717
38.200001	66.832
38.700001	66.903
39.500000	67.001
40.000000	67.053
40.599998	67.108
41.200001	67.155
41.799999	67.198
42.500000	67.241
43.099998	67.273
43.700001	67.299
44.400002	67.321
45.000000	67.333
45.500000	67.338
46.200001	67.341
46.799999	67.342
47.500000	67.342
48.200001	67.343
48.700001	67.345
49.400002	67.353
50.000000	67.368
50.799999	67.404
51.500000	67.452
52.200001	67.516
53.000000	67.606
53.799999	67.708
54.500000	67.802
55.200001	67.896
56.000000	67.999
57.000000	68.117
58.000000	68.220
59.000000	68.313
60.000000	68.397
60.799999	68.461
61.500000	68.516
62.200001	68.572
63.000000	68.635
64.000000	68.713
65.000000	68.791
66.000000	68.868
67.000000	68.943
68.000000	69.017
69.000000	69.089
70.000000	69.160
71.000000	69.230
72.000000	69.298
73.000000	69.365
74.000000	69.428
75.000000	69.489
76.199997	69.558
77.500000	69.627
78.800003	69.690
80.000000	69.743
81.199997	69.791
82.500000	69.838
83.800003	69.879
85.000000	69.913
86.199997	69.944
87.500000	69.973
88.500000	69.994
90.000000	70.022
91.199997	70.042
92.500000	70.062
93.800003	70.082
95.000000	70.100
96.199997	70.119
97.500000	70.140
98.800003	70.162
100.000000	70.183
101.500000	70.209
103.000000	70.236
104.400002	70.261
106.000000	70.288
107.500000	70.311
109.000000	70.332
110.599998	70.350
112.000000	70.363
113.800003	70.376
115.000000	70.382
117.199997	70.389
118.000000	70.390
120.599998	70.391
122.000000	70.390
124.099998	70.385
125.000000	70.382
126.500000	70.376
128.000000	70.369
131.500000	70.348
132.000000	70.345
134.000000	70.331
136.000000	70.316
138.000000	70.300
140.000000	70.285
143.000000	70.262
145.000000	70.246
147.500000	70.226
150.000000	70.206
152.500000	70.186
155.000000	70.164
157.500000	70.142
160.000000	70.120
162.500000	70.095
165.000000	70.069
167.500000	70.041
170.000000	70.011
172.500000	69.979
175.000000	69.947
177.500000	69.913
180.000000	69.878
182.500000	69.842
185.000000	69.805
187.500000	69.767
190.000000	69.726
192.500000	69.684
195.000000	69.641
197.500000	69.597
200.000000	69.552
203.000000	69.499
206.000000	69.448
209.000000	69.398
212.000000	69.352
214.000000	69.323
218.000000	69.267
220.000000	69.241
224.000000	69.189
227.000000	69.151
230.000000	69.114
233.000000	69.079
236.000000	69.045
240.000000	69.003
243.000000	68.974
247.000000	68.937
250.000000	68.912
254.000000	68.878
258.000000	68.845
262.000000	68.813
265.000000	68.790
269.000000	68.760
272.000000	68.739
276.000000	68.712
280.000000	68.686
285.000000	68.653
290.000000	68.620
295.000000	68.586
300.000000	68.551
304.000000	68.523
307.000000	68.502
311.000000	68.474
315.000000	68.446
320.000000	68.410
325.000000	68.374
330.000000	68.339
335.000000	68.303
340.000000	68.267
345.000000	68.231
350.000000	68.194
355.000000	68.156
360.000000	68.117
365.000000	68.077
370.000000	68.035
375.000000	67.993
382.000000	67.932
387.000000	67.889
395.000000	67.819
400.000000	67.775
406.000000	67.721
412.000000	67.666
418.000000	67.610
425.000000	67.544
431.000000	67.487
437.000000	67.429
444.000000	67.363
450.000000	67.305
455.000000	67.258
462.000000	67.191
468.000000	67.135
475.000000	67.070
482.000000	67.005
487.000000	66.958
494.000000	66.894
500.000000	66.840
508.000000	66.770
515.000000	66.711
522.000000	66.655
530.000000	66.594
538.000000	66.538
545.000000	66.492
552.000000	66.449
560.000000	66.404
570.000000	66.351
580.000000	66.300
590.000000	66.247
600.000000	66.188
608.000000	66.135
615.000000	66.083
622.000000	66.027
630.000000	65.960
640.000000	65.874
650.000000	65.794
660.000000	65.727
670.000000	65.682
680.000000	65.662
690.000000	65.667
700.000000	65.695
710.000000	65.741
720.000000	65.800
730.000000	65.868
740.000000	65.940
750.000000	66.015
762.000000	66.106
775.000000	66.202
788.000000	66.296
800.000000	66.381
812.000000	66.467
825.000000	66.563
838.000000	66.662
850.000000	66.758
862.000000	66.854
875.000000	66.958
885.000000	67.034
900.000000	67.138
912.000000	67.211
925.000000	67.278
938.000000	67.335
950.000000	67.382
962.000000	67.428
975.000000	67.481
988.000000	67.539
1000.000000	67.599
1015.000000	67.681
1030.000000	67.769
1044.000000	67.854
1060.000000	67.951
1075.000000	68.041
1090.000000	68.130
1106.000000	68.224
1120.000000	68.307
1138.000000	68.415
1150.000000	68.488
1172.000000	68.625
1180.000000	68.675
1206.000000	68.840
1220.000000	68.929
1241.000000	69.066
1250.000000	69.125
1265.000000	69.225
1280.000000	69.325
1315.000000	69.557
1320.000000	69.590
1340.000000	69.717
1360.000000	69.841
1380.000000	69.959
1400.000000	70.070
1430.000000	70.225
1450.000000	70.318
1475.000000	70.423
1500.000000	70.516
1525.000000	70.598
1550.000000	70.670
1575.000000	70.733
1600.000000	70.787
1625.000000	70.833
1650.000000	70.869
1675.000000	70.899
1700.000000	70.926
1725.000000	70.956
1750.000000	70.995
1775.000000	71.049
1800.000000	71.121
1825.000000	71.211
1850.000000	71.319
1875.000000	71.443
1900.000000	71.578
1925.000000	71.725
1950.000000	71.882
1975.000000	72.050
2000.000000	72.226
2030.000000	72.445
2060.000000	72.665
2090.000000	72.878
2120.000000	73.075
2140.000000	73.195
2180.000000	73.406
2200.000000	73.497
2240.000000	73.658
2270.000000	73.753
2300.000000	73.793
2330.000000	73.766
2360.000000	73.722
2400.000000	73.677
2430.000000	73.643
2470.000000	73.601
2500.000000	73.590
2540.000000	73.602
2580.000000	73.607
2620.000000	73.570
2650.000000	73.508
2690.000000	73.383
2720.000000	73.259
2760.000000	73.060
2800.000000	72.852
2850.000000	72.725
2900.000000	72.934
2950.000000	73.454
3000.000000	74.020
3040.000000	74.335
3070.000000	74.449
3110.000000	74.440
3150.000000	74.284
3200.000000	73.957
3250.000000	73.545
3300.000000	73.052
3350.000000	72.450
3400.000000	71.718
3450.000000	70.855
3500.000000	69.890
3550.000000	68.877
3600.000000	67.891
3650.000000	67.025
3700.000000	66.376
3750.000000	66.022
3820.000000	66.052
3870.000000	66.389
3950.000000	67.252
4000.000000	67.861
4060.000000	68.555
4120.000000	69.157
4180.000000	69.660
4250.000000	70.151
4310.000000	70.513
4370.000000	70.835
4440.000000	71.166
4500.000000	71.412
4550.000000	71.586
4620.000000	71.771
4680.000000	71.868
4750.000000	71.906
4820.000000	71.868
4870.000000	71.805
4940.000000	71.688
5000.000000	71.586
5080.000000	71.490
5150.000000	71.487
5220.000000	71.604
5300.000000	71.926
5380.000000	72.443
5450.000000	72.979
5520.000000	73.487
5600.000000	73.922
5700.000000	74.149
5800.000000	74.008
5900.000000	73.546
6000.000000	72.854
6080.000000	72.219
6150.000000	71.659
6220.000000	71.145
6300.000000	70.668
6400.000000	70.306
6500.000000	70.212
6600.000000	70.305
6700.000000	70.464
6800.000000	70.590
6900.000000	70.639
7000.000000	70.610
7100.000000	70.537
7200.000000	70.476
7300.000000	70.490
7400.000000	70.630
7500.000000	70.906
7620.000000	71.341
7750.000000	71.759
7880.000000	71.957
8000.000000	71.887
8120.000000	71.574
8250.000000	70.973
8380.000000	70.114
8500.000000	69.132
8620.000000	68.022
8750.000000	66.729
8850.000000	65.702
9000.000000	64.215
9120.000000	63.255
9250.000000	62.659
9380.000000	62.558
9500.000000	62.770
9620.000000	63.116
9750.000000	63.509
9880.000000	63.829
10000.000000	64.021
10150.000000	64.136
10300.000000	64.174
10440.000000	64.174
10600.000000	64.080
10750.000000	63.776
10900.000000	63.141
11060.000000	62.035
11200.000000	60.728
11380.000000	58.722
11500.000000	57.308
11720.000000	54.966
11800.000000	54.312
12060.000000	53.286
12200.000000	53.344
12410.000000	53.754
12500.000000	53.927
12650.000000	54.119
12800.000000	54.168
13150.000000	53.970
13200.000000	53.944
13400.000000	53.919
13600.000000	54.051
13800.000000	54.312
14000.000000	54.672
14300.000000	55.408
14500.000000	55.996
14750.000000	56.660
15000.000000	57.085
15250.000000	57.331
15500.000000	57.756
15750.000000	58.664
16000.000000	59.790
16250.000000	60.620
16500.000000	60.887
16750.000000	60.576
17000.000000	59.750
17250.000000	58.442
17500.000000	56.669
17750.000000	54.490
18000.000000	52.057
18250.000000	49.632
18500.000000	47.568
18750.000000	46.174
19000.000000	45.571
19250.000000	45.676
19500.000000	46.229
19750.000000	46.848
