* Measurement data measured by REW V5.20.4
* Source: Trace Arithmetic result A * B
* Format: Trace Arithmetic result A * B
* Dated: 14-Nov-2023 13:20:39
* REW Settings:
*  C-weighting compensation: Off
*  Target level: 75.0 dB
* Note: 
* Measurement: FT5 R leather
* Smoothing: 1/24 octave
* Frequency Step: 1/48 octave
* Start Frequency: 20.000 Hz
*
* Freq(Hz)	SPL(dB)
20.000000	58.924
20.299999	59.083
20.600000	59.244
20.900000	59.409
21.200001	59.581
21.400000	59.702
21.799999	59.957
22.000000	60.088
22.400000	60.349
22.700001	60.534
23.000000	60.703
23.299999	60.858
23.600000	61.003
24.000000	61.195
24.299999	61.350
24.700001	61.581
25.000000	61.773
25.400000	62.042
25.799999	62.306
26.200001	62.545
26.500000	62.699
26.900000	62.868
27.200001	62.972
27.600000	63.086
28.000000	63.182
28.500000	63.287
29.000000	63.381
29.500000	63.468
30.000000	63.565
30.400000	63.660
30.700001	63.743
31.100000	63.868
31.500000	63.998
32.000000	64.146
32.500000	64.263
33.000000	64.351
33.500000	64.428
34.000000	64.509
34.500000	64.603
35.000000	64.705
35.500000	64.800
36.000000	64.873
36.500000	64.918
37.000000	64.939
37.500000	64.950
38.200001	64.983
38.700001	65.031
39.500000	65.135
40.000000	65.199
40.599998	65.263
41.200001	65.317
41.799999	65.369
42.500000	65.427
43.099998	65.468
43.700001	65.491
44.400002	65.497
45.000000	65.486
45.500000	65.472
46.200001	65.457
46.799999	65.461
47.500000	65.496
48.200001	65.559
48.700001	65.613
49.400002	65.692
50.000000	65.759
50.799999	65.849
51.500000	65.925
52.200001	65.995
53.000000	66.067
53.799999	66.133
54.500000	66.185
55.200001	66.231
56.000000	66.279
57.000000	66.330
58.000000	66.373
59.000000	66.409
60.000000	66.441
60.799999	66.470
61.500000	66.498
62.200001	66.526
63.000000	66.553
64.000000	66.575
65.000000	66.589
66.000000	66.601
67.000000	66.611
68.000000	66.613
69.000000	66.603
70.000000	66.584
71.000000	66.564
72.000000	66.549
73.000000	66.541
74.000000	66.540
75.000000	66.544
76.199997	66.555
77.500000	66.563
78.800003	66.558
80.000000	66.543
81.199997	66.521
82.500000	66.490
83.800003	66.454
85.000000	66.420
86.199997	66.393
87.500000	66.375
88.500000	66.370
90.000000	66.370
91.199997	66.366
92.500000	66.354
93.800003	66.333
95.000000	66.307
96.199997	66.277
97.500000	66.245
98.800003	66.215
100.000000	66.189
101.500000	66.156
103.000000	66.122
104.400002	66.091
106.000000	66.056
107.500000	66.024
109.000000	65.993
110.599998	65.963
112.000000	65.944
113.800003	65.931
115.000000	65.928
117.199997	65.930
118.000000	65.931
120.599998	65.932
122.000000	65.927
124.099998	65.911
125.000000	65.901
126.500000	65.883
128.000000	65.865
131.500000	65.838
132.000000	65.837
134.000000	65.837
136.000000	65.836
138.000000	65.829
140.000000	65.817
143.000000	65.802
145.000000	65.800
147.500000	65.806
150.000000	65.812
152.500000	65.810
155.000000	65.804
157.500000	65.802
160.000000	65.804
162.500000	65.806
165.000000	65.812
167.500000	65.822
170.000000	65.836
172.500000	65.854
175.000000	65.878
177.500000	65.901
180.000000	65.919
182.500000	65.929
185.000000	65.936
187.500000	65.942
190.000000	65.947
192.500000	65.949
195.000000	65.950
197.500000	65.951
200.000000	65.953
203.000000	65.959
206.000000	65.966
209.000000	65.973
212.000000	65.981
214.000000	65.986
218.000000	65.991
220.000000	65.991
224.000000	65.988
227.000000	65.987
230.000000	65.993
233.000000	66.005
236.000000	66.023
240.000000	66.049
243.000000	66.069
247.000000	66.092
250.000000	66.106
254.000000	66.120
258.000000	66.137
262.000000	66.161
265.000000	66.185
269.000000	66.226
272.000000	66.263
276.000000	66.316
280.000000	66.364
285.000000	66.412
290.000000	66.457
295.000000	66.500
300.000000	66.536
304.000000	66.560
307.000000	66.579
311.000000	66.610
315.000000	66.643
320.000000	66.678
325.000000	66.705
330.000000	66.731
335.000000	66.763
340.000000	66.796
345.000000	66.825
350.000000	66.845
355.000000	66.862
360.000000	66.879
365.000000	66.898
370.000000	66.914
375.000000	66.923
382.000000	66.921
387.000000	66.912
395.000000	66.888
400.000000	66.863
406.000000	66.811
412.000000	66.731
418.000000	66.627
425.000000	66.492
431.000000	66.370
437.000000	66.232
444.000000	66.038
450.000000	65.846
455.000000	65.678
462.000000	65.442
468.000000	65.241
475.000000	65.004
482.000000	64.760
487.000000	64.580
494.000000	64.313
500.000000	64.064
508.000000	63.698
515.000000	63.344
522.000000	62.967
530.000000	62.533
538.000000	62.147
545.000000	61.892
552.000000	61.750
560.000000	61.743
570.000000	61.939
580.000000	62.270
590.000000	62.632
600.000000	62.962
608.000000	63.185
615.000000	63.348
622.000000	63.485
630.000000	63.612
640.000000	63.728
650.000000	63.804
660.000000	63.850
670.000000	63.880
680.000000	63.895
690.000000	63.889
700.000000	63.861
710.000000	63.810
720.000000	63.737
730.000000	63.639
740.000000	63.516
750.000000	63.376
762.000000	63.204
775.000000	63.036
788.000000	62.903
800.000000	62.818
812.000000	62.770
825.000000	62.742
838.000000	62.720
850.000000	62.687
862.000000	62.623
875.000000	62.502
885.000000	62.375
900.000000	62.148
912.000000	61.934
925.000000	61.657
938.000000	61.348
950.000000	61.081
962.000000	60.880
975.000000	60.759
988.000000	60.719
1000.000000	60.706
1015.000000	60.642
1030.000000	60.462
1044.000000	60.187
1060.000000	59.836
1075.000000	59.593
1090.000000	59.520
1106.000000	59.649
1120.000000	59.895
1138.000000	60.277
1150.000000	60.507
1172.000000	60.791
1180.000000	60.845
1206.000000	60.909
1220.000000	60.936
1241.000000	61.035
1250.000000	61.094
1265.000000	61.194
1280.000000	61.276
1315.000000	61.378
1320.000000	61.386
1340.000000	61.409
1360.000000	61.420
1380.000000	61.422
1400.000000	61.404
1430.000000	61.263
1450.000000	61.046
1475.000000	60.722
1500.000000	60.588
1525.000000	60.763
1550.000000	61.067
1575.000000	61.271
1600.000000	61.302
1625.000000	61.254
1650.000000	61.298
1675.000000	61.532
1700.000000	61.919
1725.000000	62.358
1750.000000	62.763
1775.000000	63.098
1800.000000	63.354
1825.000000	63.521
1850.000000	63.580
1875.000000	63.528
1900.000000	63.387
1925.000000	63.202
1950.000000	63.047
1975.000000	62.996
2000.000000	63.090
2030.000000	63.400
2060.000000	63.887
2090.000000	64.447
2120.000000	64.949
2140.000000	65.217
2180.000000	65.639
2200.000000	65.848
2240.000000	66.392
2270.000000	66.925
2300.000000	67.455
2330.000000	67.870
2360.000000	68.148
2400.000000	68.327
2430.000000	68.342
2470.000000	68.291
2500.000000	68.259
2540.000000	68.258
2580.000000	68.282
2620.000000	68.274
2650.000000	68.209
2690.000000	68.005
2720.000000	67.752
2760.000000	67.301
2800.000000	66.811
2850.000000	66.429
2900.000000	66.616
2950.000000	67.348
3000.000000	68.305
3040.000000	69.057
3070.000000	69.573
3110.000000	70.179
3150.000000	70.675
3200.000000	71.120
3250.000000	71.343
3300.000000	71.324
3350.000000	71.059
3400.000000	70.588
3450.000000	69.989
3500.000000	69.339
3550.000000	68.695
3600.000000	68.115
3650.000000	67.689
3700.000000	67.492
3750.000000	67.496
3820.000000	67.595
3870.000000	67.588
3950.000000	67.432
4000.000000	67.314
4060.000000	67.204
4120.000000	67.137
4180.000000	67.106
4250.000000	67.075
4310.000000	67.040
4370.000000	67.024
4440.000000	67.032
4500.000000	66.994
4550.000000	66.891
4620.000000	66.669
4680.000000	66.475
4750.000000	66.256
4820.000000	65.977
4870.000000	65.732
4940.000000	65.367
5000.000000	65.053
5080.000000	64.612
5150.000000	64.229
5220.000000	63.953
5300.000000	63.937
5380.000000	64.351
5450.000000	65.015
5520.000000	65.814
5600.000000	66.728
5700.000000	67.744
5800.000000	68.540
5900.000000	69.061
6000.000000	69.339
6080.000000	69.437
6150.000000	69.429
6220.000000	69.295
6300.000000	68.922
6400.000000	68.033
6500.000000	66.642
6600.000000	65.032
6700.000000	64.105
6800.000000	64.451
6900.000000	65.174
7000.000000	65.438
7100.000000	65.322
7200.000000	65.473
7300.000000	66.213
7400.000000	67.175
7500.000000	67.976
7620.000000	68.532
7750.000000	68.685
7880.000000	68.588
8000.000000	68.477
8120.000000	68.400
8250.000000	68.234
8380.000000	67.867
8500.000000	67.367
8620.000000	66.784
8750.000000	66.084
8850.000000	65.475
9000.000000	64.503
9120.000000	63.875
9250.000000	63.571
9380.000000	63.662
9500.000000	63.933
9620.000000	64.203
9750.000000	64.330
9880.000000	64.138
10000.000000	63.578
10150.000000	62.295
10300.000000	60.416
10440.000000	58.338
10600.000000	56.116
10750.000000	54.904
10900.000000	54.844
11060.000000	55.512
11200.000000	56.223
11380.000000	57.177
11500.000000	57.999
11720.000000	60.245
11800.000000	61.252
12060.000000	64.414
12200.000000	65.617
12410.000000	66.324
12500.000000	66.178
12650.000000	65.352
12800.000000	63.895
13150.000000	59.494
13200.000000	58.964
13400.000000	57.608
13600.000000	57.376
13800.000000	57.725
14000.000000	58.270
14300.000000	59.122
14500.000000	59.485
14750.000000	59.349
15000.000000	58.264
15250.000000	56.135
15500.000000	53.120
15750.000000	49.677
16000.000000	46.930
16250.000000	46.519
16500.000000	47.791
16750.000000	49.278
17000.000000	50.975
17250.000000	52.971
17500.000000	54.701
17750.000000	55.705
18000.000000	55.960
18250.000000	55.704
18500.000000	55.197
18750.000000	54.581
19000.000000	53.922
19250.000000	53.276
19500.000000	52.671
19750.000000	52.135
