* Measurement data measured by REW V5.20.4
* Source: Trace Arithmetic result Merge B to A
* Format: Trace Arithmetic result Merge B to A
* Dated: 29-Aug-2023 17:06:41
* REW Settings:
*  C-weighting compensation: Off
*  Target level: 75.0 dB
* Note: 
* Measurement: T50 RP 50th Anniversary R
* Smoothing: 1/24 octave
* Frequency Step: 1/48 octave
* Start Frequency: 20.000 Hz
*
* Freq(Hz)	SPL(dB)
20.000000	58.601
20.299999	58.719
20.600000	58.826
20.900000	58.927
21.200001	59.021
21.400000	59.084
21.799999	59.210
22.000000	59.276
22.400000	59.422
22.700001	59.544
23.000000	59.679
23.299999	59.825
23.600000	59.978
24.000000	60.191
24.299999	60.351
24.700001	60.561
25.000000	60.711
25.400000	60.898
25.799999	61.070
26.200001	61.226
26.500000	61.334
26.900000	61.469
27.200001	61.564
27.600000	61.685
28.000000	61.801
28.500000	61.942
29.000000	62.079
29.500000	62.214
30.000000	62.346
30.400000	62.450
30.700001	62.527
31.100000	62.630
31.500000	62.732
32.000000	62.859
32.500000	62.988
33.000000	63.117
33.500000	63.247
34.000000	63.377
34.500000	63.506
35.000000	63.634
35.500000	63.761
36.000000	63.886
36.500000	64.011
37.000000	64.135
37.500000	64.259
38.200001	64.430
38.700001	64.549
39.500000	64.736
40.000000	64.852
40.599998	64.991
41.200001	65.128
41.799999	65.264
42.500000	65.417
43.099998	65.544
43.700001	65.669
44.400002	65.814
45.000000	65.939
45.500000	66.045
46.200001	66.193
46.799999	66.319
47.500000	66.464
48.200001	66.604
48.700001	66.702
49.400002	66.835
50.000000	66.946
50.799999	67.090
51.500000	67.211
52.200001	67.330
53.000000	67.462
53.799999	67.592
54.500000	67.703
55.200001	67.812
56.000000	67.933
57.000000	68.079
58.000000	68.218
59.000000	68.350
60.000000	68.474
60.799999	68.568
61.500000	68.647
62.200001	68.723
63.000000	68.807
64.000000	68.909
65.000000	69.006
66.000000	69.098
67.000000	69.186
68.000000	69.269
69.000000	69.346
70.000000	69.419
71.000000	69.487
72.000000	69.553
73.000000	69.614
74.000000	69.671
75.000000	69.722
76.199997	69.774
77.500000	69.821
78.800003	69.858
80.000000	69.885
81.199997	69.906
82.500000	69.922
83.800003	69.932
85.000000	69.936
86.199997	69.936
87.500000	69.932
88.500000	69.926
90.000000	69.916
91.199997	69.907
92.500000	69.895
93.800003	69.881
95.000000	69.866
96.199997	69.847
97.500000	69.824
98.800003	69.797
100.000000	69.769
101.500000	69.730
103.000000	69.688
104.400002	69.645
106.000000	69.592
107.500000	69.539
109.000000	69.484
110.599998	69.423
112.000000	69.370
113.800003	69.302
115.000000	69.257
117.199997	69.174
118.000000	69.143
120.599998	69.043
122.000000	68.988
124.099998	68.905
125.000000	68.868
126.500000	68.807
128.000000	68.746
131.500000	68.604
132.000000	68.584
134.000000	68.505
136.000000	68.427
138.000000	68.347
140.000000	68.266
143.000000	68.141
145.000000	68.059
147.500000	67.959
150.000000	67.865
152.500000	67.780
155.000000	67.704
157.500000	67.637
160.000000	67.581
162.500000	67.534
165.000000	67.498
167.500000	67.476
170.000000	67.468
172.500000	67.478
175.000000	67.503
177.500000	67.543
180.000000	67.595
182.500000	67.655
185.000000	67.722
187.500000	67.790
190.000000	67.857
192.500000	67.919
195.000000	67.973
197.500000	68.016
200.000000	68.046
203.000000	68.064
206.000000	68.062
209.000000	68.039
212.000000	67.998
214.000000	67.961
218.000000	67.869
220.000000	67.817
224.000000	67.702
227.000000	67.611
230.000000	67.519
233.000000	67.428
236.000000	67.338
240.000000	67.221
243.000000	67.138
247.000000	67.033
250.000000	66.959
254.000000	66.867
258.000000	66.782
262.000000	66.705
265.000000	66.649
269.000000	66.578
272.000000	66.524
276.000000	66.450
280.000000	66.375
285.000000	66.278
290.000000	66.179
295.000000	66.079
300.000000	65.976
304.000000	65.891
307.000000	65.825
311.000000	65.731
315.000000	65.631
320.000000	65.494
325.000000	65.346
330.000000	65.187
335.000000	65.024
340.000000	64.862
345.000000	64.711
350.000000	64.579
355.000000	64.472
360.000000	64.392
365.000000	64.341
370.000000	64.313
375.000000	64.305
382.000000	64.318
387.000000	64.339
395.000000	64.384
400.000000	64.415
406.000000	64.453
412.000000	64.491
418.000000	64.531
425.000000	64.582
431.000000	64.631
437.000000	64.688
444.000000	64.763
450.000000	64.836
455.000000	64.902
462.000000	65.002
468.000000	65.093
475.000000	65.204
482.000000	65.318
487.000000	65.400
494.000000	65.515
500.000000	65.615
508.000000	65.748
515.000000	65.868
522.000000	65.992
530.000000	66.139
538.000000	66.293
545.000000	66.436
552.000000	66.585
560.000000	66.762
570.000000	66.988
580.000000	67.213
590.000000	67.423
600.000000	67.610
608.000000	67.734
615.000000	67.822
622.000000	67.888
630.000000	67.936
640.000000	67.951
650.000000	67.918
660.000000	67.844
670.000000	67.743
680.000000	67.636
690.000000	67.548
700.000000	67.500
710.000000	67.505
720.000000	67.563
730.000000	67.663
740.000000	67.790
750.000000	67.927
762.000000	68.084
775.000000	68.221
788.000000	68.306
800.000000	68.332
812.000000	68.308
825.000000	68.238
838.000000	68.138
850.000000	68.039
862.000000	67.956
875.000000	67.902
885.000000	67.896
900.000000	67.956
912.000000	68.063
925.000000	68.231
938.000000	68.442
950.000000	68.662
962.000000	68.895
975.000000	69.152
988.000000	69.404
1000.000000	69.625
1015.000000	69.881
1030.000000	70.110
1044.000000	70.298
1060.000000	70.486
1075.000000	70.639
1090.000000	70.773
1106.000000	70.899
1120.000000	70.997
1138.000000	71.108
1150.000000	71.174
1172.000000	71.275
1180.000000	71.305
1206.000000	71.379
1220.000000	71.405
1241.000000	71.429
1250.000000	71.436
1265.000000	71.442
1280.000000	71.443
1315.000000	71.422
1320.000000	71.415
1340.000000	71.373
1360.000000	71.301
1380.000000	71.192
1400.000000	71.038
1430.000000	70.716
1450.000000	70.442
1475.000000	70.048
1500.000000	69.624
1525.000000	69.204
1550.000000	68.819
1575.000000	68.492
1600.000000	68.230
1625.000000	68.030
1650.000000	67.884
1675.000000	67.784
1700.000000	67.722
1725.000000	67.691
1750.000000	67.685
1775.000000	67.694
1800.000000	67.709
1825.000000	67.723
1850.000000	67.731
1875.000000	67.727
1900.000000	67.712
1925.000000	67.684
1950.000000	67.645
1975.000000	67.597
2000.000000	67.542
2030.000000	67.469
2060.000000	67.390
2090.000000	67.308
2120.000000	67.226
2140.000000	67.174
2180.000000	67.083
2200.000000	67.047
2240.000000	66.997
2270.000000	66.970
2300.000000	66.917
2330.000000	66.819
2360.000000	66.721
2400.000000	66.630
2430.000000	66.575
2470.000000	66.521
2500.000000	66.514
2540.000000	66.550
2580.000000	66.610
2620.000000	66.664
2650.000000	66.694
2690.000000	66.721
2720.000000	66.727
2760.000000	66.709
2800.000000	66.683
2850.000000	66.779
2900.000000	67.217
2950.000000	67.989
3000.000000	68.848
3040.000000	69.432
3070.000000	69.771
3110.000000	70.094
3150.000000	70.306
3200.000000	70.487
3250.000000	70.622
3300.000000	70.705
3350.000000	70.702
3400.000000	70.588
3450.000000	70.364
3500.000000	70.059
3550.000000	69.722
3600.000000	69.416
3650.000000	69.202
3700.000000	69.121
3750.000000	69.175
3820.000000	69.408
3870.000000	69.636
3950.000000	70.080
4000.000000	70.409
4060.000000	70.844
4120.000000	71.306
4180.000000	71.783
4250.000000	72.353
4310.000000	72.835
4370.000000	73.285
4440.000000	73.734
4500.000000	74.026
4550.000000	74.186
4620.000000	74.262
4680.000000	74.176
4750.000000	73.898
4820.000000	73.440
4870.000000	73.018
4940.000000	72.329
5000.000000	71.690
5080.000000	70.853
5150.000000	70.230
5220.000000	69.811
5300.000000	69.693
5380.000000	70.011
5450.000000	70.589
5520.000000	71.330
5600.000000	72.239
5700.000000	73.318
5800.000000	74.248
5900.000000	75.000
6000.000000	75.599
6080.000000	75.999
6150.000000	76.313
6220.000000	76.606
6300.000000	76.928
6400.000000	77.305
6500.000000	77.605
6600.000000	77.753
6700.000000	77.694
6800.000000	77.413
6900.000000	76.942
7000.000000	76.339
7100.000000	75.682
7200.000000	75.055
7300.000000	74.547
7400.000000	74.235
7500.000000	74.148
7620.000000	74.281
7750.000000	74.534
7880.000000	74.716
8000.000000	74.750
8120.000000	74.638
8250.000000	74.338
8380.000000	73.839
8500.000000	73.205
8620.000000	72.431
8750.000000	71.465
8850.000000	70.659
9000.000000	69.477
9120.000000	68.767
9250.000000	68.477
9380.000000	68.725
9500.000000	69.289
9620.000000	70.003
9750.000000	70.793
9880.000000	71.477
10000.000000	71.948
10150.000000	72.284
10300.000000	72.350
10440.000000	72.186
10600.000000	71.723
10750.000000	70.984
10900.000000	69.914
11060.000000	68.414
11200.000000	66.852
11380.000000	64.665
11500.000000	63.229
11720.000000	61.074
11800.000000	60.567
12060.000000	60.268
12200.000000	60.808
12410.000000	61.941
12500.000000	62.401
12650.000000	63.015
12800.000000	63.384
13150.000000	63.401
13200.000000	63.346
13400.000000	63.115
13600.000000	62.968
13800.000000	62.910
14000.000000	62.830
14300.000000	62.389
14500.000000	61.778
14750.000000	60.675
15000.000000	59.370
15250.000000	58.206
15500.000000	57.705
15750.000000	58.191
16000.000000	59.203
16250.000000	60.006
16500.000000	60.237
16750.000000	59.880
17000.000000	59.054
17250.000000	57.865
17500.000000	56.387
17750.000000	54.694
18000.000000	52.884
18250.000000	51.074
18500.000000	49.386
18750.000000	47.921
19000.000000	46.768
19250.000000	46.023
19500.000000	45.701
19750.000000	45.644
