* Measurement data measured by REW V5.20.4
* Source: Trace Arithmetic result Merge B to A
* Format: Trace Arithmetic result Merge B to A
* Dated: 29-Aug-2023 17:06:28
* REW Settings:
*  C-weighting compensation: Off
*  Target level: 75.0 dB
* Note: 
* Measurement: T50 RP 50th Anniversary L
* Smoothing: 1/24 octave
* Frequency Step: 1/48 octave
* Start Frequency: 20.000 Hz
*
* Freq(Hz)	SPL(dB)
20.000000	59.812
20.299999	59.924
20.600000	60.037
20.900000	60.154
21.200001	60.276
21.400000	60.360
21.799999	60.532
22.000000	60.620
22.400000	60.793
22.700001	60.920
23.000000	61.043
23.299999	61.160
23.600000	61.274
24.000000	61.419
24.299999	61.526
24.700001	61.667
25.000000	61.772
25.400000	61.912
25.799999	62.051
26.200001	62.190
26.500000	62.294
26.900000	62.433
27.200001	62.539
27.600000	62.681
28.000000	62.825
28.500000	63.005
29.000000	63.182
29.500000	63.354
30.000000	63.522
30.400000	63.653
30.700001	63.750
31.100000	63.878
31.500000	64.004
32.000000	64.158
32.500000	64.308
33.000000	64.454
33.500000	64.594
34.000000	64.729
34.500000	64.855
35.000000	64.971
35.500000	65.077
36.000000	65.177
36.500000	65.274
37.000000	65.374
37.500000	65.478
38.200001	65.631
38.700001	65.742
39.500000	65.922
40.000000	66.033
40.599998	66.165
41.200001	66.295
41.799999	66.423
42.500000	66.567
43.099998	66.686
43.700001	66.803
44.400002	66.936
45.000000	67.047
45.500000	67.137
46.200001	67.259
46.799999	67.361
47.500000	67.475
48.200001	67.585
48.700001	67.662
49.400002	67.766
50.000000	67.852
50.799999	67.961
51.500000	68.051
52.200001	68.136
53.000000	68.228
53.799999	68.315
54.500000	68.387
55.200001	68.456
56.000000	68.531
57.000000	68.618
58.000000	68.698
59.000000	68.770
60.000000	68.835
60.799999	68.882
61.500000	68.920
62.200001	68.957
63.000000	68.998
64.000000	69.044
65.000000	69.085
66.000000	69.120
67.000000	69.148
68.000000	69.170
69.000000	69.186
70.000000	69.198
71.000000	69.206
72.000000	69.211
73.000000	69.215
74.000000	69.215
75.000000	69.213
76.199997	69.206
77.500000	69.192
78.800003	69.170
80.000000	69.144
81.199997	69.114
82.500000	69.076
83.800003	69.035
85.000000	68.996
86.199997	68.956
87.500000	68.912
88.500000	68.878
90.000000	68.826
91.199997	68.783
92.500000	68.735
93.800003	68.684
95.000000	68.636
96.199997	68.587
97.500000	68.534
98.800003	68.479
100.000000	68.428
101.500000	68.362
103.000000	68.294
104.400002	68.227
106.000000	68.149
107.500000	68.074
109.000000	67.997
110.599998	67.913
112.000000	67.838
113.800003	67.740
115.000000	67.674
117.199997	67.554
118.000000	67.511
120.599998	67.373
122.000000	67.299
124.099998	67.189
125.000000	67.142
126.500000	67.063
128.000000	66.983
131.500000	66.801
132.000000	66.775
134.000000	66.674
136.000000	66.574
138.000000	66.477
140.000000	66.380
143.000000	66.234
145.000000	66.135
147.500000	66.010
150.000000	65.884
152.500000	65.760
155.000000	65.644
157.500000	65.542
160.000000	65.458
162.500000	65.398
165.000000	65.367
167.500000	65.372
170.000000	65.419
172.500000	65.512
175.000000	65.651
177.500000	65.832
180.000000	66.045
182.500000	66.279
185.000000	66.520
187.500000	66.758
190.000000	66.985
192.500000	67.196
195.000000	67.388
197.500000	67.559
200.000000	67.709
203.000000	67.859
206.000000	67.973
209.000000	68.051
212.000000	68.093
214.000000	68.102
218.000000	68.077
220.000000	68.046
224.000000	67.955
227.000000	67.868
230.000000	67.769
233.000000	67.664
236.000000	67.556
240.000000	67.410
243.000000	67.303
247.000000	67.166
250.000000	67.067
254.000000	66.942
258.000000	66.824
262.000000	66.711
265.000000	66.631
269.000000	66.527
272.000000	66.451
276.000000	66.349
280.000000	66.247
285.000000	66.114
290.000000	65.976
295.000000	65.831
300.000000	65.682
304.000000	65.561
307.000000	65.471
311.000000	65.353
315.000000	65.241
320.000000	65.113
325.000000	65.004
330.000000	64.916
335.000000	64.850
340.000000	64.806
345.000000	64.779
350.000000	64.762
355.000000	64.749
360.000000	64.732
365.000000	64.707
370.000000	64.671
375.000000	64.623
382.000000	64.538
387.000000	64.471
395.000000	64.370
400.000000	64.323
406.000000	64.293
412.000000	64.296
418.000000	64.331
425.000000	64.404
431.000000	64.485
437.000000	64.573
444.000000	64.677
450.000000	64.763
455.000000	64.831
462.000000	64.920
468.000000	64.991
475.000000	65.070
482.000000	65.148
487.000000	65.203
494.000000	65.284
500.000000	65.355
508.000000	65.454
515.000000	65.542
522.000000	65.634
530.000000	65.742
538.000000	65.855
545.000000	65.959
552.000000	66.068
560.000000	66.201
570.000000	66.376
580.000000	66.557
590.000000	66.736
600.000000	66.900
608.000000	67.013
615.000000	67.096
622.000000	67.161
630.000000	67.214
640.000000	67.250
650.000000	67.257
660.000000	67.237
670.000000	67.195
680.000000	67.133
690.000000	67.056
700.000000	66.968
710.000000	66.876
720.000000	66.787
730.000000	66.706
740.000000	66.638
750.000000	66.588
762.000000	66.559
775.000000	66.580
788.000000	66.669
800.000000	66.817
812.000000	67.020
825.000000	67.284
838.000000	67.570
850.000000	67.833
862.000000	68.083
875.000000	68.330
885.000000	68.500
900.000000	68.723
912.000000	68.875
925.000000	69.013
938.000000	69.127
950.000000	69.212
962.000000	69.281
975.000000	69.339
988.000000	69.385
1000.000000	69.417
1015.000000	69.447
1030.000000	69.467
1044.000000	69.475
1060.000000	69.471
1075.000000	69.453
1090.000000	69.420
1106.000000	69.370
1120.000000	69.312
1138.000000	69.224
1150.000000	69.160
1172.000000	69.040
1180.000000	68.998
1206.000000	68.882
1220.000000	68.836
1241.000000	68.795
1250.000000	68.787
1265.000000	68.784
1280.000000	68.794
1315.000000	68.840
1320.000000	68.848
1340.000000	68.873
1360.000000	68.888
1380.000000	68.885
1400.000000	68.859
1430.000000	68.772
1450.000000	68.683
1475.000000	68.546
1500.000000	68.397
1525.000000	68.258
1550.000000	68.148
1575.000000	68.074
1600.000000	68.033
1625.000000	68.015
1650.000000	68.010
1675.000000	68.012
1700.000000	68.013
1725.000000	68.012
1750.000000	68.007
1775.000000	67.995
1800.000000	67.977
1825.000000	67.954
1850.000000	67.927
1875.000000	67.900
1900.000000	67.876
1925.000000	67.859
1950.000000	67.851
1975.000000	67.853
2000.000000	67.865
2030.000000	67.892
2060.000000	67.930
2090.000000	67.976
2120.000000	68.027
2140.000000	68.061
2180.000000	68.124
2200.000000	68.151
2240.000000	68.191
2270.000000	68.194
2300.000000	68.135
2330.000000	67.998
2360.000000	67.831
2400.000000	67.613
2430.000000	67.450
2470.000000	67.248
2500.000000	67.135
2540.000000	67.041
2580.000000	66.976
2620.000000	66.900
2650.000000	66.825
2690.000000	66.695
2720.000000	66.572
2760.000000	66.366
2800.000000	66.135
2850.000000	65.946
2900.000000	66.068
2950.000000	66.512
3000.000000	67.048
3040.000000	67.387
3070.000000	67.549
3110.000000	67.644
3150.000000	67.630
3200.000000	67.528
3250.000000	67.377
3300.000000	67.175
3350.000000	66.897
3400.000000	66.530
3450.000000	66.089
3500.000000	65.611
3550.000000	65.158
3600.000000	64.798
3650.000000	64.593
3700.000000	64.580
3750.000000	64.749
3820.000000	65.188
3870.000000	65.581
3950.000000	66.297
4000.000000	66.796
4060.000000	67.428
4120.000000	68.074
4180.000000	68.725
4250.000000	69.486
4310.000000	70.136
4370.000000	70.772
4440.000000	71.476
4500.000000	72.028
4550.000000	72.434
4620.000000	72.894
4680.000000	73.168
4750.000000	73.330
4820.000000	73.320
4870.000000	73.214
4940.000000	72.952
5000.000000	72.655
5080.000000	72.230
5150.000000	71.912
5220.000000	71.734
5300.000000	71.804
5380.000000	72.215
5450.000000	72.806
5520.000000	73.514
5600.000000	74.347
5700.000000	75.298
5800.000000	76.080
5900.000000	76.671
6000.000000	77.089
6080.000000	77.327
6150.000000	77.485
6220.000000	77.608
6300.000000	77.720
6400.000000	77.821
6500.000000	77.846
6600.000000	77.738
6700.000000	77.454
6800.000000	76.988
6900.000000	76.377
7000.000000	75.682
7100.000000	74.974
7200.000000	74.330
7300.000000	73.828
7400.000000	73.527
7500.000000	73.445
7620.000000	73.560
7750.000000	73.757
7880.000000	73.852
8000.000000	73.788
8120.000000	73.582
8250.000000	73.207
8380.000000	72.683
8500.000000	72.090
8620.000000	71.429
8750.000000	70.667
8850.000000	70.074
9000.000000	69.281
9120.000000	68.921
9250.000000	68.995
9380.000000	69.534
9500.000000	70.271
9620.000000	71.064
9750.000000	71.835
9880.000000	72.407
10000.000000	72.698
10150.000000	72.725
10300.000000	72.409
10440.000000	71.855
10600.000000	70.949
10750.000000	69.841
10900.000000	68.487
11060.000000	66.813
11200.000000	65.239
11380.000000	63.259
11500.000000	62.102
11720.000000	60.657
11800.000000	60.419
12060.000000	60.720
12200.000000	61.340
12410.000000	62.349
12500.000000	62.701
12650.000000	63.092
12800.000000	63.205
13150.000000	62.553
13200.000000	62.396
13400.000000	61.752
13600.000000	61.199
13800.000000	60.779
14000.000000	60.430
14300.000000	59.879
14500.000000	59.449
14750.000000	58.834
15000.000000	58.152
15250.000000	57.514
15500.000000	57.246
15750.000000	57.618
16000.000000	58.308
16250.000000	58.727
16500.000000	58.581
16750.000000	57.908
17000.000000	56.879
17250.000000	55.633
17500.000000	54.231
17750.000000	52.708
18000.000000	51.130
18250.000000	49.613
18500.000000	48.294
18750.000000	47.294
19000.000000	46.702
19250.000000	46.581
19500.000000	46.853
19750.000000	47.256
