* Measurement data measured by REW V5.20.4
* Source: Trace Arithmetic result A * B
* Format: Trace Arithmetic result A * B
* Dated: 08-Feb-2022 19:37:48
* REW Settings:
*  C-weighting compensation: Off
*  Target level: 75.0 dB
* Note: Trace Arithmetic A times B A = Poseidon R VSG B = VSG to Crin
* Measurement: Poseidon R VSG to Crin
* Smoothing: 1/24 octave
* Frequency Step: 1/48 octave
* Start Frequency: 20.000 Hz
*
* Freq(Hz)	SPL(dB)
20.000000	67.051
20.299999	67.308
20.600000	67.549
20.900000	67.772
21.200001	67.977
21.400000	68.104
21.799999	68.342
22.000000	68.454
22.400000	68.669
22.700001	68.823
23.000000	68.970
23.299999	69.109
23.600000	69.240
24.000000	69.404
24.299999	69.524
24.700001	69.689
25.000000	69.821
25.400000	70.010
25.799999	70.211
26.200001	70.415
26.500000	70.564
26.900000	70.757
27.200001	70.898
27.600000	71.084
28.000000	71.272
28.500000	71.512
29.000000	71.751
29.500000	71.979
30.000000	72.190
30.400000	72.348
30.700001	72.463
31.100000	72.616
31.500000	72.770
32.000000	72.964
32.500000	73.156
33.000000	73.340
33.500000	73.511
34.000000	73.671
34.500000	73.823
35.000000	73.967
35.500000	74.104
36.000000	74.234
36.500000	74.355
37.000000	74.470
37.500000	74.580
38.200001	74.729
38.700001	74.831
39.500000	74.982
40.000000	75.067
40.599998	75.157
41.200001	75.232
41.799999	75.292
42.500000	75.342
43.099998	75.374
43.700001	75.403
44.400002	75.440
45.000000	75.476
45.500000	75.509
46.200001	75.558
46.799999	75.604
47.500000	75.663
48.200001	75.732
48.700001	75.790
49.400002	75.882
50.000000	75.970
50.799999	76.093
51.500000	76.200
52.200001	76.298
53.000000	76.398
53.799999	76.492
54.500000	76.575
55.200001	76.665
56.000000	76.781
57.000000	76.938
58.000000	77.100
59.000000	77.255
60.000000	77.396
60.799999	77.499
61.500000	77.584
62.200001	77.669
63.000000	77.771
64.000000	77.911
65.000000	78.067
66.000000	78.236
67.000000	78.411
68.000000	78.586
69.000000	78.755
70.000000	78.916
71.000000	79.066
72.000000	79.205
73.000000	79.336
74.000000	79.459
75.000000	79.580
76.199997	79.720
77.500000	79.866
78.800003	80.001
80.000000	80.115
81.199997	80.221
82.500000	80.329
83.800003	80.430
85.000000	80.517
86.199997	80.599
87.500000	80.683
88.500000	80.747
90.000000	80.840
91.199997	80.913
92.500000	80.988
93.800003	81.060
95.000000	81.121
96.199997	81.178
97.500000	81.237
98.800003	81.293
100.000000	81.343
101.500000	81.402
103.000000	81.455
104.400002	81.497
106.000000	81.541
107.500000	81.579
109.000000	81.614
110.599998	81.646
112.000000	81.668
113.800003	81.687
115.000000	81.695
117.199997	81.702
118.000000	81.702
120.599998	81.697
122.000000	81.690
124.099998	81.673
125.000000	81.663
126.500000	81.648
128.000000	81.632
131.500000	81.604
132.000000	81.601
134.000000	81.589
136.000000	81.578
138.000000	81.567
140.000000	81.554
143.000000	81.529
145.000000	81.508
147.500000	81.480
150.000000	81.457
152.500000	81.446
155.000000	81.448
157.500000	81.460
160.000000	81.477
162.500000	81.493
165.000000	81.509
167.500000	81.530
170.000000	81.561
172.500000	81.603
175.000000	81.659
177.500000	81.726
180.000000	81.798
182.500000	81.870
185.000000	81.936
187.500000	81.990
190.000000	82.025
192.500000	82.037
195.000000	82.026
197.500000	82.001
200.000000	81.975
203.000000	81.963
206.000000	81.978
209.000000	82.014
212.000000	82.061
214.000000	82.094
218.000000	82.156
220.000000	82.178
224.000000	82.193
227.000000	82.170
230.000000	82.117
233.000000	82.044
236.000000	81.965
240.000000	81.876
243.000000	81.834
247.000000	81.815
250.000000	81.823
254.000000	81.852
258.000000	81.889
262.000000	81.924
265.000000	81.946
269.000000	81.966
272.000000	81.972
276.000000	81.970
280.000000	81.958
285.000000	81.932
290.000000	81.898
295.000000	81.857
300.000000	81.807
304.000000	81.761
307.000000	81.722
311.000000	81.664
315.000000	81.601
320.000000	81.518
325.000000	81.433
330.000000	81.354
335.000000	81.295
340.000000	81.276
345.000000	81.322
350.000000	81.448
355.000000	81.644
360.000000	81.868
365.000000	82.070
370.000000	82.211
375.000000	82.273
382.000000	82.235
387.000000	82.134
395.000000	81.889
400.000000	81.711
406.000000	81.509
412.000000	81.353
418.000000	81.258
425.000000	81.242
431.000000	81.339
437.000000	81.568
444.000000	81.968
450.000000	82.311
455.000000	82.502
462.000000	82.535
468.000000	82.341
475.000000	81.952
482.000000	81.535
487.000000	81.285
494.000000	81.034
500.000000	80.897
508.000000	80.793
515.000000	80.749
522.000000	80.731
530.000000	80.721
538.000000	80.696
545.000000	80.639
552.000000	80.529
560.000000	80.333
570.000000	80.032
580.000000	79.798
590.000000	79.718
600.000000	79.741
608.000000	79.770
615.000000	79.784
622.000000	79.785
630.000000	79.782
640.000000	79.793
650.000000	79.831
660.000000	79.876
670.000000	79.906
680.000000	79.953
690.000000	80.095
700.000000	80.326
710.000000	80.485
720.000000	80.397
730.000000	80.045
740.000000	79.595
750.000000	79.270
762.000000	79.184
775.000000	79.342
788.000000	79.552
800.000000	79.706
812.000000	79.812
825.000000	79.896
838.000000	79.972
850.000000	80.045
862.000000	80.107
875.000000	80.118
885.000000	80.064
900.000000	79.889
912.000000	79.706
925.000000	79.495
938.000000	79.280
950.000000	79.083
962.000000	78.901
975.000000	78.734
988.000000	78.600
1000.000000	78.502
1015.000000	78.411
1030.000000	78.359
1044.000000	78.347
1060.000000	78.372
1075.000000	78.418
1090.000000	78.468
1106.000000	78.505
1120.000000	78.501
1138.000000	78.425
1150.000000	78.328
1172.000000	78.085
1180.000000	77.987
1206.000000	77.695
1220.000000	77.602
1241.000000	77.584
1250.000000	77.608
1265.000000	77.653
1280.000000	77.679
1315.000000	77.630
1320.000000	77.612
1340.000000	77.511
1360.000000	77.367
1380.000000	77.201
1400.000000	77.046
1430.000000	76.874
1450.000000	76.801
1475.000000	76.744
1500.000000	76.729
1525.000000	76.808
1550.000000	77.031
1575.000000	77.334
1600.000000	77.576
1625.000000	77.649
1650.000000	77.547
1675.000000	77.368
1700.000000	77.236
1725.000000	77.190
1750.000000	77.167
1775.000000	77.094
1800.000000	76.974
1825.000000	76.903
1850.000000	77.004
1875.000000	77.309
1900.000000	77.732
1925.000000	78.171
1950.000000	78.589
1975.000000	79.002
2000.000000	79.430
2030.000000	79.961
2060.000000	80.496
2090.000000	81.021
2120.000000	81.515
2140.000000	81.811
2180.000000	82.272
2200.000000	82.425
2240.000000	82.594
2270.000000	82.652
2300.000000	82.708
2330.000000	82.792
2360.000000	82.908
2400.000000	83.080
2430.000000	83.211
2470.000000	83.396
2500.000000	83.544
2540.000000	83.733
2580.000000	83.880
2620.000000	83.966
2650.000000	83.990
2690.000000	83.980
2720.000000	83.951
2760.000000	83.890
2800.000000	83.825
2850.000000	83.862
2900.000000	84.216
2950.000000	84.857
3000.000000	85.517
3040.000000	85.892
3070.000000	86.044
3110.000000	86.073
3150.000000	85.942
3200.000000	85.652
3250.000000	85.329
3300.000000	85.034
3350.000000	84.786
3400.000000	84.577
3450.000000	84.395
3500.000000	84.240
3550.000000	84.133
3600.000000	84.103
3650.000000	84.178
3700.000000	84.358
3750.000000	84.607
3820.000000	84.947
3870.000000	85.121
3950.000000	85.273
4000.000000	85.329
4060.000000	85.404
4120.000000	85.516
4180.000000	85.670
4250.000000	85.892
4310.000000	86.107
4370.000000	86.337
4440.000000	86.621
4500.000000	86.870
4550.000000	87.072
4620.000000	87.322
4680.000000	87.482
4750.000000	87.584
4820.000000	87.586
4870.000000	87.532
4940.000000	87.398
5000.000000	87.253
5080.000000	87.059
5150.000000	86.928
5220.000000	86.855
5300.000000	86.849
5380.000000	86.915
5450.000000	87.026
5520.000000	87.200
5600.000000	87.518
5700.000000	88.113
5800.000000	88.824
5900.000000	89.500
6000.000000	90.053
6080.000000	90.366
6150.000000	90.517
6220.000000	90.534
6300.000000	90.372
6400.000000	89.890
6500.000000	89.101
6600.000000	88.040
6700.000000	86.783
6800.000000	85.444
6900.000000	84.169
7000.000000	83.128
7100.000000	82.490
7200.000000	82.335
7300.000000	82.599
7400.000000	83.135
7500.000000	83.797
7620.000000	84.575
7750.000000	85.190
7880.000000	85.453
8000.000000	85.400
8120.000000	85.124
8250.000000	84.616
8380.000000	83.901
8500.000000	83.075
8620.000000	82.129
8750.000000	81.023
8850.000000	80.150
9000.000000	78.927
9120.000000	78.214
9250.000000	77.901
9380.000000	78.043
9500.000000	78.389
9620.000000	78.759
9750.000000	79.045
9880.000000	79.124
10000.000000	78.987
10150.000000	78.565
10300.000000	77.970
10440.000000	77.381
10600.000000	76.775
10750.000000	76.305
10900.000000	75.902
11060.000000	75.497
11200.000000	75.142
11380.000000	74.698
11500.000000	74.440
11720.000000	74.156
11800.000000	74.138
12060.000000	74.382
12200.000000	74.597
12410.000000	74.793
12500.000000	74.789
12650.000000	74.653
12800.000000	74.377
13150.000000	73.639
13200.000000	73.590
13400.000000	73.716
13600.000000	74.385
13800.000000	75.349
14000.000000	76.265
14300.000000	77.089
14500.000000	77.171
14750.000000	76.804
15000.000000	76.065
15250.000000	75.165
15500.000000	74.451
15750.000000	74.191
16000.000000	74.069
16250.000000	73.538
16500.000000	72.556
16750.000000	71.600
17000.000000	70.913
17250.000000	70.128
17500.000000	68.896
17750.000000	67.227
18000.000000	65.413
18250.000000	63.845
18500.000000	62.723
18750.000000	61.936
19000.000000	61.303
19250.000000	60.797
19500.000000	60.482
19750.000000	60.349
