* Measurement data measured by REW V5.20.4
* Source: Trace Arithmetic result Merge B to A
* Format: Trace Arithmetic result Merge B to A
* Dated: 24-Aug-2023 17:22:10
* REW Settings:
*  C-weighting compensation: Off
*  Target level: 75.0 dB
* Note: 
* Measurement: Arya Organic L
* Smoothing: 1/24 octave
* Frequency Step: 1/48 octave
* Start Frequency: 20.000 Hz
*
* Freq(Hz)	SPL(dB)
20.000000	64.612
20.299999	64.655
20.600000	64.692
20.900000	64.724
21.200001	64.750
21.400000	64.765
21.799999	64.788
22.000000	64.797
22.400000	64.811
22.700001	64.821
23.000000	64.830
23.299999	64.840
23.600000	64.851
24.000000	64.869
24.299999	64.885
24.700001	64.907
25.000000	64.923
25.400000	64.943
25.799999	64.962
26.200001	64.979
26.500000	64.994
26.900000	65.016
27.200001	65.037
27.600000	65.068
28.000000	65.104
28.500000	65.151
29.000000	65.196
29.500000	65.235
30.000000	65.267
30.400000	65.286
30.700001	65.297
31.100000	65.310
31.500000	65.321
32.000000	65.333
32.500000	65.346
33.000000	65.358
33.500000	65.369
34.000000	65.377
34.500000	65.384
35.000000	65.389
35.500000	65.394
36.000000	65.398
36.500000	65.402
37.000000	65.405
37.500000	65.408
38.200001	65.413
38.700001	65.417
39.500000	65.423
40.000000	65.428
40.599998	65.434
41.200001	65.442
41.799999	65.453
42.500000	65.471
43.099998	65.492
43.700001	65.517
44.400002	65.552
45.000000	65.586
45.500000	65.615
46.200001	65.656
46.799999	65.691
47.500000	65.729
48.200001	65.765
48.700001	65.789
49.400002	65.821
50.000000	65.847
50.799999	65.883
51.500000	65.918
52.200001	65.956
53.000000	66.005
53.799999	66.056
54.500000	66.101
55.200001	66.145
56.000000	66.191
57.000000	66.245
58.000000	66.297
59.000000	66.350
60.000000	66.405
60.799999	66.451
61.500000	66.491
62.200001	66.531
63.000000	66.574
64.000000	66.624
65.000000	66.670
66.000000	66.711
67.000000	66.746
68.000000	66.776
69.000000	66.801
70.000000	66.820
71.000000	66.834
72.000000	66.846
73.000000	66.855
74.000000	66.862
75.000000	66.868
76.199997	66.872
77.500000	66.873
78.800003	66.869
80.000000	66.859
81.199997	66.843
82.500000	66.822
83.800003	66.798
85.000000	66.775
86.199997	66.753
87.500000	66.728
88.500000	66.710
90.000000	66.684
91.199997	66.665
92.500000	66.646
93.800003	66.628
95.000000	66.614
96.199997	66.601
97.500000	66.590
98.800003	66.581
100.000000	66.573
101.500000	66.563
103.000000	66.553
104.400002	66.541
106.000000	66.528
107.500000	66.514
109.000000	66.500
110.599998	66.483
112.000000	66.468
113.800003	66.447
115.000000	66.432
117.199997	66.404
118.000000	66.394
120.599998	66.353
122.000000	66.327
124.099998	66.280
125.000000	66.256
126.500000	66.211
128.000000	66.161
131.500000	66.018
132.000000	65.994
134.000000	65.892
136.000000	65.777
138.000000	65.650
140.000000	65.509
143.000000	65.276
145.000000	65.108
147.500000	64.886
150.000000	64.656
152.500000	64.425
155.000000	64.199
157.500000	63.985
160.000000	63.790
162.500000	63.618
165.000000	63.473
167.500000	63.355
170.000000	63.263
172.500000	63.194
175.000000	63.147
177.500000	63.116
180.000000	63.098
182.500000	63.089
185.000000	63.087
187.500000	63.091
190.000000	63.100
192.500000	63.113
195.000000	63.129
197.500000	63.146
200.000000	63.164
203.000000	63.182
206.000000	63.197
209.000000	63.206
212.000000	63.213
214.000000	63.217
218.000000	63.227
220.000000	63.234
224.000000	63.257
227.000000	63.281
230.000000	63.310
233.000000	63.342
236.000000	63.377
240.000000	63.422
243.000000	63.455
247.000000	63.493
250.000000	63.519
254.000000	63.548
258.000000	63.570
262.000000	63.587
265.000000	63.597
269.000000	63.607
272.000000	63.613
276.000000	63.620
280.000000	63.629
285.000000	63.643
290.000000	63.662
295.000000	63.687
300.000000	63.715
304.000000	63.741
307.000000	63.761
311.000000	63.788
315.000000	63.814
320.000000	63.845
325.000000	63.871
330.000000	63.891
335.000000	63.907
340.000000	63.919
345.000000	63.930
350.000000	63.940
355.000000	63.951
360.000000	63.963
365.000000	63.977
370.000000	63.991
375.000000	64.006
382.000000	64.025
387.000000	64.036
395.000000	64.044
400.000000	64.039
406.000000	64.022
412.000000	63.991
418.000000	63.950
425.000000	63.893
431.000000	63.844
437.000000	63.800
444.000000	63.762
450.000000	63.743
455.000000	63.738
462.000000	63.744
468.000000	63.756
475.000000	63.773
482.000000	63.784
487.000000	63.785
494.000000	63.773
500.000000	63.748
508.000000	63.693
515.000000	63.627
522.000000	63.550
530.000000	63.460
538.000000	63.377
545.000000	63.320
552.000000	63.280
560.000000	63.256
570.000000	63.256
580.000000	63.278
590.000000	63.309
600.000000	63.340
608.000000	63.361
615.000000	63.378
622.000000	63.395
630.000000	63.414
640.000000	63.439
650.000000	63.459
660.000000	63.463
670.000000	63.442
680.000000	63.392
690.000000	63.316
700.000000	63.228
710.000000	63.146
720.000000	63.091
730.000000	63.074
740.000000	63.101
750.000000	63.170
762.000000	63.292
775.000000	63.447
788.000000	63.594
800.000000	63.703
812.000000	63.778
825.000000	63.827
838.000000	63.862
850.000000	63.906
862.000000	63.976
875.000000	64.084
885.000000	64.186
900.000000	64.353
912.000000	64.487
925.000000	64.622
938.000000	64.742
950.000000	64.836
962.000000	64.910
975.000000	64.968
988.000000	65.000
1000.000000	65.006
1015.000000	64.984
1030.000000	64.934
1044.000000	64.872
1060.000000	64.799
1075.000000	64.737
1090.000000	64.684
1106.000000	64.640
1120.000000	64.610
1138.000000	64.579
1150.000000	64.561
1172.000000	64.526
1180.000000	64.511
1206.000000	64.457
1220.000000	64.425
1241.000000	64.370
1250.000000	64.343
1265.000000	64.293
1280.000000	64.233
1315.000000	64.062
1320.000000	64.035
1340.000000	63.931
1360.000000	63.847
1380.000000	63.800
1400.000000	63.797
1430.000000	63.861
1450.000000	63.927
1475.000000	64.001
1500.000000	64.043
1525.000000	64.041
1550.000000	64.002
1575.000000	63.945
1600.000000	63.892
1625.000000	63.861
1650.000000	63.858
1675.000000	63.881
1700.000000	63.924
1725.000000	63.977
1750.000000	64.030
1775.000000	64.076
1800.000000	64.108
1825.000000	64.126
1850.000000	64.132
1875.000000	64.137
1900.000000	64.159
1925.000000	64.213
1950.000000	64.308
1975.000000	64.445
2000.000000	64.621
2030.000000	64.869
2060.000000	65.145
2090.000000	65.436
2120.000000	65.738
2140.000000	65.947
2180.000000	66.385
2200.000000	66.618
2240.000000	67.117
2270.000000	67.510
2300.000000	67.879
2330.000000	68.199
2360.000000	68.507
2400.000000	68.911
2430.000000	69.186
2470.000000	69.514
2500.000000	69.753
2540.000000	70.075
2580.000000	70.385
2620.000000	70.665
2650.000000	70.848
2690.000000	71.046
2720.000000	71.148
2760.000000	71.217
2800.000000	71.237
2850.000000	71.349
2900.000000	71.752
2950.000000	72.418
3000.000000	73.082
3040.000000	73.451
3070.000000	73.600
3110.000000	73.644
3150.000000	73.564
3200.000000	73.397
3250.000000	73.253
3300.000000	73.175
3350.000000	73.156
3400.000000	73.169
3450.000000	73.178
3500.000000	73.160
3550.000000	73.121
3600.000000	73.088
3650.000000	73.093
3700.000000	73.155
3750.000000	73.262
3820.000000	73.414
3870.000000	73.488
3950.000000	73.545
4000.000000	73.563
4060.000000	73.575
4120.000000	73.573
4180.000000	73.560
4250.000000	73.548
4310.000000	73.548
4370.000000	73.557
4440.000000	73.563
4500.000000	73.544
4550.000000	73.493
4620.000000	73.340
4680.000000	73.109
4750.000000	72.708
4820.000000	72.159
4870.000000	71.680
4940.000000	70.905
5000.000000	70.167
5080.000000	69.137
5150.000000	68.269
5220.000000	67.534
5300.000000	67.002
5380.000000	66.912
5450.000000	67.193
5520.000000	67.724
5600.000000	68.512
5700.000000	69.614
5800.000000	70.729
5900.000000	71.771
6000.000000	72.697
6080.000000	73.343
6150.000000	73.835
6220.000000	74.256
6300.000000	74.647
6400.000000	74.982
6500.000000	75.100
6600.000000	74.949
6700.000000	74.507
6800.000000	73.800
6900.000000	72.906
7000.000000	71.925
7100.000000	70.965
7200.000000	70.131
7300.000000	69.514
7400.000000	69.181
7500.000000	69.140
7620.000000	69.378
7750.000000	69.756
7880.000000	70.024
8000.000000	70.062
8120.000000	69.856
8250.000000	69.323
8380.000000	68.453
8500.000000	67.379
8620.000000	66.111
8750.000000	64.628
8850.000000	63.495
9000.000000	62.032
9120.000000	61.318
9250.000000	61.205
9380.000000	61.686
9500.000000	62.393
9620.000000	63.109
9750.000000	63.702
9880.000000	63.975
10000.000000	63.888
10150.000000	63.335
10300.000000	62.412
10440.000000	61.425
10600.000000	60.477
10750.000000	60.029
10900.000000	60.025
11060.000000	60.298
11200.000000	60.605
11380.000000	61.008
11500.000000	61.307
11720.000000	62.083
11800.000000	62.479
12060.000000	64.170
12200.000000	65.176
12410.000000	66.449
12500.000000	66.834
12650.000000	67.210
12800.000000	67.245
13150.000000	66.232
13200.000000	66.004
13400.000000	65.020
13600.000000	64.037
13800.000000	63.120
14000.000000	62.267
14300.000000	61.193
14500.000000	60.779
14750.000000	60.716
15000.000000	60.999
15250.000000	61.460
15500.000000	62.242
15750.000000	63.490
16000.000000	64.858
16250.000000	65.849
16500.000000	66.275
16750.000000	66.223
17000.000000	65.846
17250.000000	65.222
17500.000000	64.355
17750.000000	63.265
18000.000000	62.019
18250.000000	60.737
18500.000000	59.550
18750.000000	58.566
19000.000000	57.865
19250.000000	57.518
19500.000000	57.505
19750.000000	57.650
