* Measurement data measured by REW V5.20.3
* Source: Trace Arithmetic result A * B
* Format: Trace Arithmetic result A * B
* Dated: 31-Jan-2022 17:50:15
* REW Settings:
*  C-weighting compensation: Off
*  Target level: 75.0 dB
* Note: Trace Arithmetic A times B A = HE400se R VSG B = A over B
* Measurement: A times B
* Smoothing: None
* Frequency Step: 1/48 octave
* Start Frequency: 20.000 Hz
*
* Freq(Hz)	SPL(dB)
20.000000	73.909
20.299999	74.120
20.600000	74.312
20.900000	74.479
21.200001	74.620
21.400000	74.700
21.799999	74.835
22.000000	74.895
22.400000	75.002
22.700001	75.072
23.000000	75.132
23.299999	75.180
23.600000	75.217
24.000000	75.251
24.299999	75.269
24.700001	75.293
25.000000	75.318
25.400000	75.369
25.799999	75.443
26.200001	75.538
26.500000	75.618
26.900000	75.730
27.200001	75.813
27.600000	75.923
28.000000	76.035
28.500000	76.188
29.000000	76.349
29.500000	76.497
30.000000	76.618
30.400000	76.697
30.700001	76.754
31.100000	76.832
31.500000	76.919
32.000000	77.037
32.500000	77.148
33.000000	77.239
33.500000	77.312
34.000000	77.377
34.500000	77.446
35.000000	77.523
35.500000	77.607
36.000000	77.695
36.500000	77.785
37.000000	77.876
37.500000	77.964
38.200001	78.068
38.700001	78.132
39.500000	78.218
40.000000	78.258
40.599998	78.288
41.200001	78.310
41.799999	78.331
42.500000	78.341
43.099998	78.333
43.700001	78.325
44.400002	78.341
45.000000	78.376
45.500000	78.410
46.200001	78.450
46.799999	78.481
47.500000	78.508
48.200001	78.526
48.700001	78.543
49.400002	78.593
50.000000	78.661
50.799999	78.754
51.500000	78.808
52.200001	78.837
53.000000	78.866
53.799999	78.901
54.500000	78.934
55.200001	78.975
56.000000	79.037
57.000000	79.122
58.000000	79.199
59.000000	79.266
60.000000	79.318
60.799999	79.353
61.500000	79.380
62.200001	79.404
63.000000	79.426
64.000000	79.451
65.000000	79.477
66.000000	79.510
67.000000	79.543
68.000000	79.574
69.000000	79.606
70.000000	79.636
71.000000	79.663
72.000000	79.689
73.000000	79.717
74.000000	79.738
75.000000	79.758
76.199997	79.786
77.500000	79.810
78.800003	79.820
80.000000	79.826
81.199997	79.826
82.500000	79.824
83.800003	79.821
85.000000	79.811
86.199997	79.795
87.500000	79.772
88.500000	79.757
90.000000	79.740
91.199997	79.727
92.500000	79.717
93.800003	79.706
95.000000	79.692
96.199997	79.673
97.500000	79.655
98.800003	79.647
100.000000	79.645
101.500000	79.644
103.000000	79.640
104.400002	79.624
106.000000	79.598
107.500000	79.586
109.000000	79.586
110.599998	79.581
112.000000	79.566
113.800003	79.539
115.000000	79.521
117.199997	79.492
118.000000	79.481
120.599998	79.443
122.000000	79.424
124.099998	79.393
125.000000	79.376
126.500000	79.342
128.000000	79.310
131.500000	79.265
132.000000	79.259
134.000000	79.231
136.000000	79.204
138.000000	79.180
140.000000	79.159
143.000000	79.131
145.000000	79.110
147.500000	79.086
150.000000	79.069
152.500000	79.060
155.000000	79.057
157.500000	79.056
160.000000	79.051
162.500000	79.025
165.000000	78.992
167.500000	78.975
170.000000	78.975
172.500000	78.981
175.000000	78.997
177.500000	79.030
180.000000	79.084
182.500000	79.145
185.000000	79.202
187.500000	79.276
190.000000	79.365
192.500000	79.458
195.000000	79.539
197.500000	79.590
200.000000	79.611
203.000000	79.609
206.000000	79.588
209.000000	79.563
212.000000	79.560
214.000000	79.575
218.000000	79.642
220.000000	79.685
224.000000	79.745
227.000000	79.738
230.000000	79.678
233.000000	79.584
236.000000	79.481
240.000000	79.379
243.000000	79.342
247.000000	79.327
250.000000	79.338
254.000000	79.371
258.000000	79.401
262.000000	79.419
265.000000	79.428
269.000000	79.440
272.000000	79.432
276.000000	79.388
280.000000	79.349
285.000000	79.326
290.000000	79.287
295.000000	79.253
300.000000	79.236
304.000000	79.216
307.000000	79.191
311.000000	79.144
315.000000	79.094
320.000000	79.028
325.000000	78.944
330.000000	78.844
335.000000	78.746
340.000000	78.671
345.000000	78.646
350.000000	78.748
355.000000	79.042
360.000000	79.451
365.000000	79.790
370.000000	79.943
375.000000	79.952
382.000000	79.908
387.000000	79.904
395.000000	79.911
400.000000	79.888
406.000000	79.875
412.000000	79.987
418.000000	80.205
425.000000	80.365
431.000000	80.372
437.000000	80.460
444.000000	81.036
450.000000	81.975
455.000000	82.724
462.000000	82.911
468.000000	82.204
475.000000	81.241
482.000000	80.765
487.000000	80.659
494.000000	80.603
500.000000	80.560
508.000000	80.504
515.000000	80.500
522.000000	80.565
530.000000	80.703
538.000000	80.810
545.000000	80.792
552.000000	80.693
560.000000	80.560
570.000000	80.398
580.000000	80.266
590.000000	80.150
600.000000	80.127
608.000000	80.133
615.000000	80.123
622.000000	80.096
630.000000	80.049
640.000000	80.021
650.000000	80.170
660.000000	80.491
670.000000	80.820
680.000000	80.704
690.000000	80.284
700.000000	81.116
710.000000	82.928
720.000000	83.753
730.000000	82.204
740.000000	80.841
750.000000	81.130
762.000000	81.721
775.000000	82.165
788.000000	82.485
800.000000	82.535
812.000000	82.485
825.000000	82.419
838.000000	82.420
850.000000	82.402
862.000000	82.538
875.000000	82.877
885.000000	82.838
900.000000	82.410
912.000000	82.185
925.000000	82.094
938.000000	81.967
950.000000	81.687
962.000000	81.474
975.000000	81.469
988.000000	81.366
1000.000000	81.225
1015.000000	81.126
1030.000000	81.033
1044.000000	80.978
1060.000000	81.029
1075.000000	81.068
1090.000000	81.031
1106.000000	80.997
1120.000000	80.913
1138.000000	80.583
1150.000000	80.268
1172.000000	79.663
1180.000000	79.502
1206.000000	78.888
1220.000000	78.575
1241.000000	78.778
1250.000000	78.970
1265.000000	79.184
1280.000000	79.248
1315.000000	79.293
1320.000000	79.287
1340.000000	79.266
1360.000000	79.170
1380.000000	78.940
1400.000000	78.772
1430.000000	78.645
1450.000000	78.615
1475.000000	78.706
1500.000000	78.716
1525.000000	78.591
1550.000000	78.926
1575.000000	79.600
1600.000000	80.305
1625.000000	80.462
1650.000000	79.622
1675.000000	78.417
1700.000000	77.741
1725.000000	77.522
1750.000000	77.290
1775.000000	77.087
1800.000000	76.967
1825.000000	76.661
1850.000000	76.798
1875.000000	77.669
1900.000000	78.635
1925.000000	79.271
1950.000000	79.720
1975.000000	80.215
2000.000000	80.829
2030.000000	81.450
2060.000000	82.091
2090.000000	82.751
2120.000000	83.295
2140.000000	83.603
2180.000000	83.850
2200.000000	83.898
2240.000000	83.963
2270.000000	83.819
2300.000000	83.724
2330.000000	83.884
2360.000000	84.355
2400.000000	85.050
2430.000000	85.255
2470.000000	85.398
2500.000000	85.707
2540.000000	86.153
2580.000000	86.464
2620.000000	86.612
2650.000000	86.741
2690.000000	86.826
2720.000000	87.016
2760.000000	87.273
2800.000000	87.118
2850.000000	87.048
2900.000000	87.820
2950.000000	89.184
3000.000000	90.325
3040.000000	90.744
3070.000000	90.740
3110.000000	90.415
3150.000000	89.925
3200.000000	89.423
3250.000000	89.112
3300.000000	88.822
3350.000000	88.504
3400.000000	88.137
3450.000000	87.724
3500.000000	87.300
3550.000000	86.989
3600.000000	86.861
3650.000000	86.808
3700.000000	86.865
3750.000000	87.258
3820.000000	87.894
3870.000000	87.972
3950.000000	87.722
4000.000000	87.567
4060.000000	87.406
4120.000000	87.125
4180.000000	86.819
4250.000000	86.706
4310.000000	86.796
4370.000000	86.994
4440.000000	87.380
4500.000000	87.762
4550.000000	88.061
4620.000000	88.429
4680.000000	88.561
4750.000000	88.531
4820.000000	88.263
4870.000000	87.913
4940.000000	87.325
5000.000000	86.773
5080.000000	86.009
5150.000000	85.361
5220.000000	84.739
5300.000000	84.238
5380.000000	84.119
5450.000000	84.473
5520.000000	85.079
5600.000000	85.698
5700.000000	86.334
5800.000000	86.998
5900.000000	87.515
6000.000000	87.703
6080.000000	87.936
6150.000000	88.059
6220.000000	88.052
6300.000000	88.111
6400.000000	88.319
6500.000000	88.525
6600.000000	88.619
6700.000000	88.352
6800.000000	87.755
6900.000000	87.041
7000.000000	86.322
7100.000000	85.582
7200.000000	84.927
7300.000000	84.412
7400.000000	84.022
7500.000000	83.925
7620.000000	84.385
7750.000000	85.188
7880.000000	85.624
8000.000000	85.735
8120.000000	85.892
8250.000000	85.906
8380.000000	85.502
8500.000000	84.837
8620.000000	84.157
8750.000000	83.482
8850.000000	82.714
9000.000000	81.024
9120.000000	79.977
9250.000000	79.681
9380.000000	80.061
9500.000000	80.422
9620.000000	80.604
9750.000000	81.067
9880.000000	81.754
10000.000000	82.052
10150.000000	81.912
10300.000000	81.666
10440.000000	81.551
10600.000000	81.391
10750.000000	80.933
10900.000000	79.788
11060.000000	77.896
11200.000000	76.065
11380.000000	73.871
11500.000000	72.736
11720.000000	71.659
11800.000000	71.659
12060.000000	73.076
12200.000000	74.417
12410.000000	76.686
12500.000000	77.540
12650.000000	78.495
12800.000000	78.703
13150.000000	76.476
13200.000000	76.023
13400.000000	74.612
13600.000000	74.334
13800.000000	75.186
14000.000000	76.612
14300.000000	78.746
14500.000000	79.426
14750.000000	79.277
15000.000000	78.717
15250.000000	77.869
15500.000000	76.789
15750.000000	76.866
16000.000000	79.464
16250.000000	81.623
16500.000000	80.810
16750.000000	78.781
17000.000000	77.549
17250.000000	76.033
17500.000000	74.224
17750.000000	72.557
18000.000000	71.230
18250.000000	70.371
18500.000000	70.153
18750.000000	70.144
19000.000000	69.426
19250.000000	68.410
19500.000000	68.902
19750.000000	70.402
