* Measurement data measured by REW V5.20.4
* Source: Trace Arithmetic result Merge B to A
* Format: Trace Arithmetic result Merge B to A
* Dated: 03-Oct-2023 08:59:33
* REW Settings:
*  C-weighting compensation: Off
*  Target level: 75.0 dB
* Note: 
* Measurement: Klanar L
* Smoothing: 1/24 octave
* Frequency Step: 1/48 octave
* Start Frequency: 20.000 Hz
*
* Freq(Hz)	SPL(dB)
20.000000	77.394
20.299999	77.403
20.600000	77.408
20.900000	77.408
21.200001	77.404
21.400000	77.398
21.799999	77.382
22.000000	77.372
22.400000	77.353
22.700001	77.341
23.000000	77.333
23.299999	77.331
23.600000	77.333
24.000000	77.342
24.299999	77.349
24.700001	77.354
25.000000	77.350
25.400000	77.335
25.799999	77.310
26.200001	77.281
26.500000	77.260
26.900000	77.236
27.200001	77.222
27.600000	77.208
28.000000	77.198
28.500000	77.186
29.000000	77.173
29.500000	77.159
30.000000	77.144
30.400000	77.134
30.700001	77.126
31.100000	77.117
31.500000	77.108
32.000000	77.098
32.500000	77.086
33.000000	77.071
33.500000	77.052
34.000000	77.029
34.500000	77.002
35.000000	76.972
35.500000	76.940
36.000000	76.907
36.500000	76.874
37.000000	76.840
37.500000	76.806
38.200001	76.758
38.700001	76.724
39.500000	76.670
40.000000	76.637
40.599998	76.597
41.200001	76.557
41.799999	76.518
42.500000	76.471
43.099998	76.431
43.700001	76.390
44.400002	76.342
45.000000	76.301
45.500000	76.268
46.200001	76.223
46.799999	76.186
47.500000	76.143
48.200001	76.102
48.700001	76.073
49.400002	76.032
50.000000	75.998
50.799999	75.951
51.500000	75.911
52.200001	75.871
53.000000	75.825
53.799999	75.779
54.500000	75.738
55.200001	75.697
56.000000	75.648
57.000000	75.585
58.000000	75.521
59.000000	75.456
60.000000	75.391
60.799999	75.338
61.500000	75.292
62.200001	75.246
63.000000	75.193
64.000000	75.126
65.000000	75.058
66.000000	74.990
67.000000	74.922
68.000000	74.853
69.000000	74.786
70.000000	74.721
71.000000	74.656
72.000000	74.593
73.000000	74.529
74.000000	74.465
75.000000	74.401
76.199997	74.324
77.500000	74.241
78.800003	74.160
80.000000	74.086
81.199997	74.014
82.500000	73.935
83.800003	73.857
85.000000	73.784
86.199997	73.711
87.500000	73.633
88.500000	73.574
90.000000	73.487
91.199997	73.419
92.500000	73.346
93.800003	73.275
95.000000	73.209
96.199997	73.144
97.500000	73.074
98.800003	73.005
100.000000	72.942
101.500000	72.865
103.000000	72.789
104.400002	72.719
106.000000	72.639
107.500000	72.565
109.000000	72.491
110.599998	72.413
112.000000	72.346
113.800003	72.261
115.000000	72.206
117.199997	72.104
118.000000	72.067
120.599998	71.949
122.000000	71.887
124.099998	71.795
125.000000	71.756
126.500000	71.693
128.000000	71.630
131.500000	71.486
132.000000	71.465
134.000000	71.384
136.000000	71.303
138.000000	71.222
140.000000	71.142
143.000000	71.023
145.000000	70.945
147.500000	70.849
150.000000	70.754
152.500000	70.661
155.000000	70.570
157.500000	70.481
160.000000	70.393
162.500000	70.306
165.000000	70.219
167.500000	70.133
170.000000	70.049
172.500000	69.966
175.000000	69.885
177.500000	69.807
180.000000	69.730
182.500000	69.655
185.000000	69.580
187.500000	69.506
190.000000	69.432
192.500000	69.359
195.000000	69.286
197.500000	69.216
200.000000	69.148
203.000000	69.071
206.000000	69.003
209.000000	68.944
212.000000	68.894
214.000000	68.866
218.000000	68.817
220.000000	68.794
224.000000	68.748
227.000000	68.709
230.000000	68.666
233.000000	68.617
236.000000	68.565
240.000000	68.491
243.000000	68.433
247.000000	68.357
250.000000	68.300
254.000000	68.226
258.000000	68.153
262.000000	68.081
265.000000	68.029
269.000000	67.961
272.000000	67.912
276.000000	67.848
280.000000	67.786
285.000000	67.711
290.000000	67.639
295.000000	67.570
300.000000	67.503
304.000000	67.451
307.000000	67.413
311.000000	67.363
315.000000	67.315
320.000000	67.258
325.000000	67.203
330.000000	67.151
335.000000	67.102
340.000000	67.053
345.000000	67.006
350.000000	66.960
355.000000	66.914
360.000000	66.868
365.000000	66.824
370.000000	66.782
375.000000	66.742
382.000000	66.688
387.000000	66.650
395.000000	66.592
400.000000	66.557
406.000000	66.516
412.000000	66.477
418.000000	66.441
425.000000	66.401
431.000000	66.369
437.000000	66.337
444.000000	66.301
450.000000	66.271
455.000000	66.248
462.000000	66.217
468.000000	66.194
475.000000	66.170
482.000000	66.149
487.000000	66.135
494.000000	66.116
500.000000	66.101
508.000000	66.081
515.000000	66.063
522.000000	66.044
530.000000	66.024
538.000000	66.004
545.000000	65.989
552.000000	65.976
560.000000	65.964
570.000000	65.954
580.000000	65.947
590.000000	65.942
600.000000	65.939
608.000000	65.937
615.000000	65.935
622.000000	65.934
630.000000	65.934
640.000000	65.935
650.000000	65.940
660.000000	65.947
670.000000	65.957
680.000000	65.970
690.000000	65.985
700.000000	66.003
710.000000	66.022
720.000000	66.044
730.000000	66.069
740.000000	66.097
750.000000	66.128
762.000000	66.169
775.000000	66.219
788.000000	66.273
800.000000	66.328
812.000000	66.389
825.000000	66.461
838.000000	66.538
850.000000	66.615
862.000000	66.696
875.000000	66.788
885.000000	66.862
900.000000	66.976
912.000000	67.071
925.000000	67.178
938.000000	67.289
950.000000	67.396
962.000000	67.506
975.000000	67.629
988.000000	67.754
1000.000000	67.872
1015.000000	68.022
1030.000000	68.173
1044.000000	68.316
1060.000000	68.479
1075.000000	68.632
1090.000000	68.782
1106.000000	68.941
1120.000000	69.077
1138.000000	69.250
1150.000000	69.363
1172.000000	69.567
1180.000000	69.640
1206.000000	69.873
1220.000000	69.995
1241.000000	70.174
1250.000000	70.250
1265.000000	70.374
1280.000000	70.495
1315.000000	70.772
1320.000000	70.811
1340.000000	70.965
1360.000000	71.119
1380.000000	71.274
1400.000000	71.430
1430.000000	71.673
1450.000000	71.840
1475.000000	72.056
1500.000000	72.280
1525.000000	72.511
1550.000000	72.747
1575.000000	72.989
1600.000000	73.235
1625.000000	73.485
1650.000000	73.739
1675.000000	73.996
1700.000000	74.254
1725.000000	74.514
1750.000000	74.772
1775.000000	75.027
1800.000000	75.275
1825.000000	75.512
1850.000000	75.734
1875.000000	75.935
1900.000000	76.111
1925.000000	76.257
1950.000000	76.371
1975.000000	76.452
2000.000000	76.507
2030.000000	76.552
2060.000000	76.596
2090.000000	76.664
2120.000000	76.771
2140.000000	76.865
2180.000000	77.089
2200.000000	77.208
2240.000000	77.430
2270.000000	77.565
2300.000000	77.663
2330.000000	77.720
2360.000000	77.734
2400.000000	77.692
2430.000000	77.617
2470.000000	77.471
2500.000000	77.332
2540.000000	77.122
2580.000000	76.895
2620.000000	76.661
2650.000000	76.481
2690.000000	76.230
2720.000000	76.026
2760.000000	75.725
2800.000000	75.382
2850.000000	74.889
2900.000000	74.344
2950.000000	73.782
3000.000000	73.249
3040.000000	72.872
3070.000000	72.625
3110.000000	72.344
3150.000000	72.113
3200.000000	71.880
3250.000000	71.695
3300.000000	71.547
3350.000000	71.433
3400.000000	71.349
3450.000000	71.290
3500.000000	71.248
3550.000000	71.218
3600.000000	71.194
3650.000000	71.172
3700.000000	71.153
3750.000000	71.134
3820.000000	71.115
3870.000000	71.111
3950.000000	71.134
4000.000000	71.172
4060.000000	71.237
4120.000000	71.309
4180.000000	71.368
4250.000000	71.398
4310.000000	71.383
4370.000000	71.343
4440.000000	71.306
4500.000000	71.328
4550.000000	71.405
4620.000000	71.605
4680.000000	71.837
4750.000000	72.131
4820.000000	72.397
4870.000000	72.546
4940.000000	72.672
5000.000000	72.695
5080.000000	72.608
5150.000000	72.446
5220.000000	72.249
5300.000000	72.048
5380.000000	71.941
5450.000000	71.951
5520.000000	72.057
5600.000000	72.262
5700.000000	72.581
5800.000000	72.899
5900.000000	73.170
6000.000000	73.377
6080.000000	73.496
6150.000000	73.569
6220.000000	73.618
6300.000000	73.648
6400.000000	73.659
6500.000000	73.656
6600.000000	73.661
6700.000000	73.704
6800.000000	73.818
6900.000000	74.034
7000.000000	74.373
7100.000000	74.837
7200.000000	75.404
7300.000000	76.035
7400.000000	76.687
7500.000000	77.315
7620.000000	77.987
7750.000000	78.552
7880.000000	78.894
8000.000000	78.978
8120.000000	78.829
8250.000000	78.414
8380.000000	77.764
8500.000000	76.994
8620.000000	76.102
8750.000000	75.048
8850.000000	74.206
9000.000000	72.953
9120.000000	72.009
9250.000000	71.096
9380.000000	70.344
9500.000000	69.816
9620.000000	69.453
9750.000000	69.225
9880.000000	69.134
10000.000000	69.130
10150.000000	69.182
10300.000000	69.242
10440.000000	69.263
10600.000000	69.205
10750.000000	69.046
10900.000000	68.777
11060.000000	68.376
11200.000000	67.947
11380.000000	67.326
11500.000000	66.894
11720.000000	66.126
11800.000000	65.868
12060.000000	65.156
12200.000000	64.875
12410.000000	64.605
12500.000000	64.544
12650.000000	64.509
12800.000000	64.543
13150.000000	64.761
13200.000000	64.794
13400.000000	64.888
13600.000000	64.882
13800.000000	64.736
14000.000000	64.440
14300.000000	63.772
14500.000000	63.270
14750.000000	62.735
15000.000000	62.482
15250.000000	62.633
15500.000000	63.171
15750.000000	63.945
16000.000000	64.760
16250.000000	65.443
16500.000000	65.868
16750.000000	65.962
17000.000000	65.697
17250.000000	65.087
17500.000000	64.174
17750.000000	63.009
18000.000000	61.644
18250.000000	60.124
18500.000000	58.488
18750.000000	56.770
19000.000000	55.010
19250.000000	53.260
19500.000000	51.605
19750.000000	50.213
