* Measurement data measured by REW V5.20.4
* Source: Trace Arithmetic result Merge B to A
* Format: Trace Arithmetic result Merge B to A
* Dated: 16-Jul-2023 19:16:36
* REW Settings:
*  C-weighting compensation: Off
*  Target level: 75.0 dB
* Note: 
* Measurement: Meze Elite Alcantara R
* Smoothing: 1/24 octave
* Frequency Step: 1/48 octave
* Start Frequency: 20.000 Hz
*
* Freq(Hz)	SPL(dB)
20.000000	68.059
20.299999	68.121
20.600000	68.166
20.900000	68.195
21.200001	68.214
21.400000	68.225
21.799999	68.248
22.000000	68.264
22.400000	68.306
22.700001	68.347
23.000000	68.394
23.299999	68.447
23.600000	68.509
24.000000	68.610
24.299999	68.702
24.700001	68.844
25.000000	68.961
25.400000	69.120
25.799999	69.270
26.200001	69.403
26.500000	69.492
26.900000	69.600
27.200001	69.675
27.600000	69.772
28.000000	69.866
28.500000	69.978
29.000000	70.076
29.500000	70.155
30.000000	70.216
30.400000	70.259
30.700001	70.289
31.100000	70.331
31.500000	70.377
32.000000	70.441
32.500000	70.512
33.000000	70.587
33.500000	70.661
34.000000	70.734
34.500000	70.804
35.000000	70.873
35.500000	70.943
36.000000	71.014
36.500000	71.087
37.000000	71.163
37.500000	71.239
38.200001	71.345
38.700001	71.418
39.500000	71.530
40.000000	71.598
40.599998	71.678
41.200001	71.755
41.799999	71.828
42.500000	71.907
43.099998	71.972
43.700001	72.037
44.400002	72.120
45.000000	72.200
45.500000	72.274
46.200001	72.387
46.799999	72.490
47.500000	72.614
48.200001	72.737
48.700001	72.824
49.400002	72.944
50.000000	73.043
50.799999	73.170
51.500000	73.275
52.200001	73.374
53.000000	73.479
53.799999	73.573
54.500000	73.647
55.200001	73.714
56.000000	73.783
57.000000	73.859
58.000000	73.927
59.000000	73.987
60.000000	74.041
60.799999	74.080
61.500000	74.113
62.200001	74.144
63.000000	74.179
64.000000	74.222
65.000000	74.265
66.000000	74.307
67.000000	74.350
68.000000	74.394
69.000000	74.438
70.000000	74.483
71.000000	74.527
72.000000	74.570
73.000000	74.611
74.000000	74.651
75.000000	74.688
76.199997	74.729
77.500000	74.768
78.800003	74.804
80.000000	74.832
81.199997	74.857
82.500000	74.881
83.800003	74.902
85.000000	74.919
86.199997	74.936
87.500000	74.955
88.500000	74.969
90.000000	74.991
91.199997	75.008
92.500000	75.026
93.800003	75.044
95.000000	75.058
96.199997	75.072
97.500000	75.085
98.800003	75.097
100.000000	75.107
101.500000	75.119
103.000000	75.131
104.400002	75.142
106.000000	75.154
107.500000	75.165
109.000000	75.176
110.599998	75.188
112.000000	75.199
113.800003	75.213
115.000000	75.222
117.199997	75.239
118.000000	75.245
120.599998	75.265
122.000000	75.275
124.099998	75.291
125.000000	75.298
126.500000	75.309
128.000000	75.319
131.500000	75.341
132.000000	75.343
134.000000	75.353
136.000000	75.362
138.000000	75.370
140.000000	75.377
143.000000	75.386
145.000000	75.391
147.500000	75.396
150.000000	75.399
152.500000	75.401
155.000000	75.402
157.500000	75.403
160.000000	75.404
162.500000	75.405
165.000000	75.404
167.500000	75.402
170.000000	75.398
172.500000	75.392
175.000000	75.386
177.500000	75.378
180.000000	75.369
182.500000	75.358
185.000000	75.346
187.500000	75.333
190.000000	75.319
192.500000	75.303
195.000000	75.287
197.500000	75.269
200.000000	75.249
203.000000	75.224
206.000000	75.197
209.000000	75.168
212.000000	75.139
214.000000	75.119
218.000000	75.079
220.000000	75.059
224.000000	75.018
227.000000	74.987
230.000000	74.955
233.000000	74.924
236.000000	74.894
240.000000	74.856
243.000000	74.829
247.000000	74.795
250.000000	74.773
254.000000	74.748
258.000000	74.728
262.000000	74.717
265.000000	74.713
269.000000	74.716
272.000000	74.725
276.000000	74.744
280.000000	74.771
285.000000	74.813
290.000000	74.861
295.000000	74.909
300.000000	74.951
304.000000	74.974
307.000000	74.984
311.000000	74.985
315.000000	74.969
320.000000	74.922
325.000000	74.845
330.000000	74.737
335.000000	74.601
340.000000	74.440
345.000000	74.257
350.000000	74.056
355.000000	73.840
360.000000	73.613
365.000000	73.380
370.000000	73.146
375.000000	72.917
382.000000	72.613
387.000000	72.417
395.000000	72.157
400.000000	72.037
406.000000	71.941
412.000000	71.897
418.000000	71.902
425.000000	71.961
431.000000	72.045
437.000000	72.150
444.000000	72.288
450.000000	72.410
455.000000	72.510
462.000000	72.644
468.000000	72.750
475.000000	72.862
482.000000	72.961
487.000000	73.024
494.000000	73.103
500.000000	73.164
508.000000	73.239
515.000000	73.299
522.000000	73.359
530.000000	73.426
538.000000	73.493
545.000000	73.552
552.000000	73.610
560.000000	73.674
570.000000	73.752
580.000000	73.825
590.000000	73.895
600.000000	73.960
608.000000	74.009
615.000000	74.048
622.000000	74.085
630.000000	74.122
640.000000	74.162
650.000000	74.195
660.000000	74.220
670.000000	74.234
680.000000	74.238
690.000000	74.228
700.000000	74.203
710.000000	74.162
720.000000	74.103
730.000000	74.027
740.000000	73.937
750.000000	73.837
762.000000	73.709
775.000000	73.569
788.000000	73.432
800.000000	73.312
812.000000	73.204
825.000000	73.105
838.000000	73.031
850.000000	72.990
862.000000	72.975
875.000000	72.983
885.000000	73.003
900.000000	73.046
912.000000	73.089
925.000000	73.140
938.000000	73.192
950.000000	73.235
962.000000	73.271
975.000000	73.301
988.000000	73.322
1000.000000	73.335
1015.000000	73.344
1030.000000	73.346
1044.000000	73.339
1060.000000	73.318
1075.000000	73.283
1090.000000	73.233
1106.000000	73.163
1120.000000	73.088
1138.000000	72.975
1150.000000	72.890
1172.000000	72.713
1180.000000	72.643
1206.000000	72.395
1220.000000	72.253
1241.000000	72.040
1250.000000	71.952
1265.000000	71.816
1280.000000	71.694
1315.000000	71.484
1320.000000	71.463
1340.000000	71.402
1360.000000	71.380
1380.000000	71.394
1400.000000	71.439
1430.000000	71.544
1450.000000	71.626
1475.000000	71.731
1500.000000	71.830
1525.000000	71.915
1550.000000	71.981
1575.000000	72.025
1600.000000	72.046
1625.000000	72.045
1650.000000	72.025
1675.000000	71.995
1700.000000	71.960
1725.000000	71.930
1750.000000	71.915
1775.000000	71.927
1800.000000	71.972
1825.000000	72.050
1850.000000	72.159
1875.000000	72.296
1900.000000	72.457
1925.000000	72.638
1950.000000	72.836
1975.000000	73.045
2000.000000	73.261
2030.000000	73.522
2060.000000	73.778
2090.000000	74.023
2120.000000	74.255
2140.000000	74.403
2180.000000	74.686
2200.000000	74.825
2240.000000	75.114
2270.000000	75.334
2300.000000	75.522
2330.000000	75.662
2360.000000	75.798
2400.000000	75.998
2430.000000	76.138
2470.000000	76.311
2500.000000	76.446
2540.000000	76.639
2580.000000	76.824
2620.000000	76.980
2650.000000	77.076
2690.000000	77.180
2720.000000	77.240
2760.000000	77.291
2800.000000	77.339
2850.000000	77.530
2900.000000	78.047
2950.000000	78.848
3000.000000	79.664
3040.000000	80.162
3070.000000	80.410
3110.000000	80.582
3150.000000	80.621
3200.000000	80.580
3250.000000	80.517
3300.000000	80.448
3350.000000	80.353
3400.000000	80.211
3450.000000	80.022
3500.000000	79.803
3550.000000	79.587
3600.000000	79.411
3650.000000	79.308
3700.000000	79.293
3750.000000	79.348
3820.000000	79.447
3870.000000	79.476
3950.000000	79.429
4000.000000	79.357
4060.000000	79.237
4120.000000	79.085
4180.000000	78.918
4250.000000	78.738
4310.000000	78.616
4370.000000	78.524
4440.000000	78.447
4500.000000	78.385
4550.000000	78.320
4620.000000	78.176
4680.000000	77.981
4750.000000	77.652
4820.000000	77.210
4870.000000	76.830
4940.000000	76.226
5000.000000	75.671
5080.000000	74.939
5150.000000	74.380
5220.000000	73.979
5300.000000	73.810
5380.000000	73.993
5450.000000	74.391
5520.000000	74.909
5600.000000	75.522
5700.000000	76.193
5800.000000	76.693
5900.000000	77.009
6000.000000	77.165
6080.000000	77.205
6150.000000	77.194
6220.000000	77.152
6300.000000	77.074
6400.000000	76.929
6500.000000	76.692
6600.000000	76.306
6700.000000	75.735
6800.000000	74.989
6900.000000	74.125
7000.000000	73.231
7100.000000	72.404
7200.000000	71.740
7300.000000	71.323
7400.000000	71.207
7500.000000	71.388
7620.000000	71.879
7750.000000	72.504
7880.000000	73.009
8000.000000	73.286
8120.000000	73.370
8250.000000	73.245
8380.000000	72.902
8500.000000	72.418
8620.000000	71.816
8750.000000	71.073
8850.000000	70.470
9000.000000	69.646
9120.000000	69.257
9250.000000	69.306
9380.000000	69.820
9500.000000	70.519
9620.000000	71.242
9750.000000	71.886
9880.000000	72.265
10000.000000	72.321
10150.000000	71.990
10300.000000	71.290
10440.000000	70.417
10600.000000	69.303
10750.000000	68.251
10900.000000	67.255
11060.000000	66.293
11200.000000	65.559
11380.000000	64.809
11500.000000	64.475
11720.000000	64.363
11800.000000	64.523
12060.000000	65.772
12200.000000	66.716
12410.000000	68.048
12500.000000	68.496
12650.000000	69.007
12800.000000	69.207
13150.000000	68.804
13200.000000	68.715
13400.000000	68.503
13600.000000	68.707
13800.000000	69.326
14000.000000	70.139
14300.000000	71.205
14500.000000	71.610
14750.000000	71.725
15000.000000	71.520
15250.000000	71.289
15500.000000	71.536
15750.000000	72.600
16000.000000	74.103
16250.000000	75.413
16500.000000	76.235
16750.000000	76.562
17000.000000	76.472
17250.000000	75.994
17500.000000	75.125
17750.000000	73.881
18000.000000	72.337
18250.000000	70.624
18500.000000	68.907
18750.000000	67.345
19000.000000	66.075
19250.000000	65.218
19500.000000	64.798
19750.000000	64.664
