* Freq(Hz)	SPL(dB)
20.600000	96.003
20.900000	95.971
21.200001	95.925
21.400000	95.891
21.799999	95.806
22.000000	95.755
22.400000	95.642
22.700001	95.548
23.000000	95.448
23.299999	95.343
23.600000	95.237
24.000000	95.102
24.299999	95.008
24.700001	94.896
25.000000	94.824
25.400000	94.748
25.799999	94.698
26.200001	94.674
26.500000	94.673
26.900000	94.695
27.200001	94.729
27.600000	94.794
28.000000	94.878
28.500000	95.002
29.000000	95.144
29.500000	95.303
30.000000	95.480
30.400000	95.634
30.700001	95.754
31.100000	95.920
31.500000	96.088
32.000000	96.299
32.500000	96.507
33.000000	96.707
33.500000	96.894
34.000000	97.067
34.500000	97.225
35.000000	97.370
35.500000	97.502
36.000000	97.621
36.500000	97.734
37.000000	97.844
37.500000	97.958
38.200001	98.123
38.700001	98.236
39.500000	98.390
40.000000	98.465
40.599998	98.536
41.200001	98.590
41.799999	98.625
42.500000	98.646
43.099998	98.650
43.700001	98.644
44.400002	98.627
45.000000	98.607
45.500000	98.589
46.200001	98.565
46.799999	98.547
47.500000	98.530
48.200001	98.518
48.700001	98.512
49.400002	98.506
50.000000	98.504
50.799999	98.506
51.500000	98.516
52.200001	98.535
53.000000	98.569
53.799999	98.608
54.500000	98.643
55.200001	98.674
56.000000	98.705
57.000000	98.736
58.000000	98.757
59.000000	98.765
60.000000	98.766
60.799999	98.764
61.500000	98.761
62.200001	98.760
63.000000	98.757
64.000000	98.753
65.000000	98.746
66.000000	98.736
67.000000	98.724
68.000000	98.709
69.000000	98.693
70.000000	98.675
71.000000	98.659
72.000000	98.646
73.000000	98.640
74.000000	98.638
75.000000	98.638
76.199997	98.638
77.500000	98.635
78.800003	98.629
80.000000	98.621
81.199997	98.611
82.500000	98.599
83.800003	98.586
85.000000	98.575
86.199997	98.565
87.500000	98.556
88.500000	98.549
90.000000	98.539
91.199997	98.531
92.500000	98.522
93.800003	98.514
95.000000	98.508
96.199997	98.503
97.500000	98.500
98.800003	98.498
100.000000	98.497
101.500000	98.498
103.000000	98.501
104.400002	98.504
106.000000	98.507
107.500000	98.509
109.000000	98.510
110.599998	98.508
112.000000	98.502
113.800003	98.487
115.000000	98.475
117.199997	98.454
118.000000	98.448
120.599998	98.439
122.000000	98.438
124.099998	98.439
125.000000	98.440
126.500000	98.441
128.000000	98.441
131.500000	98.441
132.000000	98.441
134.000000	98.440
136.000000	98.440
138.000000	98.441
140.000000	98.444
143.000000	98.454
145.000000	98.463
147.500000	98.474
150.000000	98.485
152.500000	98.495
155.000000	98.503
157.500000	98.507
160.000000	98.510
162.500000	98.515
165.000000	98.527
167.500000	98.546
170.000000	98.569
172.500000	98.593
175.000000	98.614
177.500000	98.632
180.000000	98.649
182.500000	98.668
185.000000	98.690
187.500000	98.714
190.000000	98.738
192.500000	98.757
195.000000	98.768
197.500000	98.772
200.000000	98.773
203.000000	98.775
206.000000	98.784
209.000000	98.801
212.000000	98.824
214.000000	98.839
218.000000	98.867
220.000000	98.879
224.000000	98.902
227.000000	98.919
230.000000	98.938
233.000000	98.959
236.000000	98.982
240.000000	99.014
243.000000	99.039
247.000000	99.073
250.000000	99.100
254.000000	99.138
258.000000	99.178
262.000000	99.220
265.000000	99.253
269.000000	99.295
272.000000	99.326
276.000000	99.367
280.000000	99.408
285.000000	99.460
290.000000	99.514
295.000000	99.568
300.000000	99.624
304.000000	99.669
307.000000	99.703
311.000000	99.747
315.000000	99.790
320.000000	99.840
325.000000	99.886
330.000000	99.929
335.000000	99.969
340.000000	100.007
345.000000	100.043
350.000000	100.077
355.000000	100.112
360.000000	100.146
365.000000	100.179
370.000000	100.206
375.000000	100.225
382.000000	100.236
387.000000	100.230
395.000000	100.192
400.000000	100.147
406.000000	100.074
412.000000	99.982
418.000000	99.873
425.000000	99.727
431.000000	99.593
437.000000	99.460
444.000000	99.317
450.000000	99.210
455.000000	99.131
462.000000	99.037
468.000000	98.973
475.000000	98.918
482.000000	98.875
487.000000	98.847
494.000000	98.803
500.000000	98.757
508.000000	98.687
515.000000	98.620
522.000000	98.546
530.000000	98.457
538.000000	98.371
545.000000	98.306
552.000000	98.258
560.000000	98.230
570.000000	98.244
580.000000	98.325
590.000000	98.471
600.000000	98.652
608.000000	98.802
615.000000	98.929
622.000000	99.045
630.000000	99.163
640.000000	99.293
650.000000	99.397
660.000000	99.476
670.000000	99.534
680.000000	99.578
690.000000	99.616
700.000000	99.649
710.000000	99.675
720.000000	99.689
730.000000	99.691
740.000000	99.682
750.000000	99.665
762.000000	99.641
775.000000	99.613
788.000000	99.589
800.000000	99.570
812.000000	99.558
825.000000	99.554
838.000000	99.558
850.000000	99.564
862.000000	99.573
875.000000	99.585
885.000000	99.597
900.000000	99.620
912.000000	99.644
925.000000	99.675
938.000000	99.715
950.000000	99.761
962.000000	99.817
975.000000	99.888
988.000000	99.963
1000.000000	100.033
1015.000000	100.116
1030.000000	100.191
1044.000000	100.252
1060.000000	100.305
1075.000000	100.334
1090.000000	100.346
1106.000000	100.355
1120.000000	100.367
1138.000000	100.399
1150.000000	100.432
1172.000000	100.511
1180.000000	100.547
1206.000000	100.690
1220.000000	100.779
1241.000000	100.914
1250.000000	100.970
1265.000000	101.056
1280.000000	101.134
1315.000000	101.281
1320.000000	101.298
1340.000000	101.350
1360.000000	101.386
1380.000000	101.408
1400.000000	101.420
1430.000000	101.427
1450.000000	101.424
1475.000000	101.410
1500.000000	101.386
1525.000000	101.355
1550.000000	101.319
1575.000000	101.282
1600.000000	101.246
1625.000000	101.215
1650.000000	101.194
1675.000000	101.185
1700.000000	101.194
1725.000000	101.229
1750.000000	101.300
1775.000000	101.412
1800.000000	101.557
1825.000000	101.727
1850.000000	101.916
1875.000000	102.117
1900.000000	102.319
1925.000000	102.512
1950.000000	102.688
1975.000000	102.850
2000.000000	103.000
2030.000000	103.167
2060.000000	103.319
2090.000000	103.463
2120.000000	103.603
2140.000000	103.698
2180.000000	103.897
2200.000000	104.002
2240.000000	104.231
2270.000000	104.424
2300.000000	104.637
2330.000000	104.861
2360.000000	105.086
2400.000000	105.377
2430.000000	105.584
2470.000000	105.845
2500.000000	106.029
2540.000000	106.258
2580.000000	106.466
2620.000000	106.651
2650.000000	106.775
2690.000000	106.932
2720.000000	107.051
2760.000000	107.220
2800.000000	107.408
2850.000000	107.656
2900.000000	107.901
2950.000000	108.130
3000.000000	108.340
3040.000000	108.491
3070.000000	108.593
3110.000000	108.711
3150.000000	108.811
3200.000000	108.913
3250.000000	108.990
3300.000000	109.044
3350.000000	109.074
3400.000000	109.075
3450.000000	109.043
3500.000000	108.979
3550.000000	108.887
3600.000000	108.772
3650.000000	108.636
3700.000000	108.483
3750.000000	108.319
3820.000000	108.082
3870.000000	107.913
3950.000000	107.648
4000.000000	107.487
4060.000000	107.303
4120.000000	107.127
4180.000000	106.952
4250.000000	106.736
4310.000000	106.529
4370.000000	106.299
4440.000000	106.001
4500.000000	105.720
4550.000000	105.471
4620.000000	105.106
4680.000000	104.785
4750.000000	104.407
4820.000000	104.030
4870.000000	103.763
4940.000000	103.404
5000.000000	103.124
5080.000000	102.804
5150.000000	102.580
5220.000000	102.421
5300.000000	102.328
5380.000000	102.324
5450.000000	102.393
5520.000000	102.545
5600.000000	102.835
5700.000000	103.344
5800.000000	103.953
5900.000000	104.598
6000.000000	105.237
6080.000000	105.736
6150.000000	106.161
6220.000000	106.570
6300.000000	107.007
6400.000000	107.485
6500.000000	107.877
6600.000000	108.175
6700.000000	108.361
6800.000000	108.431
6900.000000	108.410
7000.000000	108.314
7100.000000	108.146
7200.000000	107.916
7300.000000	107.649
7400.000000	107.373
7500.000000	107.108
7620.000000	106.827
7750.000000	106.597
7880.000000	106.439
8000.000000	106.329
8120.000000	106.240
8250.000000	106.153
8380.000000	106.054
8500.000000	105.924
8620.000000	105.731
8750.000000	105.455
8850.000000	105.212
9000.000000	104.822
9120.000000	104.490
9250.000000	104.088
9380.000000	103.618
9500.000000	103.113
9620.000000	102.533
9750.000000	101.833
9880.000000	101.161
10000.000000	100.640
10150.000000	100.127
10300.000000	99.753
10440.000000	99.513
10600.000000	99.338
10750.000000	99.256
10900.000000	99.250
11060.000000	99.309
11200.000000	99.406
11380.000000	99.589
11500.000000	99.751
11720.000000	100.128
11800.000000	100.289
12060.000000	100.903
12200.000000	101.287
12410.000000	101.870
12500.000000	102.091
12650.000000	102.389
12800.000000	102.597
13150.000000	102.676
13200.000000	102.634
13400.000000	102.330
13600.000000	101.790
13800.000000	100.968
14000.000000	99.898
14300.000000	97.949
14500.000000	96.444
14750.000000	94.358
15000.000000	92.226
15250.000000	90.123
15500.000000	88.103
15750.000000	86.208
16000.000000	84.501
16250.000000	83.200
16500.000000	82.365
16750.000000	81.909
17000.000000	81.747
17250.000000	81.907
17500.000000	82.419
17750.000000	83.322
18000.000000	84.450
18250.000000	85.616
18500.000000	86.803
18750.000000	87.913
19000.000000	88.881
19250.000000	89.667
19500.000000	90.288
19750.000000	90.664
