* Measurement data measured by REW V5.20.4
* Source: Microphone (USB Sound Device        ), MICROPHONE (Master Volume), L, volume: 0.250
* Format: 256k Log Swept Sine, 1 sweep at -12.0 dBFS with no timing reference
* Dated: 02-Aug-2023 17:53:57
* REW Settings:
*  C-weighting compensation: Off
*  Target level: 75.0 dB
* Note: 
* Measurement: Solis 2 UC R
* Smoothing: 1/24 octave
* Frequency Step: 1/48 octave
* Start Frequency: 20.000 Hz
*
* Freq(Hz)	SPL(dB)	Phase(degrees)
20.000000	79.714	-0.0468
20.299999	79.642	-0.3104
20.600000	79.580	-0.4028
20.900000	79.541	-0.3615
21.200001	79.534	-0.2612
21.400000	79.551	-0.2280
21.799999	79.624	-0.3821
22.000000	79.671	-0.6316
22.400000	79.754	-1.5397
22.700001	79.777	-2.5016
23.000000	79.748	-3.5275
23.299999	79.669	-4.4000
23.600000	79.562	-4.9652
24.000000	79.424	-5.1558
24.299999	79.365	-5.0115
24.700001	79.369	-4.8091
25.000000	79.413	-4.9105
25.400000	79.471	-5.5163
25.799999	79.470	-6.4503
26.200001	79.394	-7.2855
26.500000	79.309	-7.6402
26.900000	79.203	-7.7019
27.200001	79.155	-7.5589
27.600000	79.142	-7.3683
28.000000	79.162	-7.4080
28.500000	79.178	-7.8205
29.000000	79.148	-8.3575
29.500000	79.088	-8.7545
30.000000	79.030	-8.9819
30.400000	78.996	-9.1322
30.700001	78.977	-9.2661
31.100000	78.953	-9.4828
31.500000	78.930	-9.7278
32.000000	78.904	-10.0609
32.500000	78.883	-10.4599
33.000000	78.856	-10.9586
33.500000	78.807	-11.4813
34.000000	78.737	-11.8444
34.500000	78.676	-11.9375
35.000000	78.659	-11.8812
35.500000	78.687	-11.9720
36.000000	78.722	-12.3978
36.500000	78.720	-13.0609
37.000000	78.665	-13.6648
37.500000	78.581	-13.9937
38.200001	78.483	-14.0476
38.700001	78.441	-14.0237
39.500000	78.390	-14.1411
40.000000	78.352	-14.2617
40.599998	78.304	-14.3937
41.200001	78.262	-14.5502
41.799999	78.218	-14.7763
42.500000	78.154	-15.0460
43.099998	78.100	-15.1766
43.700001	78.067	-15.2955
44.400002	78.037	-15.6115
45.000000	77.984	-15.9462
45.500000	77.923	-16.0671
46.200001	77.860	-15.9582
46.799999	77.847	-15.8829
47.500000	77.836	-16.0547
48.200001	77.792	-16.3193
48.700001	77.747	-16.4476
49.400002	77.678	-16.5355
50.000000	77.620	-16.5319
50.799999	77.565	-16.4538
51.500000	77.546	-16.5244
52.200001	77.524	-16.8470
53.000000	77.461	-17.3028
53.799999	77.381	-17.5803
54.500000	77.323	-17.7007
55.200001	77.278	-17.7975
56.000000	77.232	-17.8616
57.000000	77.199	-17.8638
58.000000	77.183	-18.0228
59.000000	77.132	-18.3128
60.000000	77.043	-18.4625
60.799999	76.962	-18.3919
61.500000	76.902	-18.2024
62.200001	76.864	-17.9920
63.000000	76.844	-17.8703
64.000000	76.819	-17.9574
65.000000	76.773	-18.1227
66.000000	76.723	-18.2107
67.000000	76.681	-18.2819
68.000000	76.639	-18.3697
69.000000	76.590	-18.4934
70.000000	76.523	-18.5621
71.000000	76.455	-18.5279
72.000000	76.390	-18.4699
73.000000	76.331	-18.3561
74.000000	76.289	-18.2670
75.000000	76.251	-18.2727
76.199997	76.198	-18.2872
77.500000	76.147	-18.2241
78.800003	76.119	-18.2412
80.000000	76.072	-18.4559
81.199997	75.989	-18.5696
82.500000	75.901	-18.4914
83.800003	75.831	-18.3739
85.000000	75.775	-18.2562
86.199997	75.732	-18.1073
87.500000	75.705	-17.9896
88.500000	75.690	-17.9787
90.000000	75.651	-18.0054
91.199997	75.610	-17.9597
92.500000	75.566	-17.8178
93.800003	75.528	-17.6945
95.000000	75.483	-17.5965
96.199997	75.439	-17.4600
97.500000	75.400	-17.3625
98.800003	75.360	-17.3587
100.000000	75.316	-17.3713
101.500000	75.261	-17.3305
103.000000	75.212	-17.2672
104.400002	75.169	-17.2299
106.000000	75.115	-17.1630
107.500000	75.073	-17.0370
109.000000	75.042	-16.9028
110.599998	75.013	-16.7627
112.000000	74.987	-16.6393
113.800003	74.940	-16.4859
115.000000	74.902	-16.3838
117.199997	74.827	-16.1932
118.000000	74.801	-16.1214
120.599998	74.736	-15.9063
122.000000	74.708	-15.8302
124.099998	74.658	-15.7267
125.000000	74.636	-15.6571
126.500000	74.602	-15.5273
128.000000	74.572	-15.3961
131.500000	74.509	-15.0676
132.000000	74.500	-15.0226
134.000000	74.458	-14.8488
136.000000	74.413	-14.6537
138.000000	74.371	-14.4630
140.000000	74.332	-14.2839
143.000000	74.284	-14.0314
145.000000	74.254	-13.8804
147.500000	74.212	-13.6803
150.000000	74.170	-13.4632
152.500000	74.128	-13.2404
155.000000	74.091	-12.9936
157.500000	74.055	-12.7771
160.000000	74.012	-12.5715
162.500000	73.968	-12.3498
165.000000	73.927	-12.1558
167.500000	73.887	-11.9683
170.000000	73.849	-11.7534
172.500000	73.814	-11.5068
175.000000	73.778	-11.2307
177.500000	73.742	-10.9810
180.000000	73.706	-10.7696
182.500000	73.675	-10.5643
185.000000	73.645	-10.3542
187.500000	73.614	-10.1226
190.000000	73.585	-9.9091
192.500000	73.558	-9.7259
195.000000	73.532	-9.5279
197.500000	73.507	-9.2962
200.000000	73.481	-9.0371
203.000000	73.448	-8.7448
206.000000	73.415	-8.4807
209.000000	73.384	-8.1947
212.000000	73.359	-7.8743
214.000000	73.345	-7.6617
218.000000	73.316	-7.2858
220.000000	73.300	-7.0968
224.000000	73.273	-6.6849
227.000000	73.259	-6.4008
230.000000	73.247	-6.1486
233.000000	73.237	-5.9138
236.000000	73.230	-5.7072
240.000000	73.220	-5.4676
243.000000	73.209	-5.2903
247.000000	73.190	-5.0495
250.000000	73.172	-4.8634
254.000000	73.147	-4.6225
258.000000	73.124	-4.3638
262.000000	73.100	-4.1074
265.000000	73.083	-3.9374
269.000000	73.061	-3.7223
272.000000	73.044	-3.5718
276.000000	73.024	-3.3873
280.000000	73.008	-3.1647
285.000000	72.984	-2.8544
290.000000	72.956	-2.5339
295.000000	72.931	-2.2220
300.000000	72.908	-1.9182
304.000000	72.887	-1.6668
307.000000	72.872	-1.4819
311.000000	72.853	-1.2452
315.000000	72.839	-1.0101
320.000000	72.824	-0.7071
325.000000	72.805	-0.4081
330.000000	72.784	-0.1163
335.000000	72.764	0.1722
340.000000	72.742	0.4579
345.000000	72.720	0.7664
350.000000	72.700	1.1066
355.000000	72.681	1.4322
360.000000	72.657	1.7206
365.000000	72.635	2.0068
370.000000	72.616	2.2958
375.000000	72.598	2.5865
382.000000	72.571	2.9995
387.000000	72.552	3.2982
395.000000	72.521	3.7860
400.000000	72.500	4.0784
406.000000	72.475	4.4156
412.000000	72.453	4.7640
418.000000	72.436	5.1205
425.000000	72.418	5.5061
431.000000	72.399	5.8421
437.000000	72.378	6.1842
444.000000	72.359	6.5748
450.000000	72.345	6.9123
455.000000	72.332	7.2105
462.000000	72.309	7.6359
468.000000	72.289	7.9770
475.000000	72.270	8.3553
482.000000	72.253	8.7502
487.000000	72.239	9.0464
494.000000	72.217	9.4581
500.000000	72.200	9.7913
508.000000	72.183	10.2341
515.000000	72.169	10.6429
522.000000	72.156	11.0468
530.000000	72.143	11.4952
538.000000	72.133	11.9623
545.000000	72.123	12.3783
552.000000	72.111	12.8005
560.000000	72.097	13.2763
570.000000	72.076	13.8563
580.000000	72.056	14.4530
590.000000	72.037	15.0442
600.000000	72.015	15.6349
608.000000	71.997	16.1310
615.000000	71.985	16.5732
622.000000	71.975	17.0056
630.000000	71.962	17.4795
640.000000	71.950	18.0852
650.000000	71.940	18.7072
660.000000	71.932	19.3299
670.000000	71.922	19.9546
680.000000	71.915	20.5930
690.000000	71.915	21.2536
700.000000	71.920	21.9220
710.000000	71.924	22.5663
720.000000	71.925	23.1970
730.000000	71.926	23.8556
740.000000	71.930	24.5517
750.000000	71.935	25.2677
762.000000	71.943	26.0966
775.000000	71.955	26.9678
788.000000	71.976	27.8627
800.000000	72.001	28.6898
812.000000	72.029	29.5018
825.000000	72.064	30.3707
838.000000	72.104	31.2471
850.000000	72.140	32.0684
862.000000	72.179	32.8827
875.000000	72.230	33.7397
885.000000	72.275	34.3952
900.000000	72.349	35.3604
912.000000	72.413	36.1080
925.000000	72.484	36.8984
938.000000	72.557	37.6797
950.000000	72.628	38.3854
962.000000	72.701	39.0628
975.000000	72.785	39.7619
988.000000	72.876	40.4232
1000.000000	72.965	41.0029
1015.000000	73.073	41.6847
1030.000000	73.182	42.3270
1044.000000	73.289	42.8873
1060.000000	73.412	43.4611
1075.000000	73.527	43.9518
1090.000000	73.639	44.4061
1106.000000	73.757	44.8370
1120.000000	73.855	45.1694
1138.000000	73.975	45.5531
1150.000000	74.053	45.7893
1172.000000	74.194	46.1869
1180.000000	74.246	46.3118
1206.000000	74.411	46.6461
1220.000000	74.495	46.8003
1241.000000	74.618	47.0233
1250.000000	74.669	47.1147
1265.000000	74.750	47.2571
1280.000000	74.828	47.3864
1315.000000	75.005	47.6734
1320.000000	75.029	47.7134
1340.000000	75.118	47.8642
1360.000000	75.202	48.0186
1380.000000	75.283	48.1880
1400.000000	75.361	48.3511
1430.000000	75.475	48.6010
1450.000000	75.549	48.7642
1475.000000	75.638	48.9723
1500.000000	75.724	49.2103
1525.000000	75.810	49.4550
1550.000000	75.903	49.6999
1575.000000	75.998	49.9395
1600.000000	76.090	50.1763
1625.000000	76.178	50.4300
1650.000000	76.263	50.7033
1675.000000	76.352	50.9555
1700.000000	76.446	51.1912
1725.000000	76.544	51.4279
1750.000000	76.644	51.6625
1775.000000	76.748	51.8859
1800.000000	76.854	52.0942
1825.000000	76.961	52.2964
1850.000000	77.065	52.4902
1875.000000	77.170	52.6604
1900.000000	77.276	52.8117
1925.000000	77.386	52.9556
1950.000000	77.498	53.0761
1975.000000	77.613	53.1702
2000.000000	77.728	53.2441
2030.000000	77.867	53.3080
2060.000000	78.010	53.3398
2090.000000	78.158	53.3295
2120.000000	78.311	53.2621
2140.000000	78.411	53.1942
2180.000000	78.610	53.0235
2200.000000	78.708	52.9078
2240.000000	78.909	52.6009
2270.000000	79.062	52.3054
2300.000000	79.214	51.9548
2330.000000	79.367	51.5589
2360.000000	79.518	51.1093
2400.000000	79.711	50.4160
2430.000000	79.847	49.8414
2470.000000	80.021	48.9954
2500.000000	80.147	48.2904
2540.000000	80.309	47.2682
2580.000000	80.458	46.1647
2620.000000	80.592	44.9823
2650.000000	80.683	44.0451
2690.000000	80.793	42.7441
2720.000000	80.867	41.7335
2760.000000	80.954	40.3350
2800.000000	81.025	38.9016
2850.000000	81.086	37.0824
2900.000000	81.113	35.2579
2950.000000	81.107	33.4678
3000.000000	81.078	31.7172
3040.000000	81.042	30.3546
3070.000000	81.006	29.3675
3110.000000	80.945	28.1123
3150.000000	80.865	26.9425
3200.000000	80.748	25.6002
3250.000000	80.621	24.3623
3300.000000	80.489	23.2441
3350.000000	80.348	22.2588
3400.000000	80.202	21.4012
3450.000000	80.060	20.6577
3500.000000	79.926	19.9995
3550.000000	79.797	19.4390
3600.000000	79.666	18.9899
3650.000000	79.534	18.6421
3700.000000	79.403	18.3901
3750.000000	79.280	18.2155
3820.000000	79.124	18.0851
3870.000000	79.022	18.0820
3950.000000	78.877	18.1838
4000.000000	78.803	18.2912
4060.000000	78.731	18.4550
4120.000000	78.683	18.6325
4180.000000	78.655	18.7953
4250.000000	78.636	18.9541
4310.000000	78.631	19.0216
4370.000000	78.635	18.9939
4440.000000	78.649	18.8213
4500.000000	78.669	18.5191
4550.000000	78.687	18.1538
4620.000000	78.706	17.4862
4680.000000	78.711	16.7904
4750.000000	78.694	15.8859
4820.000000	78.647	14.9500
4870.000000	78.596	14.2875
4940.000000	78.507	13.4029
5000.000000	78.419	12.7096
5080.000000	78.285	11.8966
5150.000000	78.155	11.2898
5220.000000	78.015	10.7704
5300.000000	77.842	10.2926
5380.000000	77.660	9.9404
5450.000000	77.505	9.7217
5520.000000	77.355	9.5813
5600.000000	77.189	9.5266
5700.000000	76.982	9.6391
5800.000000	76.781	9.9370
5900.000000	76.592	10.4144
6000.000000	76.416	11.0752
6080.000000	76.289	11.7370
6150.000000	76.194	12.3994
6220.000000	76.116	13.1168
6300.000000	76.047	14.0019
6400.000000	75.994	15.2010
6500.000000	75.982	16.4748
6600.000000	76.019	17.7826
6700.000000	76.108	19.0793
6800.000000	76.250	20.3234
6900.000000	76.447	21.4579
7000.000000	76.705	22.4218
7100.000000	77.034	23.1360
7200.000000	77.440	23.4384
7300.000000	77.907	23.1614
7400.000000	78.414	22.2179
7500.000000	78.947	20.4869
7620.000000	79.584	17.1305
7750.000000	80.183	11.7341
7880.000000	80.574	4.6504
8000.000000	80.673	-2.9015
8120.000000	80.490	-10.6926
8250.000000	79.994	-18.5625
8380.000000	79.257	-25.2115
8500.000000	78.433	-30.0376
8620.000000	77.533	-33.6070
8750.000000	76.525	-36.1499
8850.000000	75.757	-37.2573
9000.000000	74.663	-37.7536
9120.000000	73.866	-37.3502
9250.000000	73.099	-36.3554
9380.000000	72.439	-34.9823
9500.000000	71.923	-33.5324
9620.000000	71.485	-32.0443
9750.000000	71.084	-30.5257
9880.000000	70.754	-29.1973
10000.000000	70.509	-28.1884
10150.000000	70.262	-27.2616
10300.000000	70.051	-26.7104
10440.000000	69.870	-26.4938
10600.000000	69.667	-26.5605
10750.000000	69.469	-26.9080
10900.000000	69.247	-27.5076
11060.000000	68.969	-28.3341
11200.000000	68.677	-29.1018
11380.000000	68.220	-29.9406
11500.000000	67.868	-30.2785
11720.000000	67.141	-30.2283
11800.000000	66.857	-29.9646
12060.000000	65.896	-28.0778
12200.000000	65.372	-26.3830
12410.000000	64.599	-22.9512
12500.000000	64.282	-21.1647
12650.000000	63.780	-17.8082
12800.000000	63.326	-14.0575
13150.000000	62.524	-4.2291
13200.000000	62.443	-2.7433
13400.000000	62.192	3.2747
13600.000000	62.067	9.2772
13800.000000	62.072	15.0380
14000.000000	62.197	20.4059
14300.000000	62.610	27.5455
14500.000000	63.030	31.4687
14750.000000	63.718	35.0331
15000.000000	64.559	36.6533
15250.000000	65.472	35.7889
15500.000000	66.314	31.9800
15750.000000	66.890	25.3033
16000.000000	67.041	16.8113
16250.000000	66.730	8.2349
16500.000000	66.059	1.0126
16750.000000	65.207	-4.3610
17000.000000	64.321	-8.1286
17250.000000	63.507	-10.8490
17500.000000	62.858	-13.4167
17750.000000	62.392	-16.9675
18000.000000	61.995	-22.5532
18250.000000	61.464	-30.5968
18500.000000	60.599	-40.3747
18750.000000	59.313	-50.4046
19000.000000	57.656	-59.4994
19250.000000	55.744	-67.1736
19500.000000	53.715	-73.3818
19750.000000	51.803	-78.1108
