* Measurement data measured by REW V5.20.4
* Source: Trace Arithmetic result Merge B to A
* Format: Trace Arithmetic result Merge B to A
* Dated: 19-Jul-2023 15:23:01
* REW Settings:
*  C-weighting compensation: Off
*  Target level: 75.0 dB
* Note: 
* Measurement: Chu 2 L
* Smoothing: 1/24 octave
* Frequency Step: 1/48 octave
* Start Frequency: 20.000 Hz
*
* Freq(Hz)	SPL(dB)	Phase(degrees)
20.000000	77.856	11.4422
20.299999	77.878	9.8343
20.600000	77.828	8.3744
20.900000	77.717	7.3212
21.200001	77.577	6.8711
21.400000	77.495	6.9083
21.799999	77.399	7.5682
22.000000	77.397	8.0316
22.400000	77.483	8.8442
22.700001	77.593	9.1472
23.000000	77.709	9.1178
23.299999	77.807	8.8105
23.600000	77.878	8.3013
24.000000	77.918	7.4421
24.299999	77.908	6.7684
24.700001	77.847	5.9642
25.000000	77.778	5.5133
25.400000	77.680	5.1624
25.799999	77.606	5.0253
26.200001	77.572	4.9238
26.500000	77.569	4.7704
26.900000	77.579	4.4204
27.200001	77.590	4.0790
27.600000	77.606	3.5850
28.000000	77.630	3.0752
28.500000	77.672	2.3514
29.000000	77.700	1.5014
29.500000	77.686	0.7286
30.000000	77.649	0.3406
30.400000	77.638	0.3248
30.700001	77.656	0.3735
31.100000	77.705	0.3134
31.500000	77.753	-0.0040
32.000000	77.761	-0.6599
32.500000	77.694	-1.2290
33.000000	77.594	-1.4214
33.500000	77.514	-1.3257
34.000000	77.471	-1.2391
34.500000	77.447	-1.3261
35.000000	77.425	-1.5410
35.500000	77.413	-1.8298
36.000000	77.416	-2.2655
36.500000	77.419	-2.9230
37.000000	77.393	-3.6943
37.500000	77.334	-4.3263
38.200001	77.257	-4.6914
38.700001	77.250	-4.7345
39.500000	77.299	-5.0484
40.000000	77.318	-5.4432
40.599998	77.306	-5.9000
41.200001	77.276	-6.1935
41.799999	77.247	-6.3920
42.500000	77.218	-6.6564
43.099998	77.187	-6.9414
43.700001	77.149	-7.2591
44.400002	77.100	-7.6579
45.000000	77.057	-8.0031
45.500000	77.022	-8.2721
46.200001	76.985	-8.6242
46.799999	76.965	-8.9431
47.500000	76.947	-9.3805
48.200001	76.920	-9.8740
48.700001	76.890	-10.2176
49.400002	76.833	-10.6015
50.000000	76.781	-10.7990
50.799999	76.729	-10.9561
51.500000	76.700	-11.1575
52.200001	76.666	-11.4670
53.000000	76.613	-11.8251
53.799999	76.563	-12.1163
54.500000	76.527	-12.3795
55.200001	76.491	-12.6547
56.000000	76.453	-12.9191
57.000000	76.421	-13.2468
58.000000	76.384	-13.6778
59.000000	76.327	-14.0432
60.000000	76.275	-14.3223
60.799999	76.235	-14.5908
61.500000	76.193	-14.8387
62.200001	76.144	-15.0365
63.000000	76.094	-15.1877
64.000000	76.051	-15.3674
65.000000	76.016	-15.6603
66.000000	75.969	-16.0238
67.000000	75.909	-16.3527
68.000000	75.842	-16.6129
69.000000	75.778	-16.7674
70.000000	75.730	-16.9222
71.000000	75.678	-17.1403
72.000000	75.618	-17.2782
73.000000	75.572	-17.3915
74.000000	75.527	-17.5895
75.000000	75.474	-17.7873
76.199997	75.413	-18.0079
77.500000	75.343	-18.2705
78.800003	75.273	-18.4641
80.000000	75.214	-18.6513
81.199997	75.148	-18.8335
82.500000	75.076	-18.9799
83.800003	75.011	-19.1487
85.000000	74.943	-19.3613
86.199997	74.864	-19.5313
87.500000	74.782	-19.6258
88.500000	74.729	-19.6873
90.000000	74.662	-19.9056
91.199997	74.603	-20.1669
92.500000	74.542	-20.4293
93.800003	74.494	-20.6969
95.000000	74.455	-20.9444
96.199997	74.414	-21.1271
97.500000	74.366	-21.2018
98.800003	74.319	-21.1805
100.000000	74.274	-21.1542
101.500000	74.211	-21.2158
103.000000	74.133	-21.3829
104.400002	74.060	-21.5672
106.000000	73.991	-21.7881
107.500000	73.939	-21.9803
109.000000	73.890	-22.1118
110.599998	73.831	-22.1906
112.000000	73.769	-22.2222
113.800003	73.683	-22.2662
115.000000	73.628	-22.3332
117.199997	73.538	-22.4918
118.000000	73.511	-22.5467
120.599998	73.428	-22.7245
122.000000	73.377	-22.7993
124.099998	73.291	-22.8858
125.000000	73.255	-22.9185
126.500000	73.195	-22.9686
128.000000	73.139	-23.0083
131.500000	73.010	-23.0256
132.000000	72.991	-23.0258
134.000000	72.916	-23.0446
136.000000	72.840	-23.0560
138.000000	72.774	-23.0391
140.000000	72.716	-23.0187
143.000000	72.626	-23.0613
145.000000	72.554	-23.1079
147.500000	72.461	-23.0996
150.000000	72.380	-23.0352
152.500000	72.306	-22.9438
155.000000	72.232	-22.8466
157.500000	72.150	-22.7911
160.000000	72.062	-22.7370
162.500000	71.983	-22.6652
165.000000	71.909	-22.6382
167.500000	71.829	-22.5674
170.000000	71.747	-22.4238
172.500000	71.667	-22.2808
175.000000	71.590	-22.1573
177.500000	71.518	-22.0225
180.000000	71.446	-21.8671
182.500000	71.372	-21.6695
185.000000	71.298	-21.4678
187.500000	71.223	-21.2842
190.000000	71.144	-21.0710
192.500000	71.071	-20.7698
195.000000	71.010	-20.4244
197.500000	70.951	-20.0672
200.000000	70.896	-19.6588
203.000000	70.849	-19.1469
206.000000	70.830	-18.7448
209.000000	70.822	-18.5260
212.000000	70.804	-18.4328
214.000000	70.785	-18.4090
218.000000	70.729	-18.3601
220.000000	70.695	-18.3004
224.000000	70.620	-18.1605
227.000000	70.562	-18.0962
230.000000	70.506	-18.0178
233.000000	70.452	-17.8675
236.000000	70.398	-17.6626
240.000000	70.315	-17.4268
243.000000	70.249	-17.2734
247.000000	70.168	-17.0877
250.000000	70.108	-16.9025
254.000000	70.038	-16.5589
258.000000	69.980	-16.1906
262.000000	69.920	-15.8898
265.000000	69.870	-15.6758
269.000000	69.802	-15.3435
272.000000	69.752	-15.0634
276.000000	69.685	-14.6824
280.000000	69.620	-14.3221
285.000000	69.541	-13.8965
290.000000	69.475	-13.4008
295.000000	69.418	-12.9266
300.000000	69.357	-12.4168
304.000000	69.299	-12.0183
307.000000	69.250	-11.7273
311.000000	69.190	-11.3529
315.000000	69.144	-10.9519
320.000000	69.088	-10.3893
325.000000	69.027	-9.9388
330.000000	68.975	-9.5847
335.000000	68.920	-9.1296
340.000000	68.867	-8.6179
345.000000	68.816	-8.0909
350.000000	68.763	-7.6155
355.000000	68.712	-7.1724
360.000000	68.663	-6.7374
365.000000	68.617	-6.3050
370.000000	68.577	-5.8226
375.000000	68.537	-5.2833
382.000000	68.466	-4.6118
387.000000	68.423	-4.1622
395.000000	68.364	-3.4349
400.000000	68.324	-2.9825
406.000000	68.276	-2.4380
412.000000	68.231	-1.8583
418.000000	68.193	-1.2803
425.000000	68.148	-0.6736
431.000000	68.106	-0.1433
437.000000	68.077	0.4357
444.000000	68.038	1.1083
450.000000	67.992	1.6115
455.000000	67.954	2.0217
462.000000	67.918	2.6569
468.000000	67.894	3.2543
475.000000	67.855	3.9299
482.000000	67.811	4.5130
487.000000	67.786	4.9206
494.000000	67.759	5.5747
500.000000	67.733	6.1508
508.000000	67.691	6.8721
515.000000	67.663	7.4762
522.000000	67.637	8.0945
530.000000	67.602	8.7894
538.000000	67.574	9.4971
545.000000	67.555	10.1197
552.000000	67.534	10.7577
560.000000	67.507	11.4812
570.000000	67.472	12.3051
580.000000	67.444	13.1065
590.000000	67.421	14.0011
600.000000	67.390	14.9808
608.000000	67.368	15.7220
615.000000	67.357	16.3212
622.000000	67.348	16.8977
630.000000	67.334	17.5749
640.000000	67.315	18.4833
650.000000	67.301	19.4011
660.000000	67.289	20.2918
670.000000	67.277	21.1471
680.000000	67.263	21.9974
690.000000	67.248	22.8788
700.000000	67.246	23.7628
710.000000	67.252	24.6815
720.000000	67.255	25.5961
730.000000	67.261	26.4901
740.000000	67.269	27.4259
750.000000	67.273	28.3365
762.000000	67.285	29.4146
775.000000	67.301	30.6255
788.000000	67.334	31.8056
800.000000	67.367	32.8853
812.000000	67.396	34.0165
825.000000	67.433	35.2186
838.000000	67.478	36.3977
850.000000	67.523	37.5098
862.000000	67.575	38.5883
875.000000	67.650	39.7297
885.000000	67.715	40.5933
900.000000	67.816	41.7619
912.000000	67.900	42.6985
925.000000	67.996	43.7630
938.000000	68.097	44.7752
950.000000	68.192	45.6143
962.000000	68.286	46.3624
975.000000	68.384	47.1428
988.000000	68.489	47.8731
1000.000000	68.589	48.5289
1015.000000	68.719	49.4237
1030.000000	68.850	50.2773
1044.000000	68.967	50.9662
1060.000000	69.100	51.6719
1075.000000	69.223	52.3121
1090.000000	69.346	52.9413
1106.000000	69.480	53.5788
1120.000000	69.594	54.0816
1138.000000	69.734	54.6263
1150.000000	69.826	54.9617
1172.000000	69.987	55.5633
1180.000000	70.045	55.7646
1206.000000	70.235	56.3788
1220.000000	70.332	56.7077
1241.000000	70.470	57.1662
1250.000000	70.528	57.3432
1265.000000	70.624	57.6240
1280.000000	70.714	57.8933
1315.000000	70.911	58.5168
1320.000000	70.939	58.6096
1340.000000	71.047	58.9918
1360.000000	71.152	59.3571
1380.000000	71.259	59.7301
1400.000000	71.361	60.0992
1430.000000	71.513	60.6040
1450.000000	71.615	60.9424
1475.000000	71.741	61.3739
1500.000000	71.864	61.8071
1525.000000	71.987	62.2453
1550.000000	72.111	62.6376
1575.000000	72.235	63.0585
1600.000000	72.358	63.4705
1625.000000	72.480	63.8407
1650.000000	72.607	64.1869
1675.000000	72.733	64.5282
1700.000000	72.855	64.8748
1725.000000	72.978	65.2137
1750.000000	73.103	65.5304
1775.000000	73.229	65.8247
1800.000000	73.355	66.1008
1825.000000	73.481	66.3843
1850.000000	73.612	66.6553
1875.000000	73.745	66.8865
1900.000000	73.881	67.0878
1925.000000	74.014	67.2919
1950.000000	74.145	67.4875
1975.000000	74.280	67.6559
2000.000000	74.416	67.8032
2030.000000	74.577	67.9411
2060.000000	74.736	68.0258
2090.000000	74.897	68.0699
2120.000000	75.059	68.1051
2140.000000	75.168	68.1219
2180.000000	75.389	68.0963
2200.000000	75.500	68.0498
2240.000000	75.718	67.8956
2270.000000	75.880	67.7239
2300.000000	76.043	67.5042
2330.000000	76.203	67.2564
2360.000000	76.362	66.9788
2400.000000	76.570	66.5314
2430.000000	76.723	66.1336
2470.000000	76.923	65.5404
2500.000000	77.069	65.0525
2540.000000	77.256	64.3338
2580.000000	77.436	63.5476
2620.000000	77.607	62.6957
2650.000000	77.728	62.0093
2690.000000	77.879	61.0588
2720.000000	77.985	60.3237
2760.000000	78.116	59.3000
2800.000000	78.236	58.2333
2850.000000	78.369	56.8720
2900.000000	78.483	55.4859
2950.000000	78.576	54.0817
3000.000000	78.649	52.7058
3040.000000	78.694	51.6235
3070.000000	78.720	50.8223
3110.000000	78.748	49.7784
3150.000000	78.768	48.7819
3200.000000	78.786	47.5991
3250.000000	78.798	46.4686
3300.000000	78.805	45.3758
3350.000000	78.807	44.3065
3400.000000	78.805	43.2575
3450.000000	78.794	42.2475
3500.000000	78.782	41.2737
3550.000000	78.767	40.3234
3600.000000	78.750	39.3870
3650.000000	78.730	38.4560
3700.000000	78.707	37.5431
3750.000000	78.679	36.6535
3820.000000	78.636	35.4395
3870.000000	78.601	34.5860
3950.000000	78.544	33.2286
4000.000000	78.505	32.3917
4060.000000	78.454	31.3836
4120.000000	78.398	30.3434
4180.000000	78.335	29.2710
4250.000000	78.253	27.9886
4310.000000	78.172	26.8792
4370.000000	78.075	25.7497
4440.000000	77.940	24.4201
4500.000000	77.800	23.3104
4550.000000	77.663	22.4588
4620.000000	77.450	21.4348
4680.000000	77.257	20.7520
4750.000000	77.033	20.1798
4820.000000	76.823	19.7872
4870.000000	76.685	19.5684
4940.000000	76.506	19.3009
5000.000000	76.359	19.0776
5080.000000	76.164	18.7593
5150.000000	75.991	18.4869
5220.000000	75.813	18.2597
5300.000000	75.603	18.0609
5380.000000	75.389	17.9497
5450.000000	75.200	17.9353
5520.000000	75.010	17.9982
5600.000000	74.794	18.1901
5700.000000	74.531	18.6067
5800.000000	74.281	19.2156
5900.000000	74.051	19.9833
6000.000000	73.838	20.8813
6080.000000	73.682	21.6884
6150.000000	73.559	22.4625
6220.000000	73.448	23.2957
6300.000000	73.334	24.3217
6400.000000	73.215	25.7461
6500.000000	73.133	27.3365
6600.000000	73.099	29.0671
6700.000000	73.120	30.8750
6800.000000	73.204	32.6701
6900.000000	73.356	34.3726
7000.000000	73.575	35.9499
7100.000000	73.864	37.3300
7200.000000	74.226	38.3928
7300.000000	74.654	39.0531
7400.000000	75.140	39.2067
7500.000000	75.683	38.7054
7620.000000	76.394	36.9941
7750.000000	77.181	33.4216
7880.000000	77.879	27.7059
8000.000000	78.312	20.5518
8120.000000	78.435	12.1831
8250.000000	78.164	2.9322
8380.000000	77.516	-5.2575
8500.000000	76.687	-11.2794
8620.000000	75.737	-15.7447
8750.000000	74.652	-18.9594
8850.000000	73.820	-20.4295
9000.000000	72.632	-21.2879
9120.000000	71.757	-21.0883
9250.000000	70.892	-20.2498
9380.000000	70.115	-19.0054
9500.000000	69.466	-17.5909
9620.000000	68.864	-15.9624
9750.000000	68.250	-13.9312
9880.000000	67.676	-11.4909
10000.000000	67.204	-8.7885
10150.000000	66.727	-4.8750
10300.000000	66.399	-0.6097
10440.000000	66.244	3.4647
10600.000000	66.231	8.0594
10750.000000	66.351	12.1761
10900.000000	66.594	16.0807
11060.000000	66.989	19.9580
11200.000000	67.460	23.1044
11380.000000	68.256	26.6081
11500.000000	68.916	28.4783
11720.000000	70.417	30.4634
11800.000000	71.062	30.4793
12060.000000	73.395	26.0874
12200.000000	74.588	19.6452
12410.000000	75.713	3.8660
12500.000000	75.809	-4.3041
12650.000000	75.396	-17.4601
12800.000000	74.386	-27.7617
13150.000000	71.147	-37.5734
13200.000000	70.704	-37.7636
13400.000000	69.135	-36.8724
13600.000000	67.894	-34.3219
13800.000000	66.946	-30.8804
14000.000000	66.269	-27.0874
14300.000000	65.734	-21.4765
14500.000000	65.682	-18.1995
14750.000000	65.937	-15.2514
15000.000000	66.514	-14.2153
15250.000000	67.361	-15.9823
15500.000000	68.322	-21.5067
15750.000000	69.137	-31.2521
16000.000000	69.557	-44.6515
16250.000000	69.472	-60.0912
16500.000000	68.952	-76.4266
16750.000000	68.036	-93.9194
17000.000000	66.575	-112.5103
17250.000000	64.366	-129.8707
17500.000000	61.414	-142.7669
17750.000000	57.989	-149.6063
18000.000000	54.477	-151.2726
18250.000000	51.204	-149.2143
18500.000000	48.399	-145.0034
18750.000000	46.178	-140.3525
19000.000000	44.628	-137.1004
19250.000000	43.503	-137.2801
19500.000000	42.501	-141.4405
19750.000000	41.797	-148.9104
