* Measurement data measured by REW V5.20.4
* Source: Trace Arithmetic result Merge B to A
* Format: Trace Arithmetic result Merge B to A
* Dated: 04-Oct-2023 17:49:00
* REW Settings:
*  C-weighting compensation: Off
*  Target level: 75.0 dB
* Note: 
* Measurement: Para R hybrid
* Smoothing: 1/24 octave
* Frequency Step: 1/48 octave
* Start Frequency: 20.000 Hz
*
* Freq(Hz)	SPL(dB)
20.000000	61.917
20.299999	61.992
20.600000	62.051
20.900000	62.074
21.200001	62.061
21.400000	62.042
21.799999	62.022
22.000000	62.032
22.400000	62.095
22.700001	62.167
23.000000	62.240
23.299999	62.301
23.600000	62.352
24.000000	62.423
24.299999	62.495
24.700001	62.623
25.000000	62.735
25.400000	62.884
25.799999	63.011
26.200001	63.114
26.500000	63.181
26.900000	63.269
27.200001	63.332
27.600000	63.404
28.000000	63.448
28.500000	63.460
29.000000	63.451
29.500000	63.458
30.000000	63.495
30.400000	63.533
30.700001	63.558
31.100000	63.581
31.500000	63.594
32.000000	63.608
32.500000	63.628
33.000000	63.657
33.500000	63.690
34.000000	63.724
34.500000	63.750
35.000000	63.764
35.500000	63.762
36.000000	63.752
36.500000	63.743
37.000000	63.744
37.500000	63.755
38.200001	63.794
38.700001	63.841
39.500000	63.943
40.000000	64.003
40.599998	64.045
41.200001	64.048
41.799999	64.027
42.500000	64.011
43.099998	64.032
43.700001	64.081
44.400002	64.147
45.000000	64.192
45.500000	64.219
46.200001	64.245
46.799999	64.266
47.500000	64.292
48.200001	64.321
48.700001	64.341
49.400002	64.364
50.000000	64.378
50.799999	64.389
51.500000	64.389
52.200001	64.386
53.000000	64.396
53.799999	64.447
54.500000	64.530
55.200001	64.638
56.000000	64.772
57.000000	64.936
58.000000	65.074
59.000000	65.176
60.000000	65.249
60.799999	65.295
61.500000	65.329
62.200001	65.356
63.000000	65.385
64.000000	65.431
65.000000	65.493
66.000000	65.562
67.000000	65.621
68.000000	65.665
69.000000	65.698
70.000000	65.723
71.000000	65.739
72.000000	65.748
73.000000	65.751
74.000000	65.754
75.000000	65.761
76.199997	65.780
77.500000	65.810
78.800003	65.841
80.000000	65.864
81.199997	65.880
82.500000	65.891
83.800003	65.895
85.000000	65.895
86.199997	65.893
87.500000	65.893
88.500000	65.895
90.000000	65.901
91.199997	65.905
92.500000	65.907
93.800003	65.906
95.000000	65.906
96.199997	65.908
97.500000	65.913
98.800003	65.918
100.000000	65.920
101.500000	65.920
103.000000	65.917
104.400002	65.914
106.000000	65.911
107.500000	65.913
109.000000	65.921
110.599998	65.934
112.000000	65.946
113.800003	65.954
115.000000	65.956
117.199997	65.958
118.000000	65.960
120.599998	65.967
122.000000	65.967
124.099998	65.961
125.000000	65.957
126.500000	65.950
128.000000	65.944
131.500000	65.930
132.000000	65.927
134.000000	65.917
136.000000	65.907
138.000000	65.901
140.000000	65.896
143.000000	65.889
145.000000	65.890
147.500000	65.898
150.000000	65.913
152.500000	65.932
155.000000	65.952
157.500000	65.976
160.000000	66.005
162.500000	66.031
165.000000	66.049
167.500000	66.060
170.000000	66.066
172.500000	66.071
175.000000	66.073
177.500000	66.070
180.000000	66.063
182.500000	66.054
185.000000	66.044
187.500000	66.037
190.000000	66.032
192.500000	66.029
195.000000	66.028
197.500000	66.029
200.000000	66.033
203.000000	66.042
206.000000	66.051
209.000000	66.057
212.000000	66.061
214.000000	66.062
218.000000	66.062
220.000000	66.061
224.000000	66.055
227.000000	66.048
230.000000	66.038
233.000000	66.024
236.000000	66.007
240.000000	65.986
243.000000	65.973
247.000000	65.962
250.000000	65.954
254.000000	65.944
258.000000	65.934
262.000000	65.926
265.000000	65.922
269.000000	65.921
272.000000	65.925
276.000000	65.936
280.000000	65.948
285.000000	65.957
290.000000	65.961
295.000000	65.962
300.000000	65.961
304.000000	65.957
307.000000	65.951
311.000000	65.942
315.000000	65.929
320.000000	65.908
325.000000	65.883
330.000000	65.858
335.000000	65.838
340.000000	65.824
345.000000	65.810
350.000000	65.794
355.000000	65.779
360.000000	65.769
365.000000	65.766
370.000000	65.766
375.000000	65.764
382.000000	65.749
387.000000	65.732
395.000000	65.696
400.000000	65.668
406.000000	65.627
412.000000	65.580
418.000000	65.529
425.000000	65.473
431.000000	65.436
437.000000	65.416
444.000000	65.414
450.000000	65.427
455.000000	65.448
462.000000	65.490
468.000000	65.533
475.000000	65.581
482.000000	65.617
487.000000	65.635
494.000000	65.648
500.000000	65.649
508.000000	65.635
515.000000	65.606
522.000000	65.562
530.000000	65.494
538.000000	65.410
545.000000	65.329
552.000000	65.245
560.000000	65.152
570.000000	65.049
580.000000	64.971
590.000000	64.925
600.000000	64.916
608.000000	64.932
615.000000	64.957
622.000000	64.986
630.000000	65.020
640.000000	65.059
650.000000	65.091
660.000000	65.117
670.000000	65.135
680.000000	65.144
690.000000	65.139
700.000000	65.124
710.000000	65.106
720.000000	65.090
730.000000	65.080
740.000000	65.071
750.000000	65.062
762.000000	65.048
775.000000	65.028
788.000000	65.008
800.000000	64.995
812.000000	64.987
825.000000	64.978
838.000000	64.966
850.000000	64.961
862.000000	64.973
875.000000	65.006
885.000000	65.036
900.000000	65.076
912.000000	65.109
925.000000	65.151
938.000000	65.193
950.000000	65.218
962.000000	65.224
975.000000	65.211
988.000000	65.192
1000.000000	65.179
1015.000000	65.172
1030.000000	65.180
1044.000000	65.208
1060.000000	65.263
1075.000000	65.319
1090.000000	65.359
1106.000000	65.390
1120.000000	65.423
1138.000000	65.478
1150.000000	65.512
1172.000000	65.548
1180.000000	65.556
1206.000000	65.584
1220.000000	65.597
1241.000000	65.589
1250.000000	65.570
1265.000000	65.514
1280.000000	65.424
1315.000000	65.102
1320.000000	65.052
1340.000000	64.883
1360.000000	64.795
1380.000000	64.786
1400.000000	64.818
1430.000000	64.885
1450.000000	64.930
1475.000000	65.000
1500.000000	65.095
1525.000000	65.205
1550.000000	65.305
1575.000000	65.385
1600.000000	65.447
1625.000000	65.498
1650.000000	65.536
1675.000000	65.568
1700.000000	65.622
1725.000000	65.725
1750.000000	65.883
1775.000000	66.086
1800.000000	66.316
1825.000000	66.543
1850.000000	66.738
1875.000000	66.886
1900.000000	66.992
1925.000000	67.075
1950.000000	67.162
1975.000000	67.295
2000.000000	67.511
2030.000000	67.876
2060.000000	68.285
2090.000000	68.659
2120.000000	68.968
2140.000000	69.144
2180.000000	69.477
2200.000000	69.654
2240.000000	70.059
2270.000000	70.402
2300.000000	70.732
2330.000000	71.009
2360.000000	71.248
2400.000000	71.501
2430.000000	71.626
2470.000000	71.751
2500.000000	71.878
2540.000000	72.153
2580.000000	72.532
2620.000000	72.928
2650.000000	73.188
2690.000000	73.453
2720.000000	73.597
2760.000000	73.745
2800.000000	73.904
2850.000000	74.257
2900.000000	74.891
2950.000000	75.702
3000.000000	76.418
3040.000000	76.773
3070.000000	76.885
3110.000000	76.851
3150.000000	76.677
3200.000000	76.396
3250.000000	76.146
3300.000000	75.963
3350.000000	75.846
3400.000000	75.791
3450.000000	75.795
3500.000000	75.828
3550.000000	75.840
3600.000000	75.804
3650.000000	75.739
3700.000000	75.701
3750.000000	75.712
3820.000000	75.719
3870.000000	75.641
3950.000000	75.374
4000.000000	75.175
4060.000000	74.924
4120.000000	74.639
4180.000000	74.332
4250.000000	74.042
4310.000000	73.906
4370.000000	73.832
4440.000000	73.734
4500.000000	73.601
4550.000000	73.452
4620.000000	73.167
4680.000000	72.821
4750.000000	72.293
4820.000000	71.688
4870.000000	71.249
4940.000000	70.651
5000.000000	70.151
5080.000000	69.513
5150.000000	69.075
5220.000000	68.896
5300.000000	69.080
5380.000000	69.544
5450.000000	70.020
5520.000000	70.479
5600.000000	70.934
5700.000000	71.357
5800.000000	71.624
5900.000000	71.800
6000.000000	71.953
6080.000000	72.036
6150.000000	72.029
6220.000000	71.931
6300.000000	71.735
6400.000000	71.460
6500.000000	71.220
6600.000000	70.989
6700.000000	70.706
6800.000000	70.341
6900.000000	69.886
7000.000000	69.395
7100.000000	68.969
7200.000000	68.680
7300.000000	68.562
7400.000000	68.628
7500.000000	68.857
7620.000000	69.256
7750.000000	69.662
7880.000000	69.889
8000.000000	69.906
8120.000000	69.732
8250.000000	69.318
8380.000000	68.675
8500.000000	67.910
8620.000000	67.026
8750.000000	65.988
8850.000000	65.165
9000.000000	63.982
9120.000000	63.197
9250.000000	62.607
9380.000000	62.211
9500.000000	61.821
9620.000000	61.236
9750.000000	60.346
9880.000000	59.505
10000.000000	59.409
10150.000000	60.548
10300.000000	62.102
10440.000000	63.163
10600.000000	63.708
10750.000000	63.631
10900.000000	63.123
11060.000000	62.334
11200.000000	61.657
11380.000000	61.067
11500.000000	60.915
11720.000000	61.121
11800.000000	61.320
12060.000000	62.237
12200.000000	62.755
12410.000000	63.215
12500.000000	63.232
12650.000000	63.031
12800.000000	62.630
13150.000000	61.506
13200.000000	61.373
13400.000000	61.026
13600.000000	61.013
13800.000000	61.288
14000.000000	61.712
14300.000000	62.147
14500.000000	62.068
14750.000000	61.529
15000.000000	60.657
15250.000000	59.731
15500.000000	59.268
15750.000000	59.647
16000.000000	60.374
16250.000000	60.667
16500.000000	60.334
16750.000000	59.967
17000.000000	60.338
17250.000000	61.210
17500.000000	61.885
17750.000000	62.079
18000.000000	61.800
18250.000000	61.122
18500.000000	60.126
18750.000000	58.896
19000.000000	57.528
19250.000000	56.128
19500.000000	54.774
19750.000000	53.557
