* Measurement data measured by REW V5.20.4
* Source: Trace Arithmetic result Merge B to A
* Format: Trace Arithmetic result Merge B to A
* Dated: 24-Aug-2023 14:36:33
* REW Settings:
*  C-weighting compensation: Off
*  Target level: 75.0 dB
* Note: 
* Measurement: Joker R
* Smoothing: 1/24 octave
* Frequency Step: 1/48 octave
* Start Frequency: 20.000 Hz
*
* Freq(Hz)	SPL(dB)
20.000000	63.554
20.299999	63.727
20.600000	63.902
20.900000	64.076
21.200001	64.245
21.400000	64.351
21.799999	64.541
22.000000	64.623
22.400000	64.763
22.700001	64.851
23.000000	64.934
23.299999	65.017
23.600000	65.107
24.000000	65.244
24.299999	65.359
24.700001	65.526
25.000000	65.655
25.400000	65.826
25.799999	65.985
26.200001	66.124
26.500000	66.212
26.900000	66.307
27.200001	66.365
27.600000	66.431
28.000000	66.493
28.500000	66.578
29.000000	66.677
29.500000	66.787
30.000000	66.903
30.400000	66.999
30.700001	67.073
31.100000	67.173
31.500000	67.276
32.000000	67.404
32.500000	67.529
33.000000	67.647
33.500000	67.761
34.000000	67.873
34.500000	67.985
35.000000	68.097
35.500000	68.207
36.000000	68.312
36.500000	68.412
37.000000	68.507
37.500000	68.599
38.200001	68.724
38.700001	68.811
39.500000	68.948
40.000000	69.032
40.599998	69.133
41.200001	69.230
41.799999	69.322
42.500000	69.424
43.099998	69.505
43.700001	69.580
44.400002	69.660
45.000000	69.721
45.500000	69.766
46.200001	69.818
46.799999	69.853
47.500000	69.881
48.200001	69.897
48.700001	69.904
49.400002	69.908
50.000000	69.911
50.799999	69.914
51.500000	69.920
52.200001	69.928
53.000000	69.942
53.799999	69.960
54.500000	69.980
55.200001	70.002
56.000000	70.033
57.000000	70.077
58.000000	70.133
59.000000	70.200
60.000000	70.281
60.799999	70.353
61.500000	70.420
62.200001	70.491
63.000000	70.575
64.000000	70.682
65.000000	70.791
66.000000	70.900
67.000000	71.008
68.000000	71.113
69.000000	71.216
70.000000	71.315
71.000000	71.411
72.000000	71.503
73.000000	71.591
74.000000	71.673
75.000000	71.749
76.199997	71.829
77.500000	71.905
78.800003	71.968
80.000000	72.017
81.199997	72.059
82.500000	72.096
83.800003	72.127
85.000000	72.151
86.199997	72.171
87.500000	72.189
88.500000	72.199
90.000000	72.211
91.199997	72.217
92.500000	72.220
93.800003	72.219
95.000000	72.215
96.199997	72.209
97.500000	72.199
98.800003	72.187
100.000000	72.174
101.500000	72.156
103.000000	72.134
104.400002	72.112
106.000000	72.084
107.500000	72.055
109.000000	72.024
110.599998	71.988
112.000000	71.955
113.800003	71.911
115.000000	71.881
117.199997	71.823
118.000000	71.801
120.599998	71.729
122.000000	71.689
124.099998	71.628
125.000000	71.603
126.500000	71.559
128.000000	71.516
131.500000	71.416
132.000000	71.402
134.000000	71.344
136.000000	71.288
138.000000	71.232
140.000000	71.177
143.000000	71.097
145.000000	71.046
147.500000	70.983
150.000000	70.922
152.500000	70.861
155.000000	70.800
157.500000	70.739
160.000000	70.678
162.500000	70.617
165.000000	70.555
167.500000	70.493
170.000000	70.429
172.500000	70.365
175.000000	70.300
177.500000	70.236
180.000000	70.172
182.500000	70.109
185.000000	70.047
187.500000	69.986
190.000000	69.925
192.500000	69.864
195.000000	69.801
197.500000	69.736
200.000000	69.668
203.000000	69.582
206.000000	69.491
209.000000	69.396
212.000000	69.299
214.000000	69.235
218.000000	69.110
220.000000	69.050
224.000000	68.935
227.000000	68.853
230.000000	68.775
233.000000	68.699
236.000000	68.626
240.000000	68.534
243.000000	68.469
247.000000	68.389
250.000000	68.335
254.000000	68.269
258.000000	68.208
262.000000	68.151
265.000000	68.108
269.000000	68.050
272.000000	68.004
276.000000	67.941
280.000000	67.873
285.000000	67.783
290.000000	67.687
295.000000	67.585
300.000000	67.478
304.000000	67.389
307.000000	67.321
311.000000	67.227
315.000000	67.131
320.000000	67.009
325.000000	66.885
330.000000	66.761
335.000000	66.640
340.000000	66.523
345.000000	66.411
350.000000	66.303
355.000000	66.198
360.000000	66.095
365.000000	65.996
370.000000	65.899
375.000000	65.805
382.000000	65.680
387.000000	65.595
395.000000	65.467
400.000000	65.391
406.000000	65.306
412.000000	65.230
418.000000	65.165
425.000000	65.108
431.000000	65.079
437.000000	65.069
444.000000	65.085
450.000000	65.121
455.000000	65.166
462.000000	65.251
468.000000	65.342
475.000000	65.465
482.000000	65.603
487.000000	65.709
494.000000	65.865
500.000000	66.004
508.000000	66.193
515.000000	66.359
522.000000	66.525
530.000000	66.711
538.000000	66.892
545.000000	67.045
552.000000	67.194
560.000000	67.358
570.000000	67.557
580.000000	67.752
590.000000	67.943
600.000000	68.134
608.000000	68.285
615.000000	68.414
622.000000	68.537
630.000000	68.664
640.000000	68.784
650.000000	68.837
660.000000	68.797
670.000000	68.645
680.000000	68.379
690.000000	68.024
700.000000	67.629
710.000000	67.262
720.000000	66.984
730.000000	66.829
740.000000	66.796
750.000000	66.859
762.000000	67.017
775.000000	67.238
788.000000	67.469
800.000000	67.668
812.000000	67.842
825.000000	67.999
838.000000	68.123
850.000000	68.212
862.000000	68.284
875.000000	68.348
885.000000	68.392
900.000000	68.457
912.000000	68.512
925.000000	68.578
938.000000	68.653
950.000000	68.728
962.000000	68.808
975.000000	68.899
988.000000	68.992
1000.000000	69.080
1015.000000	69.194
1030.000000	69.312
1044.000000	69.428
1060.000000	69.568
1075.000000	69.707
1090.000000	69.851
1106.000000	70.006
1120.000000	70.142
1138.000000	70.312
1150.000000	70.421
1172.000000	70.611
1180.000000	70.678
1206.000000	70.884
1220.000000	70.990
1241.000000	71.146
1250.000000	71.213
1265.000000	71.325
1280.000000	71.439
1315.000000	71.724
1320.000000	71.768
1340.000000	71.949
1360.000000	72.140
1380.000000	72.337
1400.000000	72.535
1430.000000	72.826
1450.000000	73.011
1475.000000	73.232
1500.000000	73.443
1525.000000	73.652
1550.000000	73.863
1575.000000	74.082
1600.000000	74.309
1625.000000	74.546
1650.000000	74.789
1675.000000	75.036
1700.000000	75.284
1725.000000	75.533
1750.000000	75.785
1775.000000	76.044
1800.000000	76.314
1825.000000	76.599
1850.000000	76.902
1875.000000	77.224
1900.000000	77.563
1925.000000	77.916
1950.000000	78.280
1975.000000	78.650
2000.000000	79.025
2030.000000	79.478
2060.000000	79.933
2090.000000	80.382
2120.000000	80.815
2140.000000	81.090
2180.000000	81.585
2200.000000	81.796
2240.000000	82.125
2270.000000	82.267
2300.000000	82.277
2330.000000	82.142
2360.000000	81.922
2400.000000	81.576
2430.000000	81.303
2470.000000	80.969
2500.000000	80.778
2540.000000	80.606
2580.000000	80.476
2620.000000	80.331
2650.000000	80.192
2690.000000	79.960
2720.000000	79.747
2760.000000	79.414
2800.000000	79.056
2850.000000	78.721
2900.000000	78.725
2950.000000	79.075
3000.000000	79.530
3040.000000	79.807
3070.000000	79.925
3110.000000	79.966
3150.000000	79.911
3200.000000	79.782
3250.000000	79.626
3300.000000	79.428
3350.000000	79.140
3400.000000	78.732
3450.000000	78.209
3500.000000	77.611
3550.000000	77.011
3600.000000	76.486
3650.000000	76.099
3700.000000	75.869
3750.000000	75.757
3820.000000	75.643
3870.000000	75.503
3950.000000	75.142
4000.000000	74.868
4060.000000	74.536
4120.000000	74.240
4180.000000	74.006
4250.000000	73.825
4310.000000	73.739
4370.000000	73.691
4440.000000	73.648
4500.000000	73.593
4550.000000	73.516
4620.000000	73.330
4680.000000	73.077
4750.000000	72.657
4820.000000	72.099
4870.000000	71.625
4940.000000	70.890
5000.000000	70.245
5080.000000	69.494
5150.000000	69.090
5220.000000	69.071
5300.000000	69.614
5380.000000	70.694
5450.000000	71.910
5520.000000	73.204
5600.000000	74.627
5700.000000	76.203
5800.000000	77.517
5900.000000	78.580
6000.000000	79.424
6080.000000	79.963
6150.000000	80.339
6220.000000	80.629
6300.000000	80.858
6400.000000	80.983
6500.000000	80.909
6600.000000	80.601
6700.000000	80.036
6800.000000	79.210
6900.000000	78.154
7000.000000	76.923
7100.000000	75.592
7200.000000	74.255
7300.000000	73.013
7400.000000	71.962
7500.000000	71.166
7620.000000	70.547
7750.000000	70.180
7880.000000	69.982
8000.000000	69.851
8120.000000	69.693
8250.000000	69.396
8380.000000	68.898
8500.000000	68.252
8620.000000	67.467
8750.000000	66.522
8850.000000	65.777
9000.000000	64.787
9120.000000	64.319
9250.000000	64.354
9380.000000	64.950
9500.000000	65.824
9620.000000	66.820
9750.000000	67.867
9880.000000	68.743
10000.000000	69.321
10150.000000	69.696
10300.000000	69.721
10440.000000	69.489
10600.000000	68.987
10750.000000	68.322
10900.000000	67.490
11060.000000	66.462
11200.000000	65.512
11380.000000	64.365
11500.000000	63.748
11720.000000	63.204
11800.000000	63.257
12060.000000	64.371
12200.000000	65.342
12410.000000	66.780
12500.000000	67.287
12650.000000	67.913
12800.000000	68.255
13150.000000	68.296
13200.000000	68.277
13400.000000	68.320
13600.000000	68.663
13800.000000	69.260
14000.000000	69.915
14300.000000	70.555
14500.000000	70.561
14750.000000	70.019
15000.000000	68.939
15250.000000	67.554
15500.000000	66.313
15750.000000	65.684
16000.000000	65.605
16250.000000	65.642
16500.000000	65.560
16750.000000	65.344
17000.000000	64.976
17250.000000	64.382
17500.000000	63.508
17750.000000	62.369
18000.000000	61.042
18250.000000	59.648
18500.000000	58.327
18750.000000	57.216
19000.000000	56.445
19250.000000	56.124
19500.000000	56.221
19750.000000	56.502
