* Measurement data measured by REW V5.20.4
* Source: Frequency Response Averaged data
* Format: Averaged data produced from the rms magnitudes of Aug 7, Aug 7
* Dated: 07-Aug-2023 09:15:12
* REW Settings:
*  C-weighting compensation: Off
*  Target level: 75.0 dB
* Note: 
* Measurement: Reference L
* Smoothing: 1/24 octave
* Frequency Step: 1/48 octave
* Start Frequency: 20.000 Hz
*
* Freq(Hz)	SPL(dB)
20.000000	77.911
20.299999	77.843
20.600000	77.778
20.900000	77.716
21.200001	77.655
21.400000	77.615
21.799999	77.538
22.000000	77.501
22.400000	77.429
22.700001	77.377
23.000000	77.328
23.299999	77.280
23.600000	77.235
24.000000	77.175
24.299999	77.132
24.700001	77.077
25.000000	77.037
25.400000	76.987
25.799999	76.941
26.200001	76.899
26.500000	76.870
26.900000	76.833
27.200001	76.807
27.600000	76.772
28.000000	76.738
28.500000	76.695
29.000000	76.655
29.500000	76.618
30.000000	76.586
30.400000	76.563
30.700001	76.548
31.100000	76.529
31.500000	76.510
32.000000	76.486
32.500000	76.459
33.000000	76.429
33.500000	76.398
34.000000	76.368
34.500000	76.340
35.000000	76.317
35.500000	76.299
36.000000	76.286
36.500000	76.276
37.000000	76.267
37.500000	76.258
38.200001	76.242
38.700001	76.227
39.500000	76.198
40.000000	76.178
40.599998	76.154
41.200001	76.130
41.799999	76.108
42.500000	76.087
43.099998	76.074
43.700001	76.066
44.400002	76.060
45.000000	76.058
45.500000	76.057
46.200001	76.055
46.799999	76.052
47.500000	76.046
48.200001	76.036
48.700001	76.026
49.400002	76.007
50.000000	75.987
50.799999	75.956
51.500000	75.927
52.200001	75.898
53.000000	75.867
53.799999	75.839
54.500000	75.816
55.200001	75.795
56.000000	75.774
57.000000	75.748
58.000000	75.723
59.000000	75.698
60.000000	75.671
60.799999	75.649
61.500000	75.628
62.200001	75.606
63.000000	75.581
64.000000	75.549
65.000000	75.517
66.000000	75.485
67.000000	75.453
68.000000	75.422
69.000000	75.390
70.000000	75.359
71.000000	75.329
72.000000	75.299
73.000000	75.269
74.000000	75.240
75.000000	75.211
76.199997	75.175
77.500000	75.133
78.800003	75.087
80.000000	75.042
81.199997	74.995
82.500000	74.944
83.800003	74.894
85.000000	74.848
86.199997	74.804
87.500000	74.756
88.500000	74.719
90.000000	74.666
91.199997	74.623
92.500000	74.577
93.800003	74.531
95.000000	74.488
96.199997	74.446
97.500000	74.399
98.800003	74.352
100.000000	74.307
101.500000	74.251
103.000000	74.195
104.400002	74.143
106.000000	74.084
107.500000	74.029
109.000000	73.975
110.599998	73.917
112.000000	73.868
113.800003	73.804
115.000000	73.762
117.199997	73.686
118.000000	73.659
120.599998	73.571
122.000000	73.525
124.099998	73.456
125.000000	73.426
126.500000	73.377
128.000000	73.329
131.500000	73.216
132.000000	73.199
134.000000	73.136
136.000000	73.073
138.000000	73.012
140.000000	72.952
143.000000	72.864
145.000000	72.806
147.500000	72.736
150.000000	72.667
152.500000	72.600
155.000000	72.534
157.500000	72.469
160.000000	72.405
162.500000	72.342
165.000000	72.279
167.500000	72.218
170.000000	72.158
172.500000	72.099
175.000000	72.042
177.500000	71.984
180.000000	71.927
182.500000	71.870
185.000000	71.813
187.500000	71.757
190.000000	71.701
192.500000	71.647
195.000000	71.596
197.500000	71.547
200.000000	71.503
203.000000	71.455
206.000000	71.415
209.000000	71.382
212.000000	71.354
214.000000	71.337
218.000000	71.307
220.000000	71.294
224.000000	71.270
227.000000	71.257
230.000000	71.247
233.000000	71.242
236.000000	71.241
240.000000	71.244
243.000000	71.248
247.000000	71.254
250.000000	71.256
254.000000	71.257
258.000000	71.255
262.000000	71.251
265.000000	71.247
269.000000	71.242
272.000000	71.237
276.000000	71.231
280.000000	71.225
285.000000	71.218
290.000000	71.212
295.000000	71.208
300.000000	71.204
304.000000	71.201
307.000000	71.199
311.000000	71.196
315.000000	71.194
320.000000	71.191
325.000000	71.188
330.000000	71.186
335.000000	71.184
340.000000	71.182
345.000000	71.181
350.000000	71.180
355.000000	71.178
360.000000	71.176
365.000000	71.172
370.000000	71.168
375.000000	71.162
382.000000	71.154
387.000000	71.147
395.000000	71.136
400.000000	71.129
406.000000	71.120
412.000000	71.111
418.000000	71.103
425.000000	71.093
431.000000	71.086
437.000000	71.079
444.000000	71.071
450.000000	71.065
455.000000	71.060
462.000000	71.053
468.000000	71.048
475.000000	71.042
482.000000	71.036
487.000000	71.032
494.000000	71.026
500.000000	71.022
508.000000	71.016
515.000000	71.012
522.000000	71.008
530.000000	71.003
538.000000	70.999
545.000000	70.996
552.000000	70.992
560.000000	70.989
570.000000	70.984
580.000000	70.981
590.000000	70.979
600.000000	70.977
608.000000	70.976
615.000000	70.976
622.000000	70.976
630.000000	70.976
640.000000	70.976
650.000000	70.976
660.000000	70.976
670.000000	70.976
680.000000	70.977
690.000000	70.977
700.000000	70.979
710.000000	70.980
720.000000	70.982
730.000000	70.985
740.000000	70.988
750.000000	70.991
762.000000	70.996
775.000000	71.004
788.000000	71.013
800.000000	71.024
812.000000	71.037
825.000000	71.054
838.000000	71.074
850.000000	71.095
862.000000	71.119
875.000000	71.149
885.000000	71.174
900.000000	71.217
912.000000	71.256
925.000000	71.301
938.000000	71.351
950.000000	71.400
962.000000	71.453
975.000000	71.513
988.000000	71.576
1000.000000	71.636
1015.000000	71.715
1030.000000	71.796
1044.000000	71.874
1060.000000	71.964
1075.000000	72.050
1090.000000	72.136
1106.000000	72.228
1120.000000	72.307
1138.000000	72.407
1150.000000	72.473
1172.000000	72.588
1180.000000	72.629
1206.000000	72.756
1220.000000	72.821
1241.000000	72.914
1250.000000	72.953
1265.000000	73.014
1280.000000	73.073
1315.000000	73.201
1320.000000	73.218
1340.000000	73.285
1360.000000	73.348
1380.000000	73.408
1400.000000	73.466
1430.000000	73.549
1450.000000	73.603
1475.000000	73.669
1500.000000	73.735
1525.000000	73.801
1550.000000	73.867
1575.000000	73.935
1600.000000	74.006
1625.000000	74.079
1650.000000	74.155
1675.000000	74.236
1700.000000	74.321
1725.000000	74.412
1750.000000	74.509
1775.000000	74.612
1800.000000	74.722
1825.000000	74.838
1850.000000	74.962
1875.000000	75.092
1900.000000	75.231
1925.000000	75.377
1950.000000	75.530
1975.000000	75.692
2000.000000	75.860
2030.000000	76.072
2060.000000	76.293
2090.000000	76.523
2120.000000	76.759
2140.000000	76.920
2180.000000	77.247
2200.000000	77.412
2240.000000	77.741
2270.000000	77.985
2300.000000	78.225
2330.000000	78.458
2360.000000	78.683
2400.000000	78.967
2430.000000	79.168
2470.000000	79.417
2500.000000	79.587
2540.000000	79.792
2580.000000	79.969
2620.000000	80.119
2650.000000	80.215
2690.000000	80.320
2720.000000	80.383
2760.000000	80.447
2800.000000	80.491
2850.000000	80.520
2900.000000	80.523
2950.000000	80.502
3000.000000	80.460
3040.000000	80.414
3070.000000	80.373
3110.000000	80.309
3150.000000	80.238
3200.000000	80.140
3250.000000	80.034
3300.000000	79.921
3350.000000	79.805
3400.000000	79.686
3450.000000	79.566
3500.000000	79.445
3550.000000	79.325
3600.000000	79.207
3650.000000	79.090
3700.000000	78.975
3750.000000	78.862
3820.000000	78.708
3870.000000	78.601
3950.000000	78.435
4000.000000	78.333
4060.000000	78.212
4120.000000	78.092
4180.000000	77.972
4250.000000	77.831
4310.000000	77.708
4370.000000	77.581
4440.000000	77.430
4500.000000	77.295
4550.000000	77.178
4620.000000	77.007
4680.000000	76.854
4750.000000	76.668
4820.000000	76.473
4870.000000	76.330
4940.000000	76.128
5000.000000	75.956
5080.000000	75.733
5150.000000	75.550
5220.000000	75.385
5300.000000	75.222
5380.000000	75.093
5450.000000	75.007
5520.000000	74.945
5600.000000	74.900
5700.000000	74.873
5800.000000	74.864
5900.000000	74.858
6000.000000	74.846
6080.000000	74.825
6150.000000	74.798
6220.000000	74.763
6300.000000	74.711
6400.000000	74.634
6500.000000	74.548
6600.000000	74.459
6700.000000	74.374
6800.000000	74.300
6900.000000	74.246
7000.000000	74.217
7100.000000	74.219
7200.000000	74.254
7300.000000	74.322
7400.000000	74.417
7500.000000	74.527
7620.000000	74.658
7750.000000	74.762
7880.000000	74.792
8000.000000	74.730
8120.000000	74.571
8250.000000	74.282
8380.000000	73.872
8500.000000	73.392
8620.000000	72.831
8750.000000	72.161
8850.000000	71.626
9000.000000	70.833
9120.000000	70.237
9250.000000	69.653
9380.000000	69.144
9500.000000	68.744
9620.000000	68.409
9750.000000	68.111
9880.000000	67.870
10000.000000	67.686
10150.000000	67.491
10300.000000	67.316
10440.000000	67.153
10600.000000	66.952
10750.000000	66.735
10900.000000	66.482
11060.000000	66.168
11200.000000	65.855
11380.000000	65.407
11500.000000	65.085
11720.000000	64.475
11800.000000	64.255
12060.000000	63.609
12200.000000	63.358
12410.000000	63.234
12500.000000	63.312
12650.000000	63.663
12800.000000	64.304
13150.000000	66.700
13200.000000	67.105
13400.000000	68.765
13600.000000	70.391
13800.000000	71.884
14000.000000	73.175
14300.000000	74.633
14500.000000	75.243
14750.000000	75.581
15000.000000	75.457
15250.000000	74.911
15500.000000	74.002
15750.000000	72.815
16000.000000	71.461
16250.000000	70.087
16500.000000	68.882
16750.000000	68.046
17000.000000	67.700
17250.000000	67.786
17500.000000	68.107
17750.000000	68.451
18000.000000	68.663
18250.000000	68.655
18500.000000	68.390
18750.000000	67.865
19000.000000	67.106
19250.000000	66.164
19500.000000	65.124
19750.000000	64.154
