* Measurement data measured by REW V5.20.4
* Source: Frequency Response Averaged data
* Format: Averaged data produced from the rms magnitudes of Aug 7, Aug 7
* Dated: 07-Aug-2023 09:20:55
* REW Settings:
*  C-weighting compensation: Off
*  Target level: 75.0 dB
* Note: 
* Measurement: Basshead L
* Smoothing: 1/24 octave
* Frequency Step: 1/48 octave
* Start Frequency: 20.000 Hz
*
* Freq(Hz)	SPL(dB)
20.000000	81.387
20.299999	81.311
20.600000	81.237
20.900000	81.167
21.200001	81.099
21.400000	81.057
21.799999	80.977
22.000000	80.939
22.400000	80.870
22.700001	80.823
23.000000	80.779
23.299999	80.738
23.600000	80.699
24.000000	80.649
24.299999	80.613
24.700001	80.567
25.000000	80.533
25.400000	80.488
25.799999	80.445
26.200001	80.404
26.500000	80.374
26.900000	80.336
27.200001	80.308
27.600000	80.274
28.000000	80.241
28.500000	80.204
29.000000	80.170
29.500000	80.139
30.000000	80.112
30.400000	80.091
30.700001	80.076
31.100000	80.056
31.500000	80.037
32.000000	80.013
32.500000	79.988
33.000000	79.963
33.500000	79.937
34.000000	79.910
34.500000	79.881
35.000000	79.852
35.500000	79.822
36.000000	79.790
36.500000	79.758
37.000000	79.725
37.500000	79.692
38.200001	79.648
38.700001	79.619
39.500000	79.572
40.000000	79.543
40.599998	79.508
41.200001	79.472
41.799999	79.436
42.500000	79.395
43.099998	79.360
43.700001	79.325
44.400002	79.285
45.000000	79.250
45.500000	79.221
46.200001	79.179
46.799999	79.142
47.500000	79.098
48.200001	79.053
48.700001	79.021
49.400002	78.976
50.000000	78.937
50.799999	78.884
51.500000	78.837
52.200001	78.789
53.000000	78.733
53.799999	78.677
54.500000	78.628
55.200001	78.580
56.000000	78.524
57.000000	78.455
58.000000	78.387
59.000000	78.318
60.000000	78.249
60.799999	78.194
61.500000	78.145
62.200001	78.097
63.000000	78.041
64.000000	77.971
65.000000	77.902
66.000000	77.832
67.000000	77.763
68.000000	77.694
69.000000	77.626
70.000000	77.557
71.000000	77.489
72.000000	77.422
73.000000	77.356
74.000000	77.291
75.000000	77.226
76.199997	77.149
77.500000	77.066
78.800003	76.983
80.000000	76.908
81.199997	76.833
82.500000	76.752
83.800003	76.673
85.000000	76.600
86.199997	76.529
87.500000	76.451
88.500000	76.392
90.000000	76.303
91.199997	76.232
92.500000	76.155
93.800003	76.079
95.000000	76.009
96.199997	75.939
97.500000	75.865
98.800003	75.791
100.000000	75.725
101.500000	75.644
103.000000	75.564
104.400002	75.491
106.000000	75.409
107.500000	75.332
109.000000	75.256
110.599998	75.175
112.000000	75.106
113.800003	75.017
115.000000	74.959
117.199997	74.853
118.000000	74.815
120.599998	74.694
122.000000	74.631
124.099998	74.537
125.000000	74.498
126.500000	74.433
128.000000	74.369
131.500000	74.221
132.000000	74.200
134.000000	74.118
136.000000	74.036
138.000000	73.956
140.000000	73.877
143.000000	73.762
145.000000	73.687
147.500000	73.596
150.000000	73.507
152.500000	73.419
155.000000	73.333
157.500000	73.249
160.000000	73.165
162.500000	73.082
165.000000	73.001
167.500000	72.922
170.000000	72.844
172.500000	72.767
175.000000	72.690
177.500000	72.613
180.000000	72.535
182.500000	72.457
185.000000	72.379
187.500000	72.301
190.000000	72.223
192.500000	72.148
195.000000	72.075
197.500000	72.007
200.000000	71.944
203.000000	71.877
206.000000	71.819
209.000000	71.773
212.000000	71.736
214.000000	71.716
218.000000	71.687
220.000000	71.676
224.000000	71.658
227.000000	71.645
230.000000	71.631
233.000000	71.616
236.000000	71.598
240.000000	71.571
243.000000	71.550
247.000000	71.519
250.000000	71.496
254.000000	71.465
258.000000	71.435
262.000000	71.404
265.000000	71.382
269.000000	71.353
272.000000	71.332
276.000000	71.306
280.000000	71.281
285.000000	71.253
290.000000	71.228
295.000000	71.205
300.000000	71.184
304.000000	71.168
307.000000	71.157
311.000000	71.142
315.000000	71.128
320.000000	71.112
325.000000	71.098
330.000000	71.086
335.000000	71.075
340.000000	71.067
345.000000	71.059
350.000000	71.051
355.000000	71.045
360.000000	71.039
365.000000	71.034
370.000000	71.030
375.000000	71.026
382.000000	71.021
387.000000	71.016
395.000000	71.010
400.000000	71.007
406.000000	71.003
412.000000	71.001
418.000000	70.999
425.000000	70.999
431.000000	70.999
437.000000	71.000
444.000000	71.003
450.000000	71.006
455.000000	71.008
462.000000	71.012
468.000000	71.015
475.000000	71.018
482.000000	71.019
487.000000	71.020
494.000000	71.020
500.000000	71.020
508.000000	71.020
515.000000	71.020
522.000000	71.020
530.000000	71.019
538.000000	71.018
545.000000	71.017
552.000000	71.016
560.000000	71.014
570.000000	71.010
580.000000	71.006
590.000000	71.001
600.000000	70.996
608.000000	70.991
615.000000	70.987
622.000000	70.982
630.000000	70.977
640.000000	70.970
650.000000	70.963
660.000000	70.955
670.000000	70.948
680.000000	70.940
690.000000	70.932
700.000000	70.924
710.000000	70.917
720.000000	70.910
730.000000	70.905
740.000000	70.901
750.000000	70.898
762.000000	70.896
775.000000	70.895
788.000000	70.897
800.000000	70.901
812.000000	70.907
825.000000	70.917
838.000000	70.931
850.000000	70.947
862.000000	70.966
875.000000	70.992
885.000000	71.015
900.000000	71.054
912.000000	71.089
925.000000	71.132
938.000000	71.178
950.000000	71.224
962.000000	71.273
975.000000	71.330
988.000000	71.390
1000.000000	71.448
1015.000000	71.524
1030.000000	71.603
1044.000000	71.679
1060.000000	71.768
1075.000000	71.853
1090.000000	71.938
1106.000000	72.029
1120.000000	72.109
1138.000000	72.210
1150.000000	72.276
1172.000000	72.395
1180.000000	72.437
1206.000000	72.569
1220.000000	72.638
1241.000000	72.735
1250.000000	72.776
1265.000000	72.840
1280.000000	72.903
1315.000000	73.039
1320.000000	73.058
1340.000000	73.130
1360.000000	73.198
1380.000000	73.263
1400.000000	73.326
1430.000000	73.416
1450.000000	73.475
1475.000000	73.547
1500.000000	73.619
1525.000000	73.692
1550.000000	73.765
1575.000000	73.841
1600.000000	73.919
1625.000000	74.000
1650.000000	74.084
1675.000000	74.172
1700.000000	74.265
1725.000000	74.363
1750.000000	74.467
1775.000000	74.577
1800.000000	74.693
1825.000000	74.816
1850.000000	74.946
1875.000000	75.082
1900.000000	75.227
1925.000000	75.379
1950.000000	75.538
1975.000000	75.706
2000.000000	75.881
2030.000000	76.100
2060.000000	76.329
2090.000000	76.567
2120.000000	76.811
2140.000000	76.977
2180.000000	77.314
2200.000000	77.484
2240.000000	77.822
2270.000000	78.073
2300.000000	78.320
2330.000000	78.560
2360.000000	78.793
2400.000000	79.088
2430.000000	79.298
2470.000000	79.557
2500.000000	79.736
2540.000000	79.951
2580.000000	80.138
2620.000000	80.298
2650.000000	80.400
2690.000000	80.514
2720.000000	80.583
2760.000000	80.656
2800.000000	80.708
2850.000000	80.746
2900.000000	80.759
2950.000000	80.748
3000.000000	80.717
3040.000000	80.679
3070.000000	80.644
3110.000000	80.590
3150.000000	80.529
3200.000000	80.442
3250.000000	80.348
3300.000000	80.248
3350.000000	80.144
3400.000000	80.037
3450.000000	79.929
3500.000000	79.820
3550.000000	79.712
3600.000000	79.606
3650.000000	79.502
3700.000000	79.400
3750.000000	79.300
3820.000000	79.166
3870.000000	79.073
3950.000000	78.929
4000.000000	78.842
4060.000000	78.738
4120.000000	78.635
4180.000000	78.532
4250.000000	78.411
4310.000000	78.305
4370.000000	78.197
4440.000000	78.067
4500.000000	77.952
4550.000000	77.852
4620.000000	77.707
4680.000000	77.577
4750.000000	77.417
4820.000000	77.251
4870.000000	77.130
4940.000000	76.961
5000.000000	76.819
5080.000000	76.640
5150.000000	76.499
5220.000000	76.378
5300.000000	76.265
5380.000000	76.182
5450.000000	76.133
5520.000000	76.102
5600.000000	76.086
5700.000000	76.082
5800.000000	76.086
5900.000000	76.087
6000.000000	76.079
6080.000000	76.063
6150.000000	76.043
6220.000000	76.018
6300.000000	75.984
6400.000000	75.936
6500.000000	75.887
6600.000000	75.841
6700.000000	75.805
6800.000000	75.784
6900.000000	75.785
7000.000000	75.814
7100.000000	75.878
7200.000000	75.983
7300.000000	76.130
7400.000000	76.318
7500.000000	76.536
7620.000000	76.816
7750.000000	77.094
7880.000000	77.288
8000.000000	77.344
8120.000000	77.250
8250.000000	76.967
8380.000000	76.502
8500.000000	75.939
8620.000000	75.283
8750.000000	74.512
8850.000000	73.905
9000.000000	73.020
9120.000000	72.361
9250.000000	71.716
9380.000000	71.151
9500.000000	70.701
9620.000000	70.316
9750.000000	69.965
9880.000000	69.672
10000.000000	69.442
10150.000000	69.194
10300.000000	68.971
10440.000000	68.770
10600.000000	68.532
10750.000000	68.286
10900.000000	68.009
11060.000000	67.672
11200.000000	67.342
11380.000000	66.873
11500.000000	66.538
11720.000000	65.899
11800.000000	65.666
12060.000000	64.964
12200.000000	64.667
12410.000000	64.444
12500.000000	64.468
12650.000000	64.715
12800.000000	65.249
13150.000000	67.463
13200.000000	67.853
13400.000000	69.491
13600.000000	71.141
13800.000000	72.699
14000.000000	74.090
14300.000000	75.744
14500.000000	76.495
14750.000000	76.985
15000.000000	76.961
15250.000000	76.453
15500.000000	75.534
15750.000000	74.307
16000.000000	72.896
16250.000000	71.450
16500.000000	70.161
16750.000000	69.240
17000.000000	68.837
17250.000000	68.919
17500.000000	69.293
17750.000000	69.726
18000.000000	70.041
18250.000000	70.126
18500.000000	69.933
18750.000000	69.455
19000.000000	68.720
19250.000000	67.786
19500.000000	66.743
19750.000000	65.765
