* Measurement data measured by REW V5.20.4
* Source: Trace Arithmetic result A * B
* Format: Trace Arithmetic result A * B
* Dated: 04-Feb-2022 16:49:35
* REW Settings:
*  C-weighting compensation: Off
*  Target level: 75.0 dB
* Note: Trace Arithmetic A times B A = X2HR R VSG B = VSG to Crin
* Measurement: X2HR R VSG to Crin
* Smoothing: 1/24 octave
* Frequency Step: 1/48 octave
* Start Frequency: 20.000 Hz
*
* Freq(Hz)	SPL(dB)
20.000000	70.143
20.299999	70.348
20.600000	70.539
20.900000	70.716
21.200001	70.879
21.400000	70.981
21.799999	71.170
22.000000	71.258
22.400000	71.424
22.700001	71.541
23.000000	71.654
23.299999	71.763
23.600000	71.868
24.000000	72.004
24.299999	72.105
24.700001	72.241
25.000000	72.345
25.400000	72.487
25.799999	72.634
26.200001	72.784
26.500000	72.897
26.900000	73.047
27.200001	73.158
27.600000	73.304
28.000000	73.448
28.500000	73.624
29.000000	73.795
29.500000	73.956
30.000000	74.106
30.400000	74.220
30.700001	74.304
31.100000	74.416
31.500000	74.530
32.000000	74.674
32.500000	74.819
33.000000	74.961
33.500000	75.097
34.000000	75.227
34.500000	75.351
35.000000	75.469
35.500000	75.583
36.000000	75.693
36.500000	75.799
37.000000	75.903
37.500000	76.004
38.200001	76.141
38.700001	76.236
39.500000	76.380
40.000000	76.463
40.599998	76.556
41.200001	76.641
41.799999	76.718
42.500000	76.800
43.099998	76.866
43.700001	76.931
44.400002	77.008
45.000000	77.075
45.500000	77.130
46.200001	77.203
46.799999	77.259
47.500000	77.319
48.200001	77.376
48.700001	77.416
49.400002	77.475
50.000000	77.526
50.799999	77.592
51.500000	77.641
52.200001	77.681
53.000000	77.716
53.799999	77.746
54.500000	77.771
55.200001	77.798
56.000000	77.831
57.000000	77.875
58.000000	77.913
59.000000	77.942
60.000000	77.958
60.799999	77.962
61.500000	77.961
62.200001	77.956
63.000000	77.948
64.000000	77.936
65.000000	77.928
66.000000	77.923
67.000000	77.921
68.000000	77.923
69.000000	77.925
70.000000	77.926
71.000000	77.925
72.000000	77.921
73.000000	77.913
74.000000	77.903
75.000000	77.892
76.199997	77.880
77.500000	77.867
78.800003	77.855
80.000000	77.843
81.199997	77.833
82.500000	77.822
83.800003	77.811
85.000000	77.802
86.199997	77.795
87.500000	77.789
88.500000	77.787
90.000000	77.787
91.199997	77.788
92.500000	77.788
93.800003	77.785
95.000000	77.780
96.199997	77.773
97.500000	77.763
98.800003	77.753
100.000000	77.744
101.500000	77.730
103.000000	77.713
104.400002	77.692
106.000000	77.665
107.500000	77.638
109.000000	77.610
110.599998	77.575
112.000000	77.539
113.800003	77.487
115.000000	77.448
117.199997	77.370
118.000000	77.340
120.599998	77.237
122.000000	77.178
124.099998	77.084
125.000000	77.043
126.500000	76.974
128.000000	76.906
131.500000	76.756
132.000000	76.735
134.000000	76.653
136.000000	76.571
138.000000	76.491
140.000000	76.410
143.000000	76.289
145.000000	76.209
147.500000	76.109
150.000000	76.011
152.500000	75.915
155.000000	75.821
157.500000	75.726
160.000000	75.629
162.500000	75.530
165.000000	75.436
167.500000	75.353
170.000000	75.285
172.500000	75.235
175.000000	75.202
177.500000	75.187
180.000000	75.185
182.500000	75.195
185.000000	75.215
187.500000	75.247
190.000000	75.290
192.500000	75.342
195.000000	75.400
197.500000	75.460
200.000000	75.520
203.000000	75.590
206.000000	75.658
209.000000	75.730
212.000000	75.806
214.000000	75.859
218.000000	75.963
220.000000	76.007
224.000000	76.066
227.000000	76.076
230.000000	76.057
233.000000	76.019
236.000000	75.974
240.000000	75.929
243.000000	75.917
247.000000	75.941
250.000000	75.986
254.000000	76.072
258.000000	76.174
262.000000	76.274
265.000000	76.339
269.000000	76.403
272.000000	76.431
276.000000	76.439
280.000000	76.418
285.000000	76.361
290.000000	76.280
295.000000	76.185
300.000000	76.082
304.000000	75.995
307.000000	75.927
311.000000	75.833
315.000000	75.736
320.000000	75.611
325.000000	75.484
330.000000	75.364
335.000000	75.269
340.000000	75.225
345.000000	75.258
350.000000	75.382
355.000000	75.579
360.000000	75.803
365.000000	75.997
370.000000	76.125
375.000000	76.173
382.000000	76.120
387.000000	76.014
395.000000	75.766
400.000000	75.591
406.000000	75.399
412.000000	75.260
418.000000	75.192
425.000000	75.217
431.000000	75.356
437.000000	75.630
444.000000	76.086
450.000000	76.479
455.000000	76.712
462.000000	76.801
468.000000	76.656
475.000000	76.326
482.000000	75.972
487.000000	75.770
494.000000	75.588
500.000000	75.510
508.000000	75.484
515.000000	75.512
522.000000	75.571
530.000000	75.652
538.000000	75.718
545.000000	75.745
552.000000	75.743
560.000000	75.712
570.000000	75.657
580.000000	75.608
590.000000	75.581
600.000000	75.580
608.000000	75.591
615.000000	75.604
622.000000	75.619
630.000000	75.647
640.000000	75.710
650.000000	75.810
660.000000	75.920
670.000000	76.016
680.000000	76.134
690.000000	76.358
700.000000	76.686
710.000000	76.960
720.000000	76.994
730.000000	76.754
740.000000	76.385
750.000000	76.103
762.000000	76.029
775.000000	76.184
788.000000	76.401
800.000000	76.572
812.000000	76.702
825.000000	76.814
838.000000	76.918
850.000000	77.011
862.000000	77.086
875.000000	77.106
885.000000	77.056
900.000000	76.882
912.000000	76.699
925.000000	76.497
938.000000	76.313
950.000000	76.171
962.000000	76.063
975.000000	75.989
988.000000	75.951
1000.000000	75.936
1015.000000	75.942
1030.000000	75.977
1044.000000	76.040
1060.000000	76.145
1075.000000	76.264
1090.000000	76.386
1106.000000	76.500
1120.000000	76.571
1138.000000	76.616
1150.000000	76.618
1172.000000	76.590
1180.000000	76.578
1206.000000	76.578
1220.000000	76.636
1241.000000	76.828
1250.000000	76.940
1265.000000	77.146
1280.000000	77.353
1315.000000	77.792
1320.000000	77.848
1340.000000	78.053
1360.000000	78.224
1380.000000	78.374
1400.000000	78.530
1430.000000	78.825
1450.000000	79.075
1475.000000	79.432
1500.000000	79.832
1525.000000	80.311
1550.000000	80.896
1575.000000	81.516
1600.000000	82.024
1625.000000	82.305
1650.000000	82.352
1675.000000	82.273
1700.000000	82.193
1725.000000	82.148
1750.000000	82.082
1775.000000	81.936
1800.000000	81.718
1825.000000	81.506
1850.000000	81.403
1875.000000	81.450
1900.000000	81.599
1925.000000	81.772
1950.000000	81.928
1975.000000	82.065
2000.000000	82.192
2030.000000	82.339
2060.000000	82.470
2090.000000	82.560
2120.000000	82.580
2140.000000	82.544
2180.000000	82.350
2200.000000	82.201
2240.000000	81.833
2270.000000	81.538
2300.000000	81.272
2330.000000	81.067
2360.000000	80.927
2400.000000	80.791
2430.000000	80.690
2470.000000	80.549
2500.000000	80.450
2540.000000	80.324
2580.000000	80.180
2620.000000	80.007
2650.000000	79.875
2690.000000	79.730
2720.000000	79.665
2760.000000	79.645
2800.000000	79.713
2850.000000	80.004
2900.000000	80.617
2950.000000	81.454
3000.000000	82.246
3040.000000	82.700
3070.000000	82.910
3110.000000	83.040
3150.000000	83.058
3200.000000	83.037
3250.000000	83.056
3300.000000	83.135
3350.000000	83.247
3400.000000	83.357
3450.000000	83.451
3500.000000	83.535
3550.000000	83.639
3600.000000	83.802
3650.000000	84.060
3700.000000	84.431
3750.000000	84.890
3820.000000	85.569
3870.000000	86.013
3950.000000	86.607
4000.000000	86.909
4060.000000	87.199
4120.000000	87.415
4180.000000	87.574
4250.000000	87.727
4310.000000	87.852
4370.000000	87.976
4440.000000	88.111
4500.000000	88.199
4550.000000	88.239
4620.000000	88.219
4680.000000	88.112
4750.000000	87.870
4820.000000	87.496
4870.000000	87.149
4940.000000	86.561
5000.000000	85.979
5080.000000	85.135
5150.000000	84.384
5220.000000	83.692
5300.000000	83.064
5380.000000	82.684
5450.000000	82.558
5520.000000	82.584
5600.000000	82.758
5700.000000	83.175
5800.000000	83.799
5900.000000	84.549
6000.000000	85.309
6080.000000	85.863
6150.000000	86.280
6220.000000	86.620
6300.000000	86.901
6400.000000	87.069
6500.000000	86.991
6600.000000	86.616
6700.000000	85.919
6800.000000	84.921
6900.000000	83.685
7000.000000	82.309
7100.000000	80.905
7200.000000	79.604
7300.000000	78.557
7400.000000	77.919
7500.000000	77.806
7620.000000	78.342
7750.000000	79.453
7880.000000	80.701
8000.000000	81.721
8120.000000	82.490
8250.000000	82.969
8380.000000	83.052
8500.000000	82.794
8620.000000	82.256
8750.000000	81.409
8850.000000	80.610
9000.000000	79.311
9120.000000	78.397
9250.000000	77.778
9380.000000	77.605
9500.000000	77.720
9620.000000	77.945
9750.000000	78.173
9880.000000	78.276
10000.000000	78.205
10150.000000	77.873
10300.000000	77.313
10440.000000	76.639
10600.000000	75.742
10750.000000	74.802
10900.000000	73.800
11060.000000	72.740
11200.000000	71.913
11380.000000	71.131
11500.000000	70.847
11720.000000	70.929
11800.000000	71.170
12060.000000	72.615
12200.000000	73.596
12410.000000	74.900
12500.000000	75.309
12650.000000	75.724
12800.000000	75.788
13150.000000	74.829
13200.000000	74.617
13400.000000	73.774
13600.000000	73.128
13800.000000	72.797
14000.000000	72.707
14300.000000	72.637
14500.000000	72.408
14750.000000	71.804
15000.000000	70.913
15250.000000	69.983
15500.000000	69.464
15750.000000	69.694
16000.000000	70.343
16250.000000	70.784
16500.000000	70.704
16750.000000	70.116
17000.000000	69.150
17250.000000	67.900
17500.000000	66.397
17750.000000	64.660
18000.000000	62.744
18250.000000	60.748
18500.000000	58.798
18750.000000	57.018
19000.000000	55.515
19250.000000	54.407
19500.000000	53.744
19750.000000	53.431
