* Measurement data measured by REW V5.20.4
* Source: Trace Arithmetic result Merge B to A
* Format: Trace Arithmetic result Merge B to A
* Dated: 15-Aug-2023 09:01:40
* REW Settings:
*  C-weighting compensation: Off
*  Target level: 75.0 dB
* Note: 
* Measurement: Ploopy L DSP
* Smoothing: 1/24 octave
* Frequency Step: 1/48 octave
* Start Frequency: 20.000 Hz
*
* Freq(Hz)	SPL(dB)
20.000000	55.766
20.299999	55.867
20.600000	55.969
20.900000	56.071
21.200001	56.171
21.400000	56.234
21.799999	56.355
22.000000	56.410
22.400000	56.508
22.700001	56.570
23.000000	56.623
23.299999	56.668
23.600000	56.707
24.000000	56.754
24.299999	56.785
24.700001	56.823
25.000000	56.847
25.400000	56.873
25.799999	56.894
26.200001	56.911
26.500000	56.926
26.900000	56.950
27.200001	56.973
27.600000	57.009
28.000000	57.050
28.500000	57.104
29.000000	57.156
29.500000	57.206
30.000000	57.253
30.400000	57.288
30.700001	57.313
31.100000	57.344
31.500000	57.372
32.000000	57.404
32.500000	57.431
33.000000	57.458
33.500000	57.488
34.000000	57.527
34.500000	57.582
35.000000	57.659
35.500000	57.765
36.000000	57.905
36.500000	58.088
37.000000	58.317
37.500000	58.593
38.200001	59.048
38.700001	59.410
39.500000	60.013
40.000000	60.382
40.599998	60.793
41.200001	61.151
41.799999	61.446
42.500000	61.702
43.099998	61.849
43.700001	61.935
44.400002	61.969
45.000000	61.954
45.500000	61.918
46.200001	61.845
46.799999	61.770
47.500000	61.680
48.200001	61.593
48.700001	61.533
49.400002	61.453
50.000000	61.386
50.799999	61.300
51.500000	61.228
52.200001	61.160
53.000000	61.088
53.799999	61.019
54.500000	60.957
55.200001	60.892
56.000000	60.810
57.000000	60.697
58.000000	60.573
59.000000	60.442
60.000000	60.307
60.799999	60.200
61.500000	60.108
62.200001	60.017
63.000000	59.918
64.000000	59.799
65.000000	59.690
66.000000	59.591
67.000000	59.506
68.000000	59.431
69.000000	59.366
70.000000	59.306
71.000000	59.247
72.000000	59.185
73.000000	59.117
74.000000	59.042
75.000000	58.958
76.199997	58.852
77.500000	58.735
78.800003	58.620
80.000000	58.518
81.199997	58.422
82.500000	58.325
83.800003	58.235
85.000000	58.157
86.199997	58.082
87.500000	58.002
88.500000	57.939
90.000000	57.842
91.199997	57.766
92.500000	57.686
93.800003	57.609
95.000000	57.542
96.199997	57.476
97.500000	57.404
98.800003	57.330
100.000000	57.262
101.500000	57.177
103.000000	57.093
104.400002	57.015
106.000000	56.924
107.500000	56.836
109.000000	56.747
110.599998	56.650
112.000000	56.566
113.800003	56.460
115.000000	56.390
117.199997	56.264
118.000000	56.220
120.599998	56.081
122.000000	56.010
124.099998	55.906
125.000000	55.863
126.500000	55.792
128.000000	55.725
131.500000	55.580
132.000000	55.562
134.000000	55.492
136.000000	55.432
138.000000	55.377
140.000000	55.327
143.000000	55.249
145.000000	55.194
147.500000	55.121
150.000000	55.047
152.500000	54.976
155.000000	54.912
157.500000	54.856
160.000000	54.805
162.500000	54.757
165.000000	54.708
167.500000	54.658
170.000000	54.603
172.500000	54.542
175.000000	54.471
177.500000	54.391
180.000000	54.302
182.500000	54.208
185.000000	54.116
187.500000	54.031
190.000000	53.957
192.500000	53.894
195.000000	53.841
197.500000	53.797
200.000000	53.761
203.000000	53.729
206.000000	53.710
209.000000	53.704
212.000000	53.709
214.000000	53.717
218.000000	53.741
220.000000	53.756
224.000000	53.792
227.000000	53.826
230.000000	53.869
233.000000	53.921
236.000000	53.983
240.000000	54.078
243.000000	54.156
247.000000	54.267
250.000000	54.352
254.000000	54.462
258.000000	54.561
262.000000	54.645
265.000000	54.698
269.000000	54.763
272.000000	54.812
276.000000	54.881
280.000000	54.950
285.000000	55.021
290.000000	55.058
295.000000	55.054
300.000000	55.015
304.000000	54.970
307.000000	54.934
311.000000	54.889
315.000000	54.852
320.000000	54.822
325.000000	54.806
330.000000	54.800
335.000000	54.797
340.000000	54.787
345.000000	54.762
350.000000	54.709
355.000000	54.616
360.000000	54.465
365.000000	54.241
370.000000	53.926
375.000000	53.506
382.000000	52.735
387.000000	52.075
395.000000	50.965
400.000000	50.371
406.000000	49.918
412.000000	49.835
418.000000	50.081
425.000000	50.624
431.000000	51.177
437.000000	51.732
444.000000	52.336
450.000000	52.798
455.000000	53.140
462.000000	53.552
468.000000	53.849
475.000000	54.136
482.000000	54.365
487.000000	54.493
494.000000	54.620
500.000000	54.677
508.000000	54.671
515.000000	54.586
522.000000	54.429
530.000000	54.174
538.000000	53.857
545.000000	53.548
552.000000	53.231
560.000000	52.883
570.000000	52.509
580.000000	52.257
590.000000	52.194
600.000000	52.391
608.000000	52.760
615.000000	53.223
622.000000	53.780
630.000000	54.471
640.000000	55.307
650.000000	56.013
660.000000	56.526
670.000000	56.832
680.000000	56.946
690.000000	56.904
700.000000	56.751
710.000000	56.529
720.000000	56.272
730.000000	56.007
740.000000	55.755
750.000000	55.525
762.000000	55.286
775.000000	55.076
788.000000	54.912
800.000000	54.796
812.000000	54.709
825.000000	54.645
838.000000	54.610
850.000000	54.599
862.000000	54.603
875.000000	54.612
885.000000	54.616
900.000000	54.609
912.000000	54.593
925.000000	54.574
938.000000	54.563
950.000000	54.568
962.000000	54.591
975.000000	54.636
988.000000	54.699
1000.000000	54.767
1015.000000	54.849
1030.000000	54.908
1044.000000	54.919
1060.000000	54.855
1075.000000	54.705
1090.000000	54.471
1106.000000	54.160
1120.000000	53.882
1138.000000	53.589
1150.000000	53.462
1172.000000	53.382
1180.000000	53.394
1206.000000	53.523
1220.000000	53.629
1241.000000	53.812
1250.000000	53.897
1265.000000	54.043
1280.000000	54.197
1315.000000	54.571
1320.000000	54.625
1340.000000	54.844
1360.000000	55.066
1380.000000	55.292
1400.000000	55.526
1430.000000	55.894
1450.000000	56.150
1475.000000	56.472
1500.000000	56.789
1525.000000	57.089
1550.000000	57.369
1575.000000	57.633
1600.000000	57.889
1625.000000	58.145
1650.000000	58.407
1675.000000	58.673
1700.000000	58.938
1725.000000	59.196
1750.000000	59.438
1775.000000	59.659
1800.000000	59.856
1825.000000	60.029
1850.000000	60.186
1875.000000	60.334
1900.000000	60.484
1925.000000	60.643
1950.000000	60.813
1975.000000	60.989
2000.000000	61.165
2030.000000	61.360
2060.000000	61.520
2090.000000	61.626
2120.000000	61.670
2140.000000	61.666
2180.000000	61.590
2200.000000	61.525
2240.000000	61.357
2270.000000	61.199
2300.000000	60.992
2330.000000	60.738
2360.000000	60.497
2400.000000	60.258
2430.000000	60.125
2470.000000	59.999
2500.000000	59.958
2540.000000	59.979
2580.000000	60.071
2620.000000	60.214
2650.000000	60.351
2690.000000	60.563
2720.000000	60.727
2760.000000	60.928
2800.000000	61.114
2850.000000	61.448
2900.000000	62.075
2950.000000	62.972
3000.000000	63.895
3040.000000	64.495
3070.000000	64.829
3110.000000	65.126
3150.000000	65.292
3200.000000	65.397
3250.000000	65.447
3300.000000	65.452
3350.000000	65.397
3400.000000	65.271
3450.000000	65.081
3500.000000	64.849
3550.000000	64.612
3600.000000	64.409
3650.000000	64.277
3700.000000	64.236
3750.000000	64.265
3820.000000	64.322
3870.000000	64.309
3950.000000	64.172
4000.000000	64.034
4060.000000	63.836
4120.000000	63.614
4180.000000	63.393
4250.000000	63.178
4310.000000	63.060
4370.000000	63.018
4440.000000	63.060
4500.000000	63.157
4550.000000	63.258
4620.000000	63.386
4680.000000	63.436
4750.000000	63.370
4820.000000	63.133
4870.000000	62.856
4940.000000	62.334
5000.000000	61.794
5080.000000	61.011
5150.000000	60.344
5220.000000	59.774
5300.000000	59.332
5380.000000	59.164
5450.000000	59.210
5520.000000	59.354
5600.000000	59.538
5700.000000	59.700
5800.000000	59.760
5900.000000	59.758
6000.000000	59.799
6080.000000	59.958
6150.000000	60.238
6220.000000	60.660
6300.000000	61.282
6400.000000	62.140
6500.000000	62.891
6600.000000	63.367
6700.000000	63.479
6800.000000	63.226
6900.000000	62.671
7000.000000	61.906
7100.000000	61.033
7200.000000	60.155
7300.000000	59.374
7400.000000	58.779
7500.000000	58.419
7620.000000	58.260
7750.000000	58.254
7880.000000	58.220
8000.000000	58.069
8120.000000	57.764
8250.000000	57.229
8380.000000	56.453
8500.000000	55.530
8620.000000	54.452
8750.000000	53.182
8850.000000	52.194
9000.000000	50.878
9120.000000	50.205
9250.000000	50.077
9380.000000	50.562
9500.000000	51.386
9620.000000	52.410
9750.000000	53.595
9880.000000	54.713
10000.000000	55.580
10150.000000	56.348
10300.000000	56.736
10440.000000	56.771
10600.000000	56.469
10750.000000	55.907
10900.000000	55.137
11060.000000	54.170
11200.000000	53.284
11380.000000	52.219
11500.000000	51.629
11720.000000	50.990
11800.000000	50.945
12060.000000	51.506
12200.000000	52.088
12410.000000	52.901
12500.000000	53.134
12650.000000	53.292
12800.000000	53.134
13150.000000	51.745
13200.000000	51.480
13400.000000	50.447
13600.000000	49.658
13800.000000	49.234
14000.000000	49.099
14300.000000	49.082
14500.000000	49.028
14750.000000	48.882
15000.000000	48.738
15250.000000	48.802
15500.000000	49.424
15750.000000	50.748
16000.000000	52.285
16250.000000	53.419
16500.000000	53.899
16750.000000	53.811
17000.000000	53.379
17250.000000	52.806
17500.000000	52.190
17750.000000	51.545
18000.000000	50.874
18250.000000	50.221
18500.000000	49.674
18750.000000	49.322
19000.000000	49.246
19250.000000	49.502
19500.000000	50.023
19750.000000	50.567
