* Measurement data measured by REW V5.20
* Source: /Users/mrs/Desktop/VSG L.txt
* Format: Comma/Tab/Space delimited data
* Dated: Aug 18, 2022 6:16:55 AM
* REW Settings:
*  C-weighting compensation: Off
*  Target level: 75.0 dB
* Note: Measurement imported from /Users/mrs/Desktop/VSG L.txt Format: Comma/Tab/Space delimited data 480 values loaded, 20 Hz to 19,753 Hz log spaced
* Measurement: VSG L
* Smoothing: 1/48 octave
* Frequency Step: 1/48 octave
* Start Frequency: 20.000 Hz
*
* Freq(Hz)	SPL(dB)	Phase(degrees)
20.000000	82.530998	145.1000
20.299999	82.593979	144.7999
20.600000	82.654984	144.5002
20.900000	82.718056	144.2401
21.200001	82.792053	144.0200
21.400000	82.851028	143.8795
21.799999	82.991936	143.5606
22.000000	83.071800	143.3509
22.400000	83.242020	142.7783
22.700001	83.368835	142.2317
23.000000	83.489952	141.6397
23.299999	83.606964	141.0305
23.600000	83.724037	140.4401
24.000000	83.890106	139.6603
24.299999	84.024994	139.0500
24.700001	84.217056	138.1388
25.000000	84.363976	137.3497
25.400000	84.553947	136.1700
25.799999	84.730904	134.9003
26.200001	84.894966	133.5905
26.500000	85.012978	132.6002
26.900000	85.168999	131.2801
27.200001	85.286972	130.2694
27.600000	85.442123	128.8498
28.000000	85.590851	127.3492
28.500000	85.757957	125.3903
29.000000	85.903030	123.4205
29.500000	86.032990	121.4704
30.000000	86.152000	119.5498
30.400000	86.238991	118.0202
30.700001	86.294083	116.8993
31.100000	86.356819	115.4907
31.500000	86.412956	114.2612
32.000000	86.505135	113.0212
32.500000	86.658455	111.9892
33.000000	86.886322	110.8271
33.500000	87.159698	109.2456
34.000000	87.425377	107.1487
34.500000	87.644531	104.7020
35.000000	87.809875	102.1631
35.500000	87.937180	99.7020
36.000000	88.046127	97.3501
36.500000	88.145996	95.0602
37.000000	88.237999	92.8001
37.500000	88.321976	90.5606
38.200001	88.427032	87.4910
38.700001	88.497040	85.3300
39.500000	88.602928	81.8902
40.000000	88.663986	79.7506
40.599998	88.730995	77.2006
41.200001	88.792984	74.6807
41.799999	88.851006	72.1907
42.500000	88.916985	69.3105
43.099998	88.970001	66.8504
43.700001	89.016945	64.3907
44.400002	89.060959	61.5407
45.000000	89.090996	59.1312
45.500000	89.110992	57.1605
46.200001	89.133987	54.4506
46.799999	89.147903	52.1914
47.500000	89.165062	49.6714
48.200001	89.196960	47.2622
48.700001	89.236931	45.5592
49.400002	89.311058	43.0488
50.000000	89.374855	40.7502
50.799999	89.436852	37.5713
51.500000	89.468994	34.8109
52.200001	89.494034	32.1106
53.000000	89.517982	29.0609
53.799999	89.533997	26.0610
54.500000	89.545052	23.4810
55.200001	89.555954	20.9205
56.000000	89.564972	18.0010
57.000000	89.570992	14.3810
58.000000	89.573090	10.8009
59.000000	89.573967	7.2511
60.000000	89.570992	3.7308
60.799999	89.566002	0.9311
61.500000	89.560997	-1.4895
62.200001	89.555008	-3.8986
63.000000	89.546997	-6.6289
64.000000	89.535004	-10.0187
65.000000	89.521042	-13.3787
66.000000	89.507019	-16.7190
67.000000	89.490944	-20.0485
68.000000	89.471062	-23.3589
69.000000	89.448975	-26.6482
70.000000	89.424004	-29.9091
71.000000	89.397041	-33.1475
72.000000	89.368996	-36.3493
73.000000	89.340073	-39.5381
74.000000	89.310959	-42.7087
75.000000	89.279015	-45.8683
76.199997	89.238983	-49.6287
77.500000	89.193069	-53.6782
78.800003	89.146011	-57.6884
80.000000	89.100021	-61.3584
81.199997	89.052040	-65.0081
82.500000	88.999977	-68.9286
83.800003	88.946091	-72.8275
85.000000	88.896042	-76.3990
86.199997	88.843925	-79.9680
87.500000	88.783150	-83.8069
88.500000	88.736031	-86.7281
90.000000	88.663063	-91.0975
91.199997	88.604012	-94.5581
92.500000	88.538078	-98.2878
93.800003	88.473022	-101.9880
95.000000	88.410065	-105.3875
96.199997	88.346039	-108.7581
97.500000	88.276108	-112.3878
98.800003	88.206017	-115.9979
100.000000	88.139038	-119.3177
101.500000	88.052055	-123.4375
103.000000	87.962051	-127.5176
104.400002	87.878067	-131.2978
106.000000	87.782051	-135.6075
107.500000	87.690063	-139.6373
109.000000	87.597092	-143.6279
110.599998	87.498055	-147.8672
112.000000	87.409035	-151.5476
113.800003	87.292130	-156.2370
115.000000	87.213043	-159.3373
117.199997	87.064148	-164.9770
118.000000	87.008957	-167.0173
120.599998	86.826141	-173.5773
122.000000	86.726913	-177.0869
124.099998	86.572182	177.6830
125.000000	86.505020	175.4532
126.500000	86.391319	171.7627
128.000000	86.276077	168.0930
131.500000	85.993134	159.6423
132.000000	85.950462	158.4539
134.000000	85.773918	153.7636
136.000000	85.594040	149.1925
138.000000	85.416824	144.7548
140.000000	85.254623	140.4850
143.000000	85.061768	134.2620
145.000000	84.964821	130.0211
147.500000	84.849869	124.4522
150.000000	84.711052	118.7037
152.500000	84.540985	112.9243
155.000000	84.343201	107.2249
157.500000	84.129211	101.6633
160.000000	83.906143	96.2136
162.500000	83.672089	90.8835
165.000000	83.423172	85.7243
167.500000	83.166824	80.8337
170.000000	82.913063	76.2673
172.500000	82.695755	72.0566
175.000000	82.556190	68.0116
177.500000	82.501259	63.7462
180.000000	82.478134	58.9615
182.500000	82.418686	53.7452
185.000000	82.303116	48.3659
187.500000	82.144150	43.0648
190.000000	81.961189	37.9149
192.500000	81.765198	32.9147
195.000000	81.563202	28.0335
197.500000	81.360260	23.2345
200.000000	81.161201	18.5246
203.000000	80.925186	12.9846
206.000000	80.688202	7.5344
209.000000	80.450195	2.1645
212.000000	80.215195	-3.1255
214.000000	80.060257	-6.5960
218.000000	79.757248	-13.4258
220.000000	79.607193	-16.7855
224.000000	79.306183	-23.3853
227.000000	79.084351	-28.2352
230.000000	78.869141	-33.0055
233.000000	78.658195	-37.7155
236.000000	78.453239	-42.3856
240.000000	78.190285	-48.5553
243.000000	78.000099	-53.1355
247.000000	77.747292	-59.1853
250.000000	77.564117	-63.6649
254.000000	77.325188	-69.5452
258.000000	77.096268	-75.3356
262.000000	76.880035	-81.0552
265.000000	76.722221	-85.2848
269.000000	76.520149	-90.8152
272.000000	76.374191	-94.8948
276.000000	76.189224	-100.2983
280.000000	76.014000	-105.7238
285.000000	75.805161	-112.4247
290.000000	75.614212	-118.9946
295.000000	75.443130	-125.4854
300.000000	75.289154	-131.9650
304.000000	75.178040	-137.1642
307.000000	75.099091	-141.0338
311.000000	75.002129	-146.1445
315.000000	74.915016	-151.2354
320.000000	74.814087	-157.6343
325.000000	74.726189	-164.0533
330.000000	74.654915	-170.4340
335.000000	74.587860	-176.7836
340.000000	74.524399	176.8850
345.000000	74.475021	170.5367
350.000000	74.432762	164.1971
355.000000	74.391212	157.8765
360.000000	74.358139	151.5352
365.000000	74.332870	145.1371
370.000000	74.308067	138.7377
375.000000	74.288025	132.3868
382.000000	74.264954	123.4468
387.000000	74.253120	117.0385
395.000000	74.245010	106.8062
400.000000	74.240967	100.4178
406.000000	74.233009	92.7680
412.000000	74.225014	85.1080
418.000000	74.218010	77.4482
425.000000	74.210876	68.5190
431.000000	74.202042	60.9080
437.000000	74.195076	53.3088
444.000000	74.192947	44.4889
450.000000	74.190994	36.9679
455.000000	74.186928	30.6887
462.000000	74.175995	21.9092
468.000000	74.164124	14.3986
475.000000	74.153061	5.6494
482.000000	74.143990	-3.0499
487.000000	74.136017	-9.2400
494.000000	74.122040	-17.8806
500.000000	74.108986	-25.2597
508.000000	74.088997	-35.0298
515.000000	74.070030	-43.5497
522.000000	74.048988	-52.0197
530.000000	74.021011	-61.6298
538.000000	73.991043	-71.1896
545.000000	73.967018	-79.5085
552.000000	73.941940	-87.7490
560.000000	73.911049	-97.0795
570.000000	73.874031	-108.6289
580.000000	73.842834	-120.0593
590.000000	73.820343	-131.3984
600.000000	73.821991	-142.6488
608.000000	73.832954	-151.6279
615.000000	73.844193	-159.5192
622.000000	73.853973	-167.4678
630.000000	73.852898	-176.5776
640.000000	73.832031	172.1123
650.000000	73.794128	160.9130
660.000000	73.752060	149.8435
670.000000	73.709122	138.9226
680.000000	73.666901	128.1228
690.000000	73.623192	117.4226
700.000000	73.583046	106.8136
710.000000	73.545029	96.3130
720.000000	73.506958	85.9138
730.000000	73.468086	75.6135
740.000000	73.433090	65.3838
750.000000	73.405037	55.2341
762.000000	73.375992	43.2135
775.000000	73.344940	30.3250
788.000000	73.315155	17.5834
800.000000	73.294945	5.9147
812.000000	73.275032	-5.6254
825.000000	73.265175	-17.9956
838.000000	73.272766	-30.2456
850.000000	73.281868	-41.4642
862.000000	73.292084	-52.5848
875.000000	73.311913	-64.5352
885.000000	73.334023	-73.6646
900.000000	73.380020	-87.2347
912.000000	73.425919	-97.9943
925.000000	73.481918	-109.5839
938.000000	73.547920	-121.1138
950.000000	73.620773	-131.7065
962.000000	73.698029	-142.2388
975.000000	73.783913	-153.3732
988.000000	73.862579	-163.2588
1000.000000	73.916893	-168.9642
1015.000000	73.991158	-169.5996
1030.000000	74.100822	-166.1139
1044.000000	74.220749	-162.0737
1060.000000	74.364792	-157.4567
1075.000000	74.502754	-153.2358
1090.000000	74.641861	-149.0857
1106.000000	74.793777	-144.7264
1120.000000	74.927719	-140.9951
1138.000000	75.099976	-136.2961
1150.000000	75.215668	-133.2456
1172.000000	75.417870	-127.7963
1180.000000	75.488678	-125.8448
1206.000000	75.710777	-119.5754
1220.000000	75.825798	-116.2670
1241.000000	75.993927	-111.4155
1250.000000	76.065689	-109.3566
1265.000000	76.182922	-105.9447
1280.000000	76.296806	-102.5261
1315.000000	76.544632	-94.6393
1320.000000	76.580688	-93.5234
1340.000000	76.734322	-89.0649
1360.000000	76.907867	-84.7092
1380.000000	77.086540	-80.5879
1400.000000	77.246529	-76.6646
1430.000000	77.445595	-70.8835
1450.000000	77.556946	-66.9969
1475.000000	77.681900	-62.1165
1500.000000	77.804832	-57.2366
1525.000000	77.930908	-52.3451
1550.000000	78.065979	-47.4480
1575.000000	78.209808	-42.6577
1600.000000	78.352760	-38.0068
1625.000000	78.484795	-33.4363
1650.000000	78.605812	-28.8267
1675.000000	78.723877	-24.1770
1700.000000	78.852997	-19.5266
1725.000000	79.003906	-14.9282
1750.000000	79.173714	-10.4678
1775.000000	79.348557	-6.1771
1800.000000	79.514633	-2.0370
1825.000000	79.667778	1.9939
1850.000000	79.812759	5.9832
1875.000000	79.951759	9.9432
1900.000000	80.087769	13.8727
1925.000000	80.223755	17.7531
1950.000000	80.361664	21.5927
1975.000000	80.503708	25.4034
2000.000000	80.656769	29.2148
2030.000000	80.871902	33.7441
2060.000000	81.131767	38.0028
2090.000000	81.407387	41.6825
2120.000000	81.641045	44.7668
2140.000000	81.758163	46.6379
2180.000000	81.913452	50.2141
2200.000000	81.959961	51.9952
2240.000000	81.994164	55.6276
2270.000000	81.979294	58.5159
2300.000000	81.949188	61.5946
2330.000000	81.928093	64.7744
2360.000000	81.928154	67.8890
2400.000000	81.921837	71.6738
2430.000000	81.871468	74.2864
2470.000000	81.723175	77.8053
2500.000000	81.567467	80.6558
2540.000000	81.336441	84.7836
2580.000000	81.108368	89.1827
2620.000000	80.881363	93.7524
2650.000000	80.711365	97.2625
2690.000000	80.484360	102.0414
2720.000000	80.312431	105.7306
2760.000000	80.084290	110.7913
2800.000000	79.860397	115.9807
2850.000000	79.594383	122.6204
2900.000000	79.350372	129.3910
2950.000000	79.132393	136.3107
3000.000000	78.942268	143.3291
3040.000000	78.811188	148.9277
3070.000000	78.724098	153.0886
3110.000000	78.616180	158.6189
3150.000000	78.515167	164.1892
3200.000000	78.410179	171.1991
3250.000000	78.343117	178.2480
3300.000000	78.319016	-174.7520
3350.000000	78.328857	-167.8317
3400.000000	78.362892	-161.0326
3450.000000	78.419952	-154.4119
3500.000000	78.500938	-147.9817
3550.000000	78.601746	-141.7419
3600.000000	78.711685	-135.6918
3650.000000	78.821770	-129.8113
3700.000000	78.931786	-124.0715
3750.000000	79.043808	-118.4510
3820.000000	79.207703	-110.7325
3870.000000	79.331696	-105.3608
3950.000000	79.545792	-96.9714
4000.000000	79.691635	-91.8407
4060.000000	79.873657	-85.7908
4120.000000	80.058571	-79.8609
4180.000000	80.245682	-74.0606
4250.000000	80.479797	-67.4615
4310.000000	80.697472	-61.9809
4370.000000	80.922493	-56.6603
4440.000000	81.188583	-50.5684
4500.000000	81.434669	-45.3696
4550.000000	81.672142	-41.1143
4620.000000	82.046318	-35.5430
4680.000000	82.365593	-31.2169
4750.000000	82.710220	-26.4880
4820.000000	83.037521	-21.9471
4870.000000	83.273308	-18.7985
4940.000000	83.611336	-14.5284
5000.000000	83.910431	-11.0084
5080.000000	84.327240	-6.5577
5150.000000	84.709137	-2.9364
5220.000000	85.103180	0.3922
5300.000000	85.563118	3.7932
5380.000000	86.027107	6.7554
5450.000000	86.434067	8.9680
5520.000000	86.839394	10.7999
5600.000000	87.297325	12.3662
5700.000000	87.840256	13.4282
5800.000000	88.314232	13.4282
5900.000000	88.675003	12.3489
6000.000000	88.881859	10.4138
6080.000000	88.907455	8.5052
6150.000000	88.818810	6.8141
6220.000000	88.631531	5.2834
6300.000000	88.314087	3.9249
6400.000000	87.801880	2.9917
6500.000000	87.211205	3.0695
6600.000000	86.606705	4.1683
6700.000000	86.057526	6.0304
6800.000000	85.572243	8.2133
6900.000000	85.122597	10.6790
7000.000000	84.725174	13.5442
7100.000000	84.417839	16.6730
7200.000000	84.215393	19.8617
7300.000000	84.113060	22.9031
7400.000000	84.100914	25.6843
7500.000000	84.177841	28.1155
7620.000000	84.391533	30.3965
7750.000000	84.772980	31.7869
7880.000000	85.292526	31.6456
8000.000000	85.851639	29.6598
8120.000000	86.399529	25.3264
8250.000000	86.818954	17.5537
8380.000000	86.830994	6.9510
8500.000000	86.336029	-3.8172
8620.000000	85.346481	-13.6693
8750.000000	83.863327	-21.9155
8850.000000	82.565887	-26.2849
9000.000000	80.557045	-30.0869
9120.000000	78.991707	-31.3785
9250.000000	77.391502	-31.5903
9380.000000	75.908272	-30.9731
9500.000000	74.652939	-29.8844
9620.000000	73.495583	-28.4251
9750.000000	72.331665	-26.5651
9880.000000	71.248543	-24.5151
10000.000000	70.320816	-22.4766
10150.000000	69.260368	-19.8758
10300.000000	68.291786	-17.2654
10440.000000	67.462074	-14.8260
10600.000000	66.602776	-12.0848
10750.000000	65.880745	-9.5959
10900.000000	65.232277	-7.2787
11060.000000	64.597679	-5.0423
11200.000000	64.092102	-3.1843
11380.000000	63.530430	-0.9340
11500.000000	63.205723	0.4166
11720.000000	62.698067	2.6004
11800.000000	62.546341	3.2837
12060.000000	62.137878	5.1666
12200.000000	61.980846	5.8596
12410.000000	61.823734	6.4379
12500.000000	61.785339	6.5746
12650.000000	61.767368	6.7069
12800.000000	61.802757	6.6429
13150.000000	62.059990	5.2632
13200.000000	62.119564	4.9868
13400.000000	62.479572	3.5192
13600.000000	62.986176	1.5034
13800.000000	63.651108	-1.2128
14000.000000	64.524887	-4.6745
14300.000000	66.410820	-11.6392
14500.000000	68.247559	-18.5657
14750.000000	71.237228	-33.4286
15000.000000	73.973122	-61.7847
15250.000000	74.732391	-104.9796
15500.000000	72.874908	-144.8583
15750.000000	69.561615	-169.8015
16000.000000	66.317749	175.5133
16250.000000	63.810188	164.8406
16500.000000	61.970173	155.5686
16750.000000	60.570148	146.7976
17000.000000	59.512100	138.0496
17250.000000	58.782280	129.1189
17500.000000	58.279659	119.9379
17750.000000	57.992416	110.6558
18000.000000	57.946949	100.9905
18250.000000	58.182049	90.3188
18500.000000	58.726635	78.6650
18750.000000	59.624275	65.6071
19000.000000	61.001503	50.2744
19250.000000	62.825829	30.2410
19500.000000	64.674911	2.2616
19750.000000	65.893356	-32.6846
