* Measurement data measured by REW V5.20.13
* Source: Auriculares con micrófono (2- USB-C to 3.5mm Headphone Jack Adapter), MICROPHONE (Volumen general), L, volume: 0,530. Timing signal peak level -32,8 dBFS, measurement signal peak level -32,0 dBFS
* Format: 256k Log Swept Sine, 1 sweep at -12,0 dBFS using an acoustic timing reference
* Dated: 25-jul-2023 12:21:53
* REW Settings:
*  C-weighting compensation: Off
*  Target level: 75.0 dB
* Note: Stock Cable + foams Delay -0,0728 ms (-25 mm, -0,98 in) using estimated IR delay relative to Acoustic reference played from SPEAKER L with no timing offset Clock adjustment: -3,4 ppm
* Measurement: Blon Jojo L
* Smoothing: 1/12 octave
* Frequency Step: 1/48 octave
* Start Frequency: 20.000 Hz
*
* Freq(Hz)	SPL(dB)	Phase(degrees)
20.000000	98.366	-148.2792
20.299999	98.393	-148.9811
20.600000	98.418	-149.6572
20.900000	98.442	-150.3021
21.200001	98.466	-150.9151
21.400000	98.481	-151.3072
21.799999	98.514	-152.0569
22.000000	98.531	-152.4184
22.400000	98.566	-153.1263
22.700001	98.593	-153.6544
23.000000	98.619	-154.1886
23.299999	98.642	-154.7298
23.600000	98.660	-155.2731
24.000000	98.678	-155.9877
24.299999	98.686	-156.5049
24.700001	98.693	-157.1614
25.000000	98.696	-157.6300
25.400000	98.699	-158.2307
25.799999	98.703	-158.8143
26.200001	98.707	-159.3873
26.500000	98.711	-159.8115
26.900000	98.716	-160.3713
27.200001	98.721	-160.7891
27.600000	98.729	-161.3468
28.000000	98.738	-161.9075
28.500000	98.748	-162.6080
29.000000	98.757	-163.2954
29.500000	98.765	-163.9607
30.000000	98.774	-164.6040
30.400000	98.780	-165.1057
30.700001	98.784	-165.4749
31.100000	98.788	-165.9567
31.500000	98.791	-166.4243
32.000000	98.791	-166.9869
32.500000	98.789	-167.5236
33.000000	98.785	-168.0328
33.500000	98.781	-168.5163
34.000000	98.778	-168.9861
34.500000	98.778	-169.4644
35.000000	98.778	-169.9683
35.500000	98.775	-170.4960
36.000000	98.765	-171.0238
36.500000	98.752	-171.5224
37.000000	98.738	-171.9762
37.500000	98.728	-172.3943
38.200001	98.725	-172.9712
38.700001	98.726	-173.4075
39.500000	98.722	-174.1399
40.000000	98.714	-174.5832
40.599998	98.699	-175.0694
41.200001	98.685	-175.5092
41.799999	98.674	-175.9315
42.500000	98.662	-176.4350
43.099998	98.650	-176.8842
43.700001	98.634	-177.3462
44.400002	98.608	-177.8814
45.000000	98.580	-178.2999
45.500000	98.557	-178.5981
46.200001	98.539	-178.9597
46.799999	98.539	-179.2864
47.500000	98.551	-179.7697
48.200001	98.560	179.6266
48.700001	98.558	179.1503
49.400002	98.541	178.4825
50.000000	98.513	177.9664
50.799999	98.466	177.4125
51.500000	98.426	177.0524
52.200001	98.392	176.7917
53.000000	98.370	176.5696
53.799999	98.367	176.3057
54.500000	98.369	175.9655
55.200001	98.362	175.5574
56.000000	98.342	175.0865
57.000000	98.312	174.4993
58.000000	98.271	173.8798
59.000000	98.212	173.3185
60.000000	98.150	172.9047
60.799999	98.112	172.6324
61.500000	98.087	172.3822
62.200001	98.063	172.1057
63.000000	98.036	171.7720
64.000000	98.000	171.3538
65.000000	97.963	170.9439
66.000000	97.927	170.5513
67.000000	97.892	170.1804
68.000000	97.861	169.8141
69.000000	97.830	169.4372
70.000000	97.796	169.0612
71.000000	97.757	168.7066
72.000000	97.718	168.3724
73.000000	97.679	168.0463
74.000000	97.641	167.7212
75.000000	97.603	167.3926
76.199997	97.558	166.9955
77.500000	97.510	166.5727
78.800003	97.461	166.1680
80.000000	97.415	165.8217
81.199997	97.371	165.4975
82.500000	97.324	165.1545
83.800003	97.276	164.8185
85.000000	97.230	164.5182
86.199997	97.184	164.2277
87.500000	97.134	163.9165
88.500000	97.096	163.6730
90.000000	97.038	163.3040
91.199997	96.992	163.0227
92.500000	96.943	162.7440
93.800003	96.898	162.4916
95.000000	96.859	162.2854
96.199997	96.821	162.1060
97.500000	96.784	161.9093
98.800003	96.744	161.6611
100.000000	96.697	161.3954
101.500000	96.626	161.0853
103.000000	96.553	160.8253
104.400002	96.492	160.5985
106.000000	96.431	160.3356
107.500000	96.377	160.0882
109.000000	96.322	159.8498
110.599998	96.263	159.6174
112.000000	96.209	159.4323
113.800003	96.141	159.2028
115.000000	96.097	159.0494
117.199997	96.017	158.7767
118.000000	95.989	158.6825
120.599998	95.899	158.3901
122.000000	95.850	158.2375
124.099998	95.774	158.0115
125.000000	95.741	157.9183
126.500000	95.684	157.7725
128.000000	95.629	157.6399
131.500000	95.506	157.3679
132.000000	95.489	157.3318
134.000000	95.420	157.1884
136.000000	95.351	157.0467
138.000000	95.284	156.9153
140.000000	95.219	156.7943
143.000000	95.121	156.6159
145.000000	95.055	156.5026
147.500000	94.971	156.3686
150.000000	94.890	156.2501
152.500000	94.809	156.1637
155.000000	94.728	156.0991
157.500000	94.648	156.0383
160.000000	94.568	155.9738
162.500000	94.489	155.9191
165.000000	94.412	155.8809
167.500000	94.338	155.8526
170.000000	94.266	155.8227
172.500000	94.196	155.7909
175.000000	94.125	155.7575
177.500000	94.049	155.7224
180.000000	93.971	155.7011
182.500000	93.896	155.7126
185.000000	93.825	155.7559
187.500000	93.756	155.8071
190.000000	93.689	155.8464
192.500000	93.622	155.8755
195.000000	93.557	155.9097
197.500000	93.492	155.9590
200.000000	93.428	156.0213
203.000000	93.352	156.1040
206.000000	93.277	156.1920
209.000000	93.201	156.2875
212.000000	93.126	156.3917
214.000000	93.077	156.4601
218.000000	92.982	156.5831
220.000000	92.936	156.6450
224.000000	92.845	156.7852
227.000000	92.777	156.9017
230.000000	92.708	157.0304
233.000000	92.640	157.1746
236.000000	92.573	157.3270
240.000000	92.485	157.5298
243.000000	92.421	157.6797
247.000000	92.338	157.8824
250.000000	92.277	158.0449
254.000000	92.196	158.2809
258.000000	92.117	158.5250
262.000000	92.039	158.7666
265.000000	91.982	158.9505
269.000000	91.908	159.2040
272.000000	91.853	159.3940
276.000000	91.782	159.6391
280.000000	91.713	159.8855
285.000000	91.625	160.2113
290.000000	91.538	160.5485
295.000000	91.453	160.8784
300.000000	91.369	161.2073
304.000000	91.303	161.4816
307.000000	91.255	161.6956
311.000000	91.192	161.9905
315.000000	91.132	162.2910
320.000000	91.057	162.6644
325.000000	90.983	163.0348
330.000000	90.910	163.4099
335.000000	90.839	163.7888
340.000000	90.770	164.1711
345.000000	90.705	164.5612
350.000000	90.641	164.9615
355.000000	90.579	165.3671
360.000000	90.517	165.7734
365.000000	90.456	166.1754
370.000000	90.396	166.5703
375.000000	90.338	166.9661
382.000000	90.260	167.5318
387.000000	90.207	167.9416
395.000000	90.123	168.6054
400.000000	90.071	169.0248
406.000000	90.009	169.5315
412.000000	89.948	170.0452
418.000000	89.889	170.5610
425.000000	89.823	171.1522
431.000000	89.770	171.6497
437.000000	89.719	172.1460
444.000000	89.661	172.7362
450.000000	89.612	173.2525
455.000000	89.570	173.6821
462.000000	89.512	174.2778
468.000000	89.464	174.7883
475.000000	89.410	175.3913
482.000000	89.360	176.0018
487.000000	89.325	176.4390
494.000000	89.278	177.0494
500.000000	89.238	177.5686
508.000000	89.187	178.2531
515.000000	89.143	178.8488
522.000000	89.101	179.4491
530.000000	89.055	-179.8593
538.000000	89.011	-179.1651
545.000000	88.973	-178.5572
552.000000	88.937	-177.9493
560.000000	88.898	-177.2525
570.000000	88.851	-176.3850
580.000000	88.803	-175.5202
590.000000	88.757	-174.6530
600.000000	88.716	-173.7800
608.000000	88.687	-173.0699
615.000000	88.663	-172.4434
622.000000	88.639	-171.8161
630.000000	88.611	-171.0975
640.000000	88.576	-170.1991
650.000000	88.545	-169.3066
660.000000	88.517	-168.4207
670.000000	88.494	-167.5364
680.000000	88.471	-166.6474
690.000000	88.450	-165.7570
700.000000	88.430	-164.8652
710.000000	88.412	-163.9663
720.000000	88.396	-163.0594
730.000000	88.383	-162.1453
740.000000	88.373	-161.2275
750.000000	88.367	-160.3096
762.000000	88.363	-159.2096
775.000000	88.362	-158.0227
788.000000	88.369	-156.8381
800.000000	88.380	-155.7444
812.000000	88.394	-154.6511
825.000000	88.414	-153.4681
838.000000	88.437	-152.2902
850.000000	88.463	-151.2110
862.000000	88.492	-150.1426
875.000000	88.529	-149.0014
885.000000	88.562	-148.1353
900.000000	88.615	-146.8498
912.000000	88.662	-145.8315
925.000000	88.719	-144.7414
938.000000	88.781	-143.6702
950.000000	88.843	-142.7023
962.000000	88.909	-141.7543
975.000000	88.983	-140.7488
988.000000	89.060	-139.7684
1000.000000	89.133	-138.8904
1015.000000	89.229	-137.8349
1030.000000	89.328	-136.8313
1044.000000	89.423	-135.9413
1060.000000	89.535	-134.9731
1075.000000	89.640	-134.1079
1090.000000	89.746	-133.2813
1106.000000	89.860	-132.4408
1120.000000	89.959	-131.7387
1138.000000	90.087	-130.8802
1150.000000	90.171	-130.3370
1172.000000	90.322	-129.4046
1180.000000	90.376	-129.0848
1206.000000	90.548	-128.1052
1220.000000	90.639	-127.6107
1241.000000	90.772	-126.9059
1250.000000	90.828	-126.6153
1265.000000	90.919	-126.1448
1280.000000	91.007	-125.6898
1315.000000	91.207	-124.6801
1320.000000	91.234	-124.5409
1340.000000	91.343	-123.9935
1360.000000	91.449	-123.4601
1380.000000	91.552	-122.9383
1400.000000	91.652	-122.4258
1430.000000	91.800	-121.6800
1450.000000	91.898	-121.1970
1475.000000	92.019	-120.6040
1500.000000	92.138	-120.0293
1525.000000	92.256	-119.4811
1550.000000	92.372	-118.9531
1575.000000	92.488	-118.4420
1600.000000	92.602	-117.9544
1625.000000	92.714	-117.4935
1650.000000	92.826	-117.0529
1675.000000	92.935	-116.6307
1700.000000	93.042	-116.2305
1725.000000	93.148	-115.8513
1750.000000	93.251	-115.4919
1775.000000	93.352	-115.1519
1800.000000	93.450	-114.8315
1825.000000	93.546	-114.5284
1850.000000	93.638	-114.2386
1875.000000	93.728	-113.9599
1900.000000	93.816	-113.6915
1925.000000	93.902	-113.4335
1950.000000	93.985	-113.1858
1975.000000	94.065	-112.9475
2000.000000	94.143	-112.7184
2030.000000	94.234	-112.4564
2060.000000	94.322	-112.2082
2090.000000	94.406	-111.9727
2120.000000	94.488	-111.7492
2140.000000	94.540	-111.6073
2180.000000	94.642	-111.3406
2200.000000	94.691	-111.2144
2240.000000	94.785	-110.9747
2270.000000	94.851	-110.8077
2300.000000	94.913	-110.6515
2330.000000	94.972	-110.5053
2360.000000	95.027	-110.3671
2400.000000	95.095	-110.1922
2430.000000	95.141	-110.0677
2470.000000	95.198	-109.9093
2500.000000	95.236	-109.7955
2540.000000	95.281	-109.6493
2580.000000	95.320	-109.5066
2620.000000	95.354	-109.3639
2650.000000	95.376	-109.2554
2690.000000	95.399	-109.1082
2720.000000	95.413	-108.9953
2760.000000	95.428	-108.8391
2800.000000	95.438	-108.6742
2850.000000	95.444	-108.4543
2900.000000	95.444	-108.2139
2950.000000	95.439	-107.9495
3000.000000	95.428	-107.6651
3040.000000	95.417	-107.4230
3070.000000	95.406	-107.2312
3110.000000	95.391	-106.9597
3150.000000	95.374	-106.6702
3200.000000	95.351	-106.2880
3250.000000	95.327	-105.8869
3300.000000	95.302	-105.4671
3350.000000	95.275	-105.0296
3400.000000	95.247	-104.5780
3450.000000	95.217	-104.1150
3500.000000	95.187	-103.6406
3550.000000	95.156	-103.1568
3600.000000	95.124	-102.6671
3650.000000	95.091	-102.1743
3700.000000	95.056	-101.6798
3750.000000	95.019	-101.1841
3820.000000	94.963	-100.4933
3870.000000	94.920	-100.0066
3950.000000	94.846	-99.2433
4000.000000	94.797	-98.7724
4060.000000	94.734	-98.2128
4120.000000	94.665	-97.6640
4180.000000	94.591	-97.1287
4250.000000	94.497	-96.5214
4310.000000	94.410	-96.0122
4370.000000	94.316	-95.5079
4440.000000	94.197	-94.9194
4500.000000	94.088	-94.4114
4550.000000	93.991	-93.9830
4620.000000	93.847	-93.3704
4680.000000	93.715	-92.8263
4750.000000	93.551	-92.1593
4820.000000	93.376	-91.4488
4870.000000	93.244	-90.9095
4940.000000	93.052	-90.1014
5000.000000	92.879	-89.3511
5080.000000	92.638	-88.2587
5150.000000	92.417	-87.2105
5220.000000	92.188	-86.0680
5300.000000	91.917	-84.6371
5380.000000	91.637	-83.0648
5450.000000	91.387	-81.5639
5520.000000	91.133	-79.9304
5600.000000	90.844	-77.8793
5700.000000	90.503	-75.0636
5800.000000	90.198	-72.1420
5900.000000	89.912	-69.2645
6000.000000	89.620	-66.3359
6080.000000	89.385	-63.8658
6150.000000	89.185	-61.5959
6220.000000	88.993	-59.2335
6300.000000	88.789	-56.4383
6400.000000	88.558	-52.8276
6500.000000	88.354	-49.1073
6600.000000	88.178	-45.2986
6700.000000	88.028	-41.4237
6800.000000	87.903	-37.4917
6900.000000	87.805	-33.5071
7000.000000	87.733	-29.4794
7100.000000	87.689	-25.4254
7200.000000	87.676	-21.3707
7300.000000	87.694	-17.3440
7400.000000	87.743	-13.3748
7500.000000	87.825	-9.4859
7620.000000	87.968	-4.9329
7750.000000	88.179	-0.1581
7880.000000	88.453	4.4054
8000.000000	88.763	8.3842
8120.000000	89.126	12.0868
8250.000000	89.575	15.7098
8380.000000	90.075	18.8261
8500.000000	90.572	21.1468
8620.000000	91.087	22.8240
8750.000000	91.642	23.7985
8850.000000	92.047	23.8925
9000.000000	92.577	22.9319
9120.000000	92.899	21.2793
9250.000000	93.112	18.8016
9380.000000	93.163	15.9223
9500.000000	93.060	13.2375
9620.000000	92.820	10.8280
9750.000000	92.425	8.8035
9880.000000	91.918	7.5835
10000.000000	91.379	7.2614
10150.000000	90.647	7.9769
10300.000000	89.898	9.8898
10440.000000	89.223	12.6530
10600.000000	88.526	16.7884
10750.000000	87.980	21.4126
10900.000000	87.561	26.5738
11060.000000	87.273	32.5258
11200.000000	87.168	38.0418
11380.000000	87.270	45.4812
11500.000000	87.524	50.5903
11720.000000	88.503	59.8273
11800.000000	89.047	62.9143
12060.000000	91.389	70.0743
12200.000000	92.826	70.9128
12410.000000	94.845	66.6917
12500.000000	95.578	62.7348
12650.000000	96.531	53.4910
12800.000000	97.075	41.6891
13150.000000	96.578	12.5014
13200.000000	96.324	8.9697
13400.000000	94.984	-2.3491
13600.000000	93.346	-9.3770
13800.000000	91.673	-13.2926
14000.000000	90.154	-15.4792
14300.000000	88.332	-17.8602
14500.000000	87.394	-19.9005
14750.000000	86.394	-23.6768
15000.000000	85.411	-28.9395
15250.000000	84.296	-35.2532
15500.000000	82.974	-41.8141
15750.000000	81.436	-47.7752
16000.000000	79.732	-52.5850
16250.000000	77.932	-56.1197
16500.000000	76.106	-58.5730
16750.000000	74.313	-60.2811
17000.000000	72.608	-61.6256
17250.000000	71.038	-62.9679
17500.000000	69.640	-64.6448
17750.000000	68.428	-67.0369
18000.000000	67.388	-70.5149
18250.000000	66.505	-75.4537
18500.000000	65.774	-82.3309
18750.000000	65.180	-91.6702
19000.000000	64.681	-103.9097
19250.000000	64.218	-119.0060
19500.000000	63.724	-135.7376
19750.000000	63.206	-151.1237
