* Measurement data measured by REW V5.20.13
* Source: Auriculares con micrófono (2- USB-C to 3.5mm Headphone Jack Adapter), MICROPHONE (Volumen general), L, volume: 0,530. Timing signal peak level -30,8 dBFS, measurement signal peak level -26,7 dBFS
* Format: 256k Log Swept Sine, 1 sweep at -12,0 dBFS using an acoustic timing reference
* Dated: 10-nov-2023 18:02:48
* REW Settings:
*  C-weighting compensation: Off
*  Target level: 75.0 dB
* Note: Stock (bal) + foam Delay -0,0303 ms (-10 mm, -0,41 in) using estimated IR delay relative to Acoustic reference played from SPEAKER L with no timing offset Clock adjustment: -0,4 ppm
* Measurement: Gizaudio x Binary L
* Smoothing: 1/12 octave
* Frequency Step: 1/48 octave
* Start Frequency: 20.000 Hz
*
* Freq(Hz)	SPL(dB)	Phase(degrees)
20.000000	102.056	-139.9984
20.299999	102.112	-140.7458
20.600000	102.163	-141.4851
20.900000	102.211	-142.2094
21.200001	102.256	-142.9131
21.400000	102.285	-143.3710
21.799999	102.343	-144.2663
22.000000	102.372	-144.7080
22.400000	102.428	-145.5894
22.700001	102.470	-146.2517
23.000000	102.510	-146.9140
23.299999	102.548	-147.5729
23.600000	102.585	-148.2276
24.000000	102.634	-149.0983
24.299999	102.669	-149.7563
24.700001	102.714	-150.6466
25.000000	102.743	-151.3201
25.400000	102.775	-152.2073
25.799999	102.800	-153.0512
26.200001	102.822	-153.8302
26.500000	102.841	-154.3750
26.900000	102.871	-155.0716
27.200001	102.897	-155.5935
27.600000	102.934	-156.3103
28.000000	102.968	-157.0526
28.500000	103.002	-157.9819
29.000000	103.028	-158.8637
29.500000	103.051	-159.6876
30.000000	103.077	-160.4872
30.400000	103.095	-161.1299
30.700001	103.107	-161.6123
31.100000	103.117	-162.2385
31.500000	103.124	-162.8261
32.000000	103.133	-163.4962
32.500000	103.149	-164.1266
33.000000	103.174	-164.7788
33.500000	103.201	-165.4927
34.000000	103.222	-166.2641
34.500000	103.232	-167.0548
35.000000	103.234	-167.8261
35.500000	103.230	-168.5559
36.000000	103.225	-169.2429
36.500000	103.221	-169.8976
37.000000	103.221	-170.5355
37.500000	103.223	-171.1717
38.200001	103.227	-172.0798
38.700001	103.229	-172.7416
39.500000	103.223	-173.7882
40.000000	103.215	-174.4120
40.599998	103.206	-175.1243
41.200001	103.199	-175.8138
41.799999	103.192	-176.4972
42.500000	103.182	-177.2879
43.099998	103.172	-177.9494
43.700001	103.160	-178.5933
44.400002	103.145	-179.3270
45.000000	103.132	-179.9448
45.500000	103.121	179.5444
46.200001	103.105	178.8279
46.799999	103.088	178.2115
47.500000	103.064	177.5026
48.200001	103.038	176.8181
48.700001	103.018	176.3449
49.400002	102.991	175.6993
50.000000	102.969	175.1568
50.799999	102.942	174.4367
51.500000	102.919	173.7977
52.200001	102.894	173.1505
53.000000	102.863	172.4139
53.799999	102.829	171.6925
54.500000	102.798	171.0775
55.200001	102.766	170.4795
56.000000	102.729	169.8145
57.000000	102.681	169.0015
58.000000	102.632	168.2079
59.000000	102.580	167.4393
60.000000	102.526	166.6950
60.799999	102.482	166.1227
61.500000	102.444	165.6414
62.200001	102.407	165.1718
63.000000	102.366	164.6400
64.000000	102.314	163.9771
65.000000	102.259	163.3209
66.000000	102.203	162.6772
67.000000	102.143	162.0530
68.000000	102.082	161.4567
69.000000	102.022	160.8826
70.000000	101.964	160.3112
71.000000	101.906	159.7362
72.000000	101.845	159.1680
73.000000	101.782	158.6147
74.000000	101.719	158.0743
75.000000	101.655	157.5413
76.199997	101.575	156.9167
77.500000	101.487	156.2699
78.800003	101.402	155.6434
80.000000	101.325	155.0712
81.199997	101.246	154.5104
82.500000	101.160	153.9266
83.800003	101.072	153.3677
85.000000	100.990	152.8724
86.199997	100.907	152.3951
87.500000	100.817	151.8942
88.500000	100.748	151.5187
90.000000	100.644	150.9713
91.199997	100.560	150.5482
92.500000	100.469	150.1048
93.800003	100.377	149.6743
95.000000	100.291	149.2874
96.199997	100.205	148.9119
97.500000	100.111	148.5184
98.800003	100.018	148.1391
100.000000	99.932	147.8008
101.500000	99.825	147.3941
103.000000	99.718	147.0061
104.400002	99.618	146.6591
106.000000	99.503	146.2812
107.500000	99.396	145.9470
109.000000	99.289	145.6313
110.599998	99.174	145.3161
112.000000	99.073	145.0575
113.800003	98.943	144.7453
115.000000	98.856	144.5495
117.199997	98.698	144.2158
118.000000	98.641	144.1021
120.599998	98.456	143.7636
122.000000	98.356	143.6009
124.099998	98.206	143.3801
125.000000	98.142	143.2932
126.500000	98.036	143.1569
128.000000	97.931	143.0320
131.500000	97.688	142.7980
132.000000	97.653	142.7715
134.000000	97.514	142.6821
136.000000	97.374	142.6187
138.000000	97.236	142.5801
140.000000	97.101	142.5643
143.000000	96.902	142.5804
145.000000	96.771	142.6181
147.500000	96.608	142.6936
150.000000	96.447	142.7907
152.500000	96.290	142.9086
155.000000	96.135	143.0596
157.500000	95.981	143.2486
160.000000	95.828	143.4704
162.500000	95.678	143.7185
165.000000	95.532	143.9904
167.500000	95.388	144.2868
170.000000	95.247	144.6047
172.500000	95.109	144.9403
175.000000	94.974	145.2954
177.500000	94.843	145.6746
180.000000	94.715	146.0796
182.500000	94.590	146.5071
185.000000	94.469	146.9511
187.500000	94.349	147.4098
190.000000	94.233	147.8839
192.500000	94.119	148.3710
195.000000	94.009	148.8692
197.500000	93.903	149.3800
200.000000	93.800	149.9057
203.000000	93.681	150.5578
206.000000	93.569	151.2288
209.000000	93.462	151.9119
212.000000	93.360	152.6042
214.000000	93.294	153.0707
218.000000	93.169	154.0127
220.000000	93.109	154.4870
224.000000	92.994	155.4392
227.000000	92.913	156.1555
230.000000	92.839	156.8759
233.000000	92.770	157.5975
236.000000	92.705	158.3151
240.000000	92.623	159.2676
243.000000	92.566	159.9843
247.000000	92.495	160.9413
250.000000	92.448	161.6539
254.000000	92.390	162.5920
258.000000	92.337	163.5146
262.000000	92.289	164.4228
265.000000	92.258	165.0966
269.000000	92.223	165.9859
272.000000	92.199	166.6431
276.000000	92.170	167.5013
280.000000	92.144	168.3396
285.000000	92.117	169.3674
290.000000	92.096	170.3707
295.000000	92.081	171.3437
300.000000	92.073	172.2863
304.000000	92.070	173.0149
307.000000	92.069	173.5479
311.000000	92.071	174.2460
315.000000	92.075	174.9349
320.000000	92.082	175.7781
325.000000	92.090	176.5878
330.000000	92.100	177.3590
335.000000	92.112	178.0992
340.000000	92.126	178.8192
345.000000	92.141	179.5192
350.000000	92.159	-179.8013
355.000000	92.178	-179.1367
360.000000	92.198	-178.4879
365.000000	92.218	-177.8605
370.000000	92.239	-177.2547
375.000000	92.260	-176.6689
382.000000	92.290	-175.8790
387.000000	92.313	-175.3340
395.000000	92.349	-174.4978
400.000000	92.371	-173.9962
406.000000	92.399	-173.4105
412.000000	92.428	-172.8393
418.000000	92.457	-172.2869
425.000000	92.490	-171.6653
431.000000	92.518	-171.1417
437.000000	92.547	-170.6263
444.000000	92.579	-170.0428
450.000000	92.606	-169.5569
455.000000	92.627	-169.1589
462.000000	92.656	-168.6102
468.000000	92.682	-168.1486
475.000000	92.713	-167.6238
482.000000	92.743	-167.1145
487.000000	92.763	-166.7585
494.000000	92.791	-166.2692
500.000000	92.813	-165.8579
508.000000	92.843	-165.3204
515.000000	92.869	-164.8563
522.000000	92.895	-164.3954
530.000000	92.924	-163.8753
538.000000	92.953	-163.3648
545.000000	92.978	-162.9250
552.000000	93.003	-162.4885
560.000000	93.031	-161.9910
570.000000	93.065	-161.3721
580.000000	93.098	-160.7588
590.000000	93.130	-160.1503
600.000000	93.162	-159.5415
608.000000	93.188	-159.0533
615.000000	93.210	-158.6274
622.000000	93.233	-158.2028
630.000000	93.258	-157.7193
640.000000	93.290	-157.1212
650.000000	93.322	-156.5261
660.000000	93.355	-155.9259
670.000000	93.389	-155.3213
680.000000	93.422	-154.7149
690.000000	93.457	-154.1059
700.000000	93.492	-153.4932
710.000000	93.527	-152.8779
720.000000	93.563	-152.2609
730.000000	93.601	-151.6405
740.000000	93.640	-151.0175
750.000000	93.680	-150.3942
762.000000	93.730	-149.6443
775.000000	93.787	-148.8266
788.000000	93.848	-148.0049
800.000000	93.907	-147.2455
812.000000	93.968	-146.4882
825.000000	94.038	-145.6716
838.000000	94.112	-144.8610
850.000000	94.183	-144.1201
862.000000	94.259	-143.3860
875.000000	94.345	-142.5980
885.000000	94.415	-141.9982
900.000000	94.524	-141.1150
912.000000	94.615	-140.4290
925.000000	94.717	-139.7112
938.000000	94.823	-139.0206
950.000000	94.925	-138.4059
962.000000	95.029	-137.8134
975.000000	95.145	-137.1994
988.000000	95.264	-136.6169
1000.000000	95.375	-136.1098
1015.000000	95.517	-135.5214
1030.000000	95.660	-134.9841
1044.000000	95.795	-134.5254
1060.000000	95.949	-134.0506
1075.000000	96.092	-133.6560
1090.000000	96.234	-133.3091
1106.000000	96.384	-132.9865
1120.000000	96.512	-132.7416
1138.000000	96.674	-132.4760
1150.000000	96.780	-132.3270
1172.000000	96.967	-132.1050
1180.000000	97.033	-132.0387
1206.000000	97.238	-131.8639
1220.000000	97.344	-131.7903
1241.000000	97.495	-131.6994
1250.000000	97.558	-131.6666
1265.000000	97.661	-131.6194
1280.000000	97.760	-131.5803
1315.000000	97.978	-131.5051
1320.000000	98.008	-131.4948
1340.000000	98.126	-131.4525
1360.000000	98.239	-131.4048
1380.000000	98.349	-131.3489
1400.000000	98.456	-131.2857
1430.000000	98.613	-131.1810
1450.000000	98.716	-131.1013
1475.000000	98.844	-130.9879
1500.000000	98.970	-130.8612
1525.000000	99.096	-130.7240
1550.000000	99.222	-130.5805
1575.000000	99.349	-130.4356
1600.000000	99.478	-130.2908
1625.000000	99.607	-130.1468
1650.000000	99.739	-130.0066
1675.000000	99.872	-129.8724
1700.000000	100.008	-129.7448
1725.000000	100.146	-129.6251
1750.000000	100.285	-129.5163
1775.000000	100.428	-129.4226
1800.000000	100.572	-129.3464
1825.000000	100.719	-129.2886
1850.000000	100.868	-129.2509
1875.000000	101.019	-129.2362
1900.000000	101.172	-129.2471
1925.000000	101.326	-129.2854
1950.000000	101.482	-129.3535
1975.000000	101.640	-129.4533
2000.000000	101.798	-129.5865
2030.000000	101.989	-129.7921
2060.000000	102.181	-130.0517
2090.000000	102.372	-130.3681
2120.000000	102.563	-130.7423
2140.000000	102.690	-131.0242
2180.000000	102.940	-131.6679
2200.000000	103.064	-132.0313
2240.000000	103.306	-132.8445
2270.000000	103.482	-133.5311
2300.000000	103.653	-134.2829
2330.000000	103.817	-135.0983
2360.000000	103.973	-135.9749
2400.000000	104.169	-137.2329
2430.000000	104.305	-138.2390
2470.000000	104.469	-139.6570
2500.000000	104.579	-140.7718
2540.000000	104.708	-142.3147
2580.000000	104.814	-143.9070
2620.000000	104.897	-145.5321
2650.000000	104.944	-146.7616
2690.000000	104.986	-148.3994
2720.000000	105.003	-149.6158
2760.000000	105.007	-151.2079
2800.000000	104.991	-152.7524
2850.000000	104.943	-154.5939
2900.000000	104.870	-156.3138
2950.000000	104.775	-157.8952
3000.000000	104.663	-159.3268
3040.000000	104.564	-160.3596
3070.000000	104.486	-161.0670
3110.000000	104.378	-161.9207
3150.000000	104.267	-162.6745
3200.000000	104.126	-163.4832
3250.000000	103.987	-164.1517
3300.000000	103.850	-164.6905
3350.000000	103.719	-165.1113
3400.000000	103.595	-165.4269
3450.000000	103.479	-165.6498
3500.000000	103.371	-165.7925
3550.000000	103.273	-165.8680
3600.000000	103.185	-165.8882
3650.000000	103.106	-165.8646
3700.000000	103.037	-165.8088
3750.000000	102.978	-165.7315
3820.000000	102.911	-165.6058
3870.000000	102.874	-165.5159
3950.000000	102.833	-165.3975
4000.000000	102.818	-165.3549
4060.000000	102.808	-165.3529
4120.000000	102.808	-165.4202
4180.000000	102.814	-165.5715
4250.000000	102.827	-165.8697
4310.000000	102.839	-166.2424
4370.000000	102.850	-166.7330
4440.000000	102.855	-167.4601
4500.000000	102.849	-168.2147
4550.000000	102.834	-168.9302
4620.000000	102.790	-170.0466
4680.000000	102.729	-171.0864
4750.000000	102.625	-172.3567
4820.000000	102.483	-173.6358
4870.000000	102.357	-174.5206
4940.000000	102.146	-175.6678
5000.000000	101.934	-176.5227
5080.000000	101.611	-177.4114
5150.000000	101.298	-177.8998
5220.000000	100.964	-178.0771
5300.000000	100.567	-177.8679
5380.000000	100.169	-177.2055
5450.000000	99.830	-176.2601
5520.000000	99.512	-174.9949
5600.000000	99.186	-173.2045
5700.000000	98.856	-170.5671
5800.000000	98.632	-167.6778
5900.000000	98.525	-164.7827
6000.000000	98.526	-162.1405
6080.000000	98.588	-160.3587
6150.000000	98.671	-159.1064
6220.000000	98.763	-158.1575
6300.000000	98.863	-157.4208
6400.000000	98.957	-156.9112
6500.000000	98.999	-156.6669
6600.000000	98.987	-156.4753
6700.000000	98.930	-156.1645
6800.000000	98.844	-155.6268
6900.000000	98.748	-154.8193
7000.000000	98.660	-153.7533
7100.000000	98.597	-152.4840
7200.000000	98.569	-151.0959
7300.000000	98.582	-149.6749
7400.000000	98.639	-148.2951
7500.000000	98.739	-147.0235
7620.000000	98.915	-145.7338
7750.000000	99.167	-144.7527
7880.000000	99.465	-144.3396
8000.000000	99.762	-144.5678
8120.000000	100.052	-145.4500
8250.000000	100.324	-147.1642
8380.000000	100.513	-149.5996
8500.000000	100.583	-152.3345
8620.000000	100.537	-155.3140
8750.000000	100.350	-158.5193
8850.000000	100.116	-160.7778
9000.000000	99.645	-163.5718
9120.000000	99.198	-165.1752
9250.000000	98.676	-166.2477
9380.000000	98.148	-166.6725
9500.000000	97.677	-166.5642
9620.000000	97.237	-166.0630
9750.000000	96.803	-165.1794
9880.000000	96.416	-164.0434
10000.000000	96.100	-162.8483
10150.000000	95.758	-161.2436
10300.000000	95.470	-159.5890
10440.000000	95.247	-158.0462
10600.000000	95.047	-156.3264
10750.000000	94.919	-154.7947
10900.000000	94.854	-153.3848
11060.000000	94.860	-152.0919
11200.000000	94.931	-151.2302
11380.000000	95.107	-150.6618
11500.000000	95.267	-150.7447
11720.000000	95.598	-152.2042
11800.000000	95.710	-153.2178
12060.000000	95.941	-158.2036
12200.000000	95.946	-161.6973
12410.000000	95.790	-167.4711
12500.000000	95.670	-170.0484
12650.000000	95.413	-174.4567
12800.000000	95.085	-179.0591
13150.000000	93.918	169.5927
13200.000000	93.685	168.0508
13400.000000	92.548	162.9149
13600.000000	91.121	160.4330
13800.000000	89.567	161.1161
14000.000000	88.145	164.2492
14300.000000	86.738	170.5266
14500.000000	86.340	174.0309
14750.000000	86.244	176.5295
15000.000000	86.348	176.6162
15250.000000	86.479	174.3829
15500.000000	86.534	170.1917
15750.000000	86.459	164.5978
16000.000000	86.234	158.2586
16250.000000	85.871	151.7733
16500.000000	85.412	145.5099
16750.000000	84.924	139.5515
17000.000000	84.488	133.7641
17250.000000	84.191	127.8741
17500.000000	84.101	121.4910
17750.000000	84.250	114.1408
18000.000000	84.645	105.3980
18250.000000	85.343	95.0377
18500.000000	86.473	82.7726
18750.000000	88.014	67.0949
19000.000000	89.545	44.8575
19250.000000	90.554	14.7811
19500.000000	90.861	-19.0365
19750.000000	90.644	-48.9600
