* +info= www.achoreviews.com
*
*
* Freq(Hz)	SPL(dB)	Phase(degrees)
20.000000	96.511	-133.5901
20.299999	96.564	-134.3507
20.600000	96.607	-135.1229
20.900000	96.640	-135.8758
21.200001	96.664	-136.5723
21.400000	96.678	-136.9920
21.799999	96.710	-137.7290
22.000000	96.731	-138.0583
22.400000	96.789	-138.6863
22.700001	96.845	-139.1785
23.000000	96.908	-139.7274
23.299999	96.972	-140.3444
23.600000	97.032	-141.0204
24.000000	97.099	-141.9769
24.299999	97.137	-142.6942
24.700001	97.176	-143.6022
25.000000	97.199	-144.2263
25.400000	97.228	-144.9799
25.799999	97.260	-145.6673
26.200001	97.297	-146.3234
26.500000	97.326	-146.8121
26.900000	97.364	-147.4694
27.200001	97.391	-147.9657
27.600000	97.423	-148.6251
28.000000	97.451	-149.2717
28.500000	97.481	-150.0536
29.000000	97.509	-150.8075
29.500000	97.536	-151.5405
30.000000	97.563	-152.2607
30.400000	97.584	-152.8327
30.700001	97.601	-153.2617
31.100000	97.622	-153.8350
31.500000	97.643	-154.4087
32.000000	97.667	-155.1199
32.500000	97.689	-155.8159
33.000000	97.711	-156.4952
33.500000	97.732	-157.1636
34.000000	97.751	-157.8243
34.500000	97.766	-158.4692
35.000000	97.779	-159.0870
35.500000	97.791	-159.6770
36.000000	97.804	-160.2533
36.500000	97.815	-160.8327
37.000000	97.824	-161.4190
37.500000	97.828	-161.9984
38.200001	97.828	-162.7617
38.700001	97.828	-163.2637
39.500000	97.839	-164.0356
40.000000	97.852	-164.5367
40.599998	97.868	-165.1762
41.200001	97.878	-165.8347
41.799999	97.881	-166.4683
42.500000	97.880	-167.1427
43.099998	97.878	-167.6731
43.700001	97.874	-168.1702
44.400002	97.866	-168.7021
45.000000	97.857	-169.1142
45.500000	97.848	-169.4350
46.200001	97.836	-169.8602
46.799999	97.827	-170.2115
47.500000	97.822	-170.6470
48.200001	97.819	-171.1684
48.700001	97.813	-171.5967
49.400002	97.796	-172.2293
50.000000	97.777	-172.7680
50.799999	97.752	-173.4774
51.500000	97.732	-174.0858
52.200001	97.714	-174.6553
53.000000	97.704	-175.2570
53.799999	97.707	-175.8541
54.500000	97.712	-176.3965
55.200001	97.714	-176.9469
56.000000	97.708	-177.5531
57.000000	97.688	-178.2226
58.000000	97.662	-178.7913
59.000000	97.635	-179.3203
60.000000	97.605	-179.8442
60.799999	97.578	179.7330
61.500000	97.553	179.3569
62.200001	97.527	178.9777
63.000000	97.497	178.5451
64.000000	97.459	178.0152
65.000000	97.421	177.5123
66.000000	97.386	177.0356
67.000000	97.352	176.5792
68.000000	97.319	176.1417
69.000000	97.285	175.7166
70.000000	97.249	175.3132
71.000000	97.214	174.9406
72.000000	97.184	174.5737
73.000000	97.157	174.1776
74.000000	97.129	173.7427
75.000000	97.094	173.2950
76.199997	97.048	172.7899
77.500000	96.996	172.2932
78.800003	96.947	171.8256
80.000000	96.901	171.4123
81.199997	96.855	171.0188
82.500000	96.806	170.6162
83.800003	96.758	170.2248
85.000000	96.714	169.8684
86.199997	96.668	169.5232
87.500000	96.617	169.1636
88.500000	96.578	168.8944
90.000000	96.520	168.4969
91.199997	96.473	168.1818
92.500000	96.423	167.8474
93.800003	96.374	167.5260
95.000000	96.329	167.2443
96.199997	96.285	166.9783
97.500000	96.236	166.7112
98.800003	96.190	166.4606
100.000000	96.149	166.2245
101.500000	96.096	165.9165
103.000000	96.041	165.6136
104.400002	95.988	165.3444
106.000000	95.925	165.0569
107.500000	95.865	164.8094
109.000000	95.806	164.5753
110.599998	95.746	164.3272
112.000000	95.695	164.1102
113.800003	95.634	163.8410
115.000000	95.595	163.6716
117.199997	95.523	163.3871
118.000000	95.496	163.2938
120.599998	95.402	163.0200
122.000000	95.350	162.8799
124.099998	95.272	162.6663
125.000000	95.239	162.5721
126.500000	95.184	162.4150
128.000000	95.130	162.2667
131.500000	95.005	161.9650
132.000000	94.988	161.9247
134.000000	94.921	161.7689
136.000000	94.856	161.6218
138.000000	94.792	161.4838
140.000000	94.726	161.3616
143.000000	94.626	161.2199
145.000000	94.563	161.1438
147.500000	94.490	161.0507
150.000000	94.415	160.9650
152.500000	94.335	160.9066
155.000000	94.254	160.8651
157.500000	94.176	160.8092
160.000000	94.099	160.7379
162.500000	94.022	160.6788
165.000000	93.945	160.6447
167.500000	93.870	160.6224
170.000000	93.801	160.5997
172.500000	93.735	160.5797
175.000000	93.670	160.5780
177.500000	93.604	160.6056
180.000000	93.537	160.6490
182.500000	93.471	160.6913
185.000000	93.405	160.7390
187.500000	93.341	160.8001
190.000000	93.278	160.8686
192.500000	93.216	160.9385
195.000000	93.156	161.0091
197.500000	93.096	161.0809
200.000000	93.037	161.1549
203.000000	92.966	161.2490
206.000000	92.897	161.3525
209.000000	92.828	161.4710
212.000000	92.760	161.6047
214.000000	92.716	161.6975
218.000000	92.630	161.8860
220.000000	92.589	161.9828
224.000000	92.508	162.1775
227.000000	92.449	162.3202
230.000000	92.390	162.4646
233.000000	92.331	162.6173
236.000000	92.271	162.7759
240.000000	92.192	162.9891
243.000000	92.135	163.1541
247.000000	92.063	163.3887
250.000000	92.010	163.5762
254.000000	91.940	163.8368
258.000000	91.872	164.1051
262.000000	91.805	164.3752
265.000000	91.755	164.5771
269.000000	91.690	164.8483
272.000000	91.641	165.0561
276.000000	91.577	165.3382
280.000000	91.517	165.6223
285.000000	91.448	165.9744
290.000000	91.380	166.3259
295.000000	91.312	166.6859
300.000000	91.244	167.0565
304.000000	91.190	167.3593
307.000000	91.151	167.5886
311.000000	91.100	167.8971
315.000000	91.051	168.2091
320.000000	90.991	168.5977
325.000000	90.931	168.9828
330.000000	90.875	169.3677
335.000000	90.821	169.7551
340.000000	90.770	170.1504
345.000000	90.720	170.5547
350.000000	90.671	170.9618
355.000000	90.621	171.3664
360.000000	90.571	171.7692
365.000000	90.524	172.1688
370.000000	90.478	172.5681
375.000000	90.433	172.9713
382.000000	90.371	173.5404
387.000000	90.329	173.9454
395.000000	90.267	174.5893
400.000000	90.231	174.9906
406.000000	90.188	175.4758
412.000000	90.145	175.9655
418.000000	90.102	176.4551
425.000000	90.054	177.0239
431.000000	90.017	177.5115
437.000000	89.982	177.9986
444.000000	89.943	178.5625
450.000000	89.910	179.0468
455.000000	89.883	179.4565
462.000000	89.845	-179.9613
468.000000	89.814	-179.4616
475.000000	89.779	-178.8816
482.000000	89.747	-178.3053
487.000000	89.724	-177.8979
494.000000	89.693	-177.3330
500.000000	89.668	-176.8515
508.000000	89.635	-176.2094
515.000000	89.609	-175.6453
522.000000	89.585	-175.0797
530.000000	89.560	-174.4327
538.000000	89.536	-173.7867
545.000000	89.515	-173.2238
552.000000	89.495	-172.6637
560.000000	89.473	-172.0255
570.000000	89.449	-171.2238
580.000000	89.425	-170.4284
590.000000	89.402	-169.6446
600.000000	89.382	-168.8572
608.000000	89.369	-168.2201
615.000000	89.360	-167.6582
622.000000	89.351	-167.0948
630.000000	89.342	-166.4523
640.000000	89.330	-165.6545
650.000000	89.320	-164.8643
660.000000	89.315	-164.0823
670.000000	89.313	-163.3063
680.000000	89.311	-162.5276
690.000000	89.310	-161.7415
700.000000	89.310	-160.9521
710.000000	89.313	-160.1629
720.000000	89.318	-159.3754
730.000000	89.325	-158.5943
740.000000	89.334	-157.8206
750.000000	89.345	-157.0499
762.000000	89.361	-156.1239
775.000000	89.382	-155.1216
788.000000	89.406	-154.1238
800.000000	89.432	-153.2064
812.000000	89.461	-152.2916
825.000000	89.497	-151.3098
838.000000	89.537	-150.3397
850.000000	89.578	-149.4489
862.000000	89.620	-148.5655
875.000000	89.670	-147.6223
885.000000	89.710	-146.9060
900.000000	89.774	-145.8475
912.000000	89.830	-145.0162
925.000000	89.894	-144.1333
938.000000	89.962	-143.2720
950.000000	90.027	-142.4998
962.000000	90.094	-141.7515
975.000000	90.168	-140.9680
988.000000	90.246	-140.2106
1000.000000	90.320	-139.5323
1015.000000	90.416	-138.7155
1030.000000	90.515	-137.9371
1044.000000	90.610	-137.2453
1060.000000	90.718	-136.4967
1075.000000	90.820	-135.8360
1090.000000	90.922	-135.2119
1106.000000	91.030	-134.5844
1120.000000	91.124	-134.0686
1138.000000	91.243	-133.4500
1150.000000	91.321	-133.0634
1172.000000	91.460	-132.4032
1180.000000	91.510	-132.1765
1206.000000	91.669	-131.4828
1220.000000	91.752	-131.1366
1241.000000	91.873	-130.6512
1250.000000	91.924	-130.4544
1265.000000	92.006	-130.1407
1280.000000	92.086	-129.8431
1315.000000	92.263	-129.1970
1320.000000	92.288	-129.1097
1340.000000	92.382	-128.7693
1360.000000	92.473	-128.4403
1380.000000	92.561	-128.1247
1400.000000	92.646	-127.8213
1430.000000	92.768	-127.3826
1450.000000	92.847	-127.1001
1475.000000	92.943	-126.7525
1500.000000	93.036	-126.4064
1525.000000	93.125	-126.0648
1550.000000	93.213	-125.7326
1575.000000	93.300	-125.4136
1600.000000	93.385	-125.1069
1625.000000	93.468	-124.8060
1650.000000	93.551	-124.5118
1675.000000	93.632	-124.2344
1700.000000	93.713	-123.9803
1725.000000	93.793	-123.7466
1750.000000	93.871	-123.5308
1775.000000	93.948	-123.3332
1800.000000	94.022	-123.1526
1825.000000	94.093	-122.9901
1850.000000	94.160	-122.8488
1875.000000	94.225	-122.7303
1900.000000	94.286	-122.6323
1925.000000	94.343	-122.5515
1950.000000	94.395	-122.4840
1975.000000	94.443	-122.4266
2000.000000	94.487	-122.3780
2030.000000	94.533	-122.3318
2060.000000	94.572	-122.2944
2090.000000	94.604	-122.2526
2120.000000	94.629	-122.1981
2140.000000	94.642	-122.1554
2180.000000	94.660	-122.0575
2200.000000	94.664	-122.0012
2240.000000	94.666	-121.8675
2270.000000	94.662	-121.7426
2300.000000	94.652	-121.5933
2330.000000	94.639	-121.4187
2360.000000	94.622	-121.2176
2400.000000	94.596	-120.9062
2430.000000	94.573	-120.6409
2470.000000	94.540	-120.2458
2500.000000	94.514	-119.9189
2540.000000	94.478	-119.4437
2580.000000	94.441	-118.9279
2620.000000	94.405	-118.3752
2650.000000	94.379	-117.9391
2690.000000	94.346	-117.3348
2720.000000	94.322	-116.8678
2760.000000	94.293	-116.2293
2800.000000	94.267	-115.5789
2850.000000	94.240	-114.7643
2900.000000	94.217	-113.9682
2950.000000	94.195	-113.2100
3000.000000	94.168	-112.4907
3040.000000	94.139	-111.9245
3070.000000	94.113	-111.4894
3110.000000	94.073	-110.8780
3150.000000	94.029	-110.2200
3200.000000	93.974	-109.3313
3250.000000	93.921	-108.3767
3300.000000	93.872	-107.3655
3350.000000	93.828	-106.3069
3400.000000	93.789	-105.2078
3450.000000	93.757	-104.0758
3500.000000	93.731	-102.9207
3550.000000	93.713	-101.7518
3600.000000	93.700	-100.5758
3650.000000	93.694	-99.3987
3700.000000	93.694	-98.2258
3750.000000	93.700	-97.0620
3820.000000	93.715	-95.4572
3870.000000	93.732	-94.3346
3950.000000	93.768	-92.5889
4000.000000	93.795	-91.5338
4060.000000	93.831	-90.3135
4120.000000	93.871	-89.1508
4180.000000	93.917	-88.0495
4250.000000	93.975	-86.8522
4310.000000	94.028	-85.9162
4370.000000	94.082	-85.0770
4440.000000	94.143	-84.2325
4500.000000	94.190	-83.6351
4550.000000	94.224	-83.2324
4620.000000	94.256	-82.8138
4680.000000	94.263	-82.5780
4750.000000	94.242	-82.4120
4820.000000	94.181	-82.2994
4870.000000	94.110	-82.2008
4940.000000	93.973	-81.9524
5000.000000	93.827	-81.5651
5080.000000	93.605	-80.7238
5150.000000	93.408	-79.6914
5220.000000	93.220	-78.4520
5300.000000	93.021	-76.8843
5380.000000	92.835	-75.2324
5450.000000	92.676	-73.7405
5520.000000	92.516	-72.1947
5600.000000	92.331	-70.3281
5700.000000	92.101	-67.7990
5800.000000	91.886	-65.0493
5900.000000	91.696	-62.1395
6000.000000	91.535	-59.1528
6080.000000	91.423	-56.7364
6150.000000	91.337	-54.6039
6220.000000	91.262	-52.4524
6300.000000	91.190	-49.9713
6400.000000	91.121	-46.8427
6500.000000	91.072	-43.7020
6600.000000	91.040	-40.5810
6700.000000	91.015	-37.4852
6800.000000	90.986	-34.3413
6900.000000	90.952	-30.9919
7000.000000	90.940	-27.2897
7100.000000	90.994	-23.2690
7200.000000	91.146	-19.1857
7300.000000	91.388	-15.3343
7400.000000	91.694	-11.8804
7500.000000	92.040	-8.8629
7620.000000	92.488	-5.7910
7750.000000	92.998	-3.0888
7880.000000	93.525	-1.0199
8000.000000	94.016	0.3026
8120.000000	94.496	1.0305
8250.000000	94.983	1.1432
8380.000000	95.413	0.6022
8500.000000	95.747	-0.4114
8620.000000	96.011	-1.8815
8750.000000	96.201	-3.9772
8850.000000	96.259	-5.8942
9000.000000	96.163	-8.9163
9120.000000	95.919	-10.9022
9250.000000	95.548	-12.0208
9380.000000	95.192	-12.0572
9500.000000	94.966	-11.7290
9620.000000	94.837	-11.7416
9750.000000	94.731	-12.6127
9880.000000	94.553	-14.4541
10000.000000	94.231	-16.6572
10150.000000	93.500	-18.7089
10300.000000	92.393	-17.6053
10440.000000	91.273	-12.4954
10600.000000	90.499	-3.9524
10750.000000	90.496	2.9740
10900.000000	90.854	7.0529
11060.000000	91.265	8.5392
11200.000000	91.525	8.0229
11380.000000	91.626	5.4918
11500.000000	91.481	3.1211
11720.000000	90.647	-0.1882
11800.000000	90.168	-0.2697
12060.000000	88.363	5.2642
12200.000000	87.567	10.8665
12410.000000	86.923	19.9449
12500.000000	86.831	23.6892
12650.000000	86.873	29.6072
12800.000000	87.124	35.0371
13150.000000	88.323	44.7552
13200.000000	88.543	45.7229
13400.000000	89.502	48.3578
13600.000000	90.514	48.6456
13800.000000	91.444	46.1987
14000.000000	92.170	41.1959
14300.000000	92.727	30.3729
14500.000000	92.676	22.4023
14750.000000	92.200	13.7003
15000.000000	91.519	6.9343
15250.000000	90.811	1.0861
15500.000000	90.067	-4.3096
15750.000000	89.314	-8.9841
16000.000000	88.667	-13.1793
16250.000000	88.226	-17.6696
16500.000000	88.017	-23.9531
16750.000000	87.800	-33.4530
17000.000000	87.172	-44.8321
17250.000000	86.009	-54.5096
17500.000000	84.601	-60.8736
17750.000000	83.413	-65.4428
18000.000000	82.734	-70.7941
18250.000000	82.489	-78.9154
18500.000000	82.423	-90.5468
18750.000000	82.361	-105.5928
19000.000000	82.231	-123.8101
19250.000000	81.982	-144.6943
19500.000000	81.574	-166.6331
19750.000000	81.057	173.9045
