* +info= www.achoreviews.com
*
*
* Freq(Hz)	SPL(dB)	Phase(degrees)
20.000000	96.601	-133.4011
20.299999	96.645	-134.1756
20.600000	96.686	-134.9485
20.900000	96.723	-135.7015
21.200001	96.758	-136.4173
21.400000	96.782	-136.8703
21.799999	96.835	-137.7273
22.000000	96.865	-138.1398
22.400000	96.932	-138.9579
22.700001	96.985	-139.5823
23.000000	97.038	-140.2233
23.299999	97.087	-140.8741
23.600000	97.131	-141.5221
24.000000	97.181	-142.3567
24.299999	97.212	-142.9436
24.700001	97.249	-143.6637
25.000000	97.276	-144.1615
25.400000	97.313	-144.7865
25.799999	97.352	-145.3965
26.200001	97.392	-146.0175
26.500000	97.420	-146.4978
26.900000	97.454	-147.1554
27.200001	97.476	-147.6545
27.600000	97.502	-148.3171
28.000000	97.524	-148.9685
28.500000	97.551	-149.7662
29.000000	97.579	-150.5508
29.500000	97.607	-151.3226
30.000000	97.637	-152.0766
30.400000	97.663	-152.6679
30.700001	97.684	-153.1082
31.100000	97.712	-153.6963
31.500000	97.738	-154.2857
32.000000	97.767	-155.0116
32.500000	97.790	-155.7020
33.000000	97.809	-156.3441
33.500000	97.828	-156.9495
34.000000	97.846	-157.5414
34.500000	97.861	-158.1315
35.000000	97.871	-158.7132
35.500000	97.877	-159.2750
36.000000	97.881	-159.8161
36.500000	97.887	-160.3473
37.000000	97.894	-160.8817
37.500000	97.901	-161.4251
38.200001	97.910	-162.1909
38.700001	97.916	-162.7267
39.500000	97.926	-163.5487
40.000000	97.935	-164.0493
40.599998	97.945	-164.6477
41.200001	97.953	-165.2359
41.799999	97.956	-165.7967
42.500000	97.957	-166.4133
43.099998	97.957	-166.9259
43.700001	97.954	-167.4348
44.400002	97.947	-168.0258
45.000000	97.940	-168.5363
45.500000	97.934	-168.9776
46.200001	97.923	-169.6422
46.799999	97.908	-170.2591
47.500000	97.877	-170.9818
48.200001	97.834	-171.6091
48.700001	97.807	-171.9684
49.400002	97.784	-172.3887
50.000000	97.782	-172.7444
50.799999	97.791	-173.2690
51.500000	97.801	-173.7563
52.200001	97.810	-174.2431
53.000000	97.817	-174.7880
53.799999	97.819	-175.3146
54.500000	97.815	-175.7562
55.200001	97.807	-176.1784
56.000000	97.793	-176.6470
57.000000	97.770	-177.2494
58.000000	97.735	-177.8717
59.000000	97.693	-178.4615
60.000000	97.653	-179.0093
60.799999	97.627	-179.4370
61.500000	97.608	-179.8098
62.200001	97.592	179.8192
63.000000	97.574	179.4002
64.000000	97.551	178.8892
65.000000	97.524	178.4030
66.000000	97.492	177.9553
67.000000	97.459	177.5376
68.000000	97.427	177.1170
69.000000	97.394	176.6773
70.000000	97.359	176.2277
71.000000	97.324	175.7786
72.000000	97.290	175.3362
73.000000	97.255	174.9122
74.000000	97.218	174.5190
75.000000	97.181	174.1588
76.199997	97.137	173.7573
77.500000	97.091	173.3278
78.800003	97.045	172.8781
80.000000	97.002	172.4510
81.199997	96.958	172.0392
82.500000	96.912	171.6325
83.800003	96.868	171.2622
85.000000	96.829	170.9438
86.199997	96.789	170.6373
87.500000	96.744	170.3024
88.500000	96.707	170.0364
90.000000	96.649	169.6332
91.199997	96.602	169.3221
92.500000	96.553	168.9987
93.800003	96.506	168.6786
95.000000	96.462	168.3899
96.199997	96.418	168.1161
97.500000	96.369	167.8381
98.800003	96.320	167.5803
100.000000	96.277	167.3549
101.500000	96.223	167.0802
103.000000	96.167	166.8154
104.400002	96.113	166.5835
106.000000	96.049	166.3403
107.500000	95.990	166.1289
109.000000	95.933	165.9214
110.599998	95.874	165.6983
112.000000	95.823	165.5048
113.800003	95.757	165.2693
115.000000	95.714	165.1230
117.199997	95.637	164.8565
118.000000	95.610	164.7573
120.599998	95.521	164.4461
122.000000	95.472	164.2996
124.099998	95.401	164.1069
125.000000	95.371	164.0283
126.500000	95.320	163.8979
128.000000	95.268	163.7698
131.500000	95.149	163.4907
132.000000	95.132	163.4533
134.000000	95.065	163.3167
136.000000	94.997	163.2049
138.000000	94.929	163.1081
140.000000	94.862	163.0092
143.000000	94.764	162.8667
145.000000	94.699	162.8003
147.500000	94.617	162.7451
150.000000	94.538	162.6929
152.500000	94.461	162.6246
155.000000	94.388	162.5613
157.500000	94.314	162.5295
160.000000	94.240	162.5222
162.500000	94.166	162.5194
165.000000	94.094	162.5123
167.500000	94.025	162.5097
170.000000	93.958	162.5190
172.500000	93.889	162.5367
175.000000	93.820	162.5654
177.500000	93.755	162.6005
180.000000	93.692	162.6369
182.500000	93.629	162.6817
185.000000	93.565	162.7413
187.500000	93.501	162.8090
190.000000	93.437	162.8758
192.500000	93.374	162.9460
195.000000	93.313	163.0284
197.500000	93.253	163.1240
200.000000	93.194	163.2308
203.000000	93.124	163.3718
206.000000	93.055	163.5269
209.000000	92.987	163.6949
212.000000	92.920	163.8633
214.000000	92.876	163.9714
218.000000	92.791	164.1870
220.000000	92.750	164.2982
224.000000	92.668	164.5240
227.000000	92.609	164.6978
230.000000	92.550	164.8759
233.000000	92.493	165.0534
236.000000	92.435	165.2332
240.000000	92.358	165.4862
243.000000	92.302	165.6817
247.000000	92.231	165.9429
250.000000	92.180	166.1449
254.000000	92.113	166.4292
258.000000	92.046	166.7257
262.000000	91.980	167.0256
265.000000	91.931	167.2469
269.000000	91.868	167.5398
272.000000	91.822	167.7641
276.000000	91.763	168.0750
280.000000	91.705	168.4016
285.000000	91.633	168.8206
290.000000	91.561	169.2316
295.000000	91.491	169.6315
300.000000	91.426	170.0374
304.000000	91.376	170.3715
307.000000	91.339	170.6226
311.000000	91.291	170.9566
315.000000	91.243	171.2944
320.000000	91.186	171.7260
325.000000	91.130	172.1640
330.000000	91.077	172.6056
335.000000	91.024	173.0532
340.000000	90.971	173.5043
345.000000	90.919	173.9586
350.000000	90.869	174.4130
355.000000	90.821	174.8613
360.000000	90.773	175.3062
365.000000	90.726	175.7504
370.000000	90.681	176.1947
375.000000	90.639	176.6388
382.000000	90.583	177.2576
387.000000	90.545	177.7008
395.000000	90.487	178.4264
400.000000	90.453	178.8944
406.000000	90.412	179.4637
412.000000	90.371	-179.9749
418.000000	90.332	-179.4324
425.000000	90.288	-178.8148
431.000000	90.253	-178.2811
437.000000	90.219	-177.7360
444.000000	90.179	-177.0954
450.000000	90.146	-176.5474
455.000000	90.121	-176.0896
462.000000	90.089	-175.4446
468.000000	90.063	-174.8907
475.000000	90.033	-174.2520
482.000000	90.005	-173.6221
487.000000	89.985	-173.1731
494.000000	89.957	-172.5410
500.000000	89.934	-171.9946
508.000000	89.905	-171.2624
515.000000	89.881	-170.6264
522.000000	89.860	-169.9962
530.000000	89.839	-169.2756
538.000000	89.820	-168.5520
545.000000	89.804	-167.9180
552.000000	89.789	-167.2842
560.000000	89.772	-166.5625
570.000000	89.753	-165.6704
580.000000	89.735	-164.7839
590.000000	89.719	-163.8887
600.000000	89.707	-162.9889
608.000000	89.699	-162.2785
615.000000	89.694	-161.6657
622.000000	89.689	-161.0566
630.000000	89.685	-160.3565
640.000000	89.683	-159.4641
650.000000	89.682	-158.5567
660.000000	89.683	-157.6524
670.000000	89.686	-156.7629
680.000000	89.691	-155.8874
690.000000	89.699	-155.0153
700.000000	89.710	-154.1383
710.000000	89.722	-153.2593
720.000000	89.736	-152.3848
730.000000	89.753	-151.5154
740.000000	89.771	-150.6464
750.000000	89.792	-149.7758
762.000000	89.820	-148.7330
775.000000	89.853	-147.6102
788.000000	89.891	-146.4973
800.000000	89.928	-145.4768
812.000000	89.970	-144.4555
825.000000	90.020	-143.3487
838.000000	90.074	-142.2500
850.000000	90.127	-141.2488
862.000000	90.185	-140.2674
875.000000	90.250	-139.2313
885.000000	90.303	-138.4501
900.000000	90.386	-137.2896
912.000000	90.456	-136.3674
925.000000	90.535	-135.3827
938.000000	90.619	-134.4221
950.000000	90.699	-133.5592
962.000000	90.782	-132.7186
975.000000	90.875	-131.8342
988.000000	90.970	-130.9805
1000.000000	91.060	-130.2202
1015.000000	91.174	-129.3030
1030.000000	91.290	-128.4181
1044.000000	91.400	-127.6231
1060.000000	91.527	-126.7560
1075.000000	91.647	-125.9857
1090.000000	91.767	-125.2553
1106.000000	91.894	-124.5163
1120.000000	92.005	-123.8994
1138.000000	92.146	-123.1486
1150.000000	92.239	-122.6758
1172.000000	92.408	-121.8549
1180.000000	92.468	-121.5680
1206.000000	92.659	-120.6726
1220.000000	92.759	-120.2137
1241.000000	92.908	-119.5591
1250.000000	92.971	-119.2899
1265.000000	93.074	-118.8547
1280.000000	93.176	-118.4348
1315.000000	93.410	-117.4966
1320.000000	93.443	-117.3661
1340.000000	93.572	-116.8533
1360.000000	93.699	-116.3582
1380.000000	93.825	-115.8779
1400.000000	93.950	-115.4067
1430.000000	94.134	-114.7139
1450.000000	94.256	-114.2633
1475.000000	94.409	-113.7167
1500.000000	94.561	-113.1911
1525.000000	94.713	-112.6861
1550.000000	94.866	-112.2026
1575.000000	95.020	-111.7380
1600.000000	95.176	-111.2930
1625.000000	95.333	-110.8741
1650.000000	95.492	-110.4849
1675.000000	95.653	-110.1299
1700.000000	95.815	-109.8160
1725.000000	95.979	-109.5499
1750.000000	96.144	-109.3357
1775.000000	96.309	-109.1758
1800.000000	96.474	-109.0713
1825.000000	96.636	-109.0241
1850.000000	96.796	-109.0359
1875.000000	96.953	-109.1067
1900.000000	97.105	-109.2356
1925.000000	97.253	-109.4216
1950.000000	97.395	-109.6632
1975.000000	97.530	-109.9573
2000.000000	97.657	-110.2987
2030.000000	97.799	-110.7662
2060.000000	97.927	-111.2916
2090.000000	98.042	-111.8648
2120.000000	98.143	-112.4749
2140.000000	98.202	-112.8976
2180.000000	98.300	-113.7680
2200.000000	98.339	-114.2101
2240.000000	98.397	-115.0934
2270.000000	98.423	-115.7430
2300.000000	98.435	-116.3711
2330.000000	98.434	-116.9692
2360.000000	98.421	-117.5297
2400.000000	98.387	-118.2085
2430.000000	98.349	-118.6606
2470.000000	98.285	-119.1804
2500.000000	98.229	-119.5052
2540.000000	98.146	-119.8514
2580.000000	98.054	-120.1007
2620.000000	97.956	-120.2564
2650.000000	97.880	-120.3146
2690.000000	97.775	-120.3211
2720.000000	97.695	-120.2777
2760.000000	97.586	-120.1606
2800.000000	97.477	-119.9787
2850.000000	97.342	-119.6706
2900.000000	97.207	-119.2901
2950.000000	97.071	-118.8459
3000.000000	96.930	-118.3308
3040.000000	96.815	-117.8541
3070.000000	96.726	-117.4518
3110.000000	96.609	-116.8498
3150.000000	96.493	-116.1722
3200.000000	96.354	-115.2267
3250.000000	96.224	-114.1849
3300.000000	96.102	-113.0591
3350.000000	95.992	-111.8613
3400.000000	95.893	-110.6041
3450.000000	95.805	-109.3004
3500.000000	95.728	-107.9626
3550.000000	95.663	-106.6002
3600.000000	95.608	-105.2206
3650.000000	95.563	-103.8319
3700.000000	95.528	-102.4412
3750.000000	95.501	-101.0546
3820.000000	95.479	-99.1319
3870.000000	95.473	-97.7793
3950.000000	95.480	-95.6635
4000.000000	95.494	-94.3792
4060.000000	95.520	-92.8853
4120.000000	95.556	-91.4527
4180.000000	95.600	-90.0922
4250.000000	95.663	-88.6129
4310.000000	95.724	-87.4553
4370.000000	95.791	-86.4163
4440.000000	95.872	-85.3734
4500.000000	95.940	-84.6399
4550.000000	95.993	-84.1483
4620.000000	96.052	-83.6415
4680.000000	96.083	-83.3623
4750.000000	96.088	-83.1808
4820.000000	96.052	-83.0889
4870.000000	95.998	-83.0239
4940.000000	95.884	-82.8436
5000.000000	95.756	-82.5329
5080.000000	95.560	-81.8290
5150.000000	95.384	-80.9616
5220.000000	95.212	-79.9328
5300.000000	95.022	-78.6468
5380.000000	94.834	-77.2915
5450.000000	94.663	-76.0451
5520.000000	94.484	-74.7162
5600.000000	94.271	-73.0589
5700.000000	94.002	-70.7363
5800.000000	93.744	-68.1460
5900.000000	93.509	-65.3622
6000.000000	93.300	-62.4582
6080.000000	93.151	-60.0732
6150.000000	93.031	-57.9448
6220.000000	92.921	-55.7775
6300.000000	92.809	-53.2543
6400.000000	92.690	-50.0408
6500.000000	92.594	-46.7819
6600.000000	92.515	-43.5006
6700.000000	92.446	-40.1889
6800.000000	92.376	-36.7654
6900.000000	92.312	-33.0798
7000.000000	92.286	-29.0276
7100.000000	92.340	-24.7086
7200.000000	92.495	-20.4007
7300.000000	92.737	-16.3603
7400.000000	93.041	-12.7080
7500.000000	93.388	-9.4641
7620.000000	93.844	-6.0983
7750.000000	94.375	-3.0879
7880.000000	94.936	-0.7552
8000.000000	95.467	0.7446
8120.000000	95.990	1.5677
8250.000000	96.521	1.6852
8380.000000	96.989	1.0496
8500.000000	97.349	-0.1316
8620.000000	97.626	-1.8313
8750.000000	97.812	-4.1988
8850.000000	97.853	-6.2839
9000.000000	97.716	-9.3720
9120.000000	97.444	-11.2004
9250.000000	97.069	-12.0337
9380.000000	96.748	-11.8722
9500.000000	96.571	-11.5422
9620.000000	96.489	-11.7023
9750.000000	96.420	-12.8407
9880.000000	96.262	-15.0052
10000.000000	95.939	-17.4711
10150.000000	95.190	-19.6290
10300.000000	94.089	-18.4234
10440.000000	93.059	-13.5909
10600.000000	92.433	-6.4256
10750.000000	92.436	-1.4008
10900.000000	92.649	0.9608
11060.000000	92.831	1.1749
11200.000000	92.871	0.0013
11380.000000	92.688	-2.8344
11500.000000	92.359	-5.0565
11720.000000	91.208	-7.3240
11800.000000	90.627	-6.8367
12060.000000	88.557	0.6263
12200.000000	87.658	7.0524
12410.000000	86.877	17.0975
12500.000000	86.725	21.2345
12650.000000	86.664	27.8425
12800.000000	86.813	34.0133
13150.000000	87.791	45.6855
13200.000000	87.982	46.9679
13400.000000	88.835	50.9532
13600.000000	89.755	52.7436
13800.000000	90.614	52.0252
14000.000000	91.304	49.0149
14300.000000	91.876	41.4775
14500.000000	91.880	35.8858
14750.000000	91.583	30.1818
15000.000000	91.223	25.8522
15250.000000	90.892	21.6275
15500.000000	90.515	17.2714
15750.000000	90.118	13.2448
16000.000000	89.814	9.5186
16250.000000	89.726	5.4421
16500.000000	89.862	-0.6687
16750.000000	89.910	-10.2245
17000.000000	89.487	-21.5504
17250.000000	88.589	-31.2552
17500.000000	87.598	-38.3673
17750.000000	86.928	-44.6414
18000.000000	86.700	-52.4333
18250.000000	86.731	-63.3130
18500.000000	86.787	-77.6472
18750.000000	86.763	-95.2177
19000.000000	86.626	-115.8372
19250.000000	86.333	-139.0473
19500.000000	85.842	-163.1481
19750.000000	85.215	175.6386
