* +info = www.achoreviews.com/solospec
*
* Freq(Hz)	SPL(dB)	Phase(degrees)
20.000000	95.205	65.7333
20.299999	95.295	65.0409
20.600000	95.380	64.3706
20.900000	95.461	63.7368
21.200001	95.542	63.1454
21.400000	95.597	62.7685
21.799999	95.713	62.0297
22.000000	95.774	61.6528
22.400000	95.895	60.8568
22.700001	95.982	60.2201
23.000000	96.061	59.5656
23.299999	96.131	58.9223
23.600000	96.193	58.3143
24.000000	96.271	57.5813
24.299999	96.331	57.0847
24.700001	96.415	56.4614
25.000000	96.481	55.9944
25.400000	96.569	55.3475
25.799999	96.654	54.6729
26.200001	96.731	53.9923
26.500000	96.786	53.4922
26.900000	96.855	52.8472
27.200001	96.906	52.3773
27.600000	96.975	51.7603
28.000000	97.045	51.1415
28.500000	97.132	50.3496
29.000000	97.216	49.5289
29.500000	97.294	48.6896
30.000000	97.363	47.8669
30.400000	97.414	47.2466
30.700001	97.452	46.8091
31.100000	97.505	46.2544
31.500000	97.561	45.7141
32.000000	97.633	45.0329
32.500000	97.702	44.3423
33.000000	97.764	43.6656
33.500000	97.822	43.0233
34.000000	97.878	42.4145
34.500000	97.933	41.8252
35.000000	97.987	41.2440
35.500000	98.040	40.6618
36.000000	98.092	40.0660
36.500000	98.142	39.4463
37.000000	98.187	38.8066
37.500000	98.227	38.1653
38.200001	98.278	37.2941
38.700001	98.314	36.6905
39.500000	98.371	35.7467
40.000000	98.406	35.1854
40.599998	98.448	34.5590
41.200001	98.494	33.9780
41.799999	98.545	33.4184
42.500000	98.607	32.7590
43.099998	98.658	32.1643
43.700001	98.699	31.5414
44.400002	98.730	30.8179
45.000000	98.747	30.2335
45.500000	98.757	29.7694
46.200001	98.771	29.1272
46.799999	98.783	28.5564
47.500000	98.796	27.8234
48.200001	98.793	27.0287
48.700001	98.777	26.5111
49.400002	98.749	26.0191
50.000000	98.752	25.8091
50.799999	98.815	25.5304
51.500000	98.895	25.0615
52.200001	98.961	24.4461
53.000000	99.016	23.7523
53.799999	99.061	23.1086
54.500000	99.093	22.5491
55.200001	99.115	21.9887
56.000000	99.129	21.3637
57.000000	99.138	20.6158
58.000000	99.149	19.8765
59.000000	99.163	19.1162
60.000000	99.180	18.3523
60.799999	99.194	17.7561
61.500000	99.204	17.2607
62.200001	99.212	16.8079
63.000000	99.220	16.3491
64.000000	99.232	15.8308
65.000000	99.243	15.3166
66.000000	99.251	14.7828
67.000000	99.256	14.2291
68.000000	99.261	13.6450
69.000000	99.267	13.0358
70.000000	99.270	12.4341
71.000000	99.272	11.8688
72.000000	99.275	11.3442
73.000000	99.276	10.8472
74.000000	99.274	10.3630
75.000000	99.270	9.8802
76.199997	99.261	9.2913
77.500000	99.251	8.6477
78.800003	99.244	8.0165
80.000000	99.240	7.4539
81.199997	99.236	6.9156
82.500000	99.229	6.3573
83.800003	99.219	5.8121
85.000000	99.208	5.3056
86.199997	99.197	4.7937
87.500000	99.186	4.2512
88.500000	99.179	3.8546
90.000000	99.167	3.2918
91.199997	99.153	2.8504
92.500000	99.132	2.3578
93.800003	99.112	1.8263
95.000000	99.101	1.2798
96.199997	99.102	0.6694
97.500000	99.115	-0.0577
98.800003	99.120	-0.7963
100.000000	99.100	-1.3431
101.500000	99.055	-1.6718
103.000000	99.015	-1.7665
104.400002	98.984	-1.8927
106.000000	98.946	-2.1890
107.500000	98.913	-2.5867
109.000000	98.884	-3.0361
110.599998	98.860	-3.5125
112.000000	98.839	-3.9039
113.800003	98.810	-4.3816
115.000000	98.788	-4.6987
117.199997	98.747	-5.2896
118.000000	98.733	-5.5027
120.599998	98.685	-6.1566
122.000000	98.659	-6.4824
124.099998	98.617	-6.9564
125.000000	98.599	-7.1597
126.500000	98.569	-7.4999
128.000000	98.539	-7.8386
131.500000	98.471	-8.6010
132.000000	98.461	-8.7061
134.000000	98.422	-9.1182
136.000000	98.383	-9.5204
138.000000	98.344	-9.9197
140.000000	98.303	-10.3171
143.000000	98.240	-10.9020
145.000000	98.197	-11.2787
147.500000	98.144	-11.7285
150.000000	98.090	-12.1597
152.500000	98.036	-12.5800
155.000000	97.982	-12.9877
157.500000	97.928	-13.3798
160.000000	97.875	-13.7561
162.500000	97.823	-14.1143
165.000000	97.769	-14.4521
167.500000	97.715	-14.7758
170.000000	97.661	-15.0924
172.500000	97.607	-15.4009
175.000000	97.551	-15.6969
177.500000	97.496	-15.9810
180.000000	97.441	-16.2540
182.500000	97.388	-16.5183
185.000000	97.333	-16.7801
187.500000	97.278	-17.0404
190.000000	97.221	-17.2953
192.500000	97.160	-17.5566
195.000000	97.091	-17.8511
197.500000	97.019	-18.1635
200.000000	96.958	-18.4171
203.000000	96.908	-18.6009
206.000000	96.867	-18.7359
209.000000	96.818	-18.8955
212.000000	96.760	-19.0823
214.000000	96.720	-19.2068
218.000000	96.637	-19.4407
220.000000	96.596	-19.5538
224.000000	96.514	-19.7731
227.000000	96.454	-19.9310
230.000000	96.393	-20.0864
233.000000	96.333	-20.2395
236.000000	96.273	-20.3887
240.000000	96.193	-20.5828
243.000000	96.133	-20.7265
247.000000	96.054	-20.9088
250.000000	95.995	-21.0173
254.000000	95.916	-21.1077
258.000000	95.839	-21.1727
262.000000	95.763	-21.2446
265.000000	95.706	-21.3002
269.000000	95.631	-21.3699
272.000000	95.574	-21.4188
276.000000	95.500	-21.4798
280.000000	95.426	-21.5343
285.000000	95.334	-21.5916
290.000000	95.239	-21.6301
295.000000	95.143	-21.6396
300.000000	95.050	-21.6450
304.000000	94.984	-21.6667
307.000000	94.938	-21.6869
311.000000	94.875	-21.7054
315.000000	94.811	-21.7118
320.000000	94.727	-21.7100
325.000000	94.642	-21.7011
330.000000	94.558	-21.6786
335.000000	94.476	-21.6342
340.000000	94.394	-21.5613
345.000000	94.314	-21.4619
350.000000	94.237	-21.3594
355.000000	94.162	-21.2734
360.000000	94.089	-21.1885
365.000000	94.017	-21.0907
370.000000	93.945	-20.9816
375.000000	93.874	-20.8644
382.000000	93.775	-20.6820
387.000000	93.702	-20.5273
395.000000	93.580	-20.2388
400.000000	93.505	-20.0896
406.000000	93.425	-19.9845
412.000000	93.351	-19.8890
418.000000	93.278	-19.7484
425.000000	93.191	-19.5367
431.000000	93.117	-19.3303
437.000000	93.043	-19.1060
444.000000	92.958	-18.8260
450.000000	92.886	-18.5728
455.000000	92.828	-18.3541
462.000000	92.748	-18.0414
468.000000	92.680	-17.7721
475.000000	92.604	-17.4611
482.000000	92.529	-17.1622
487.000000	92.477	-16.9633
494.000000	92.404	-16.7014
500.000000	92.340	-16.4659
508.000000	92.253	-16.1099
515.000000	92.178	-15.7892
522.000000	92.107	-15.4804
530.000000	92.028	-15.1333
538.000000	91.951	-14.7845
545.000000	91.885	-14.4717
552.000000	91.820	-14.1391
560.000000	91.748	-13.7285
570.000000	91.661	-13.1804
580.000000	91.578	-12.6074
590.000000	91.494	-12.0268
600.000000	91.412	-11.4713
608.000000	91.351	-11.0616
615.000000	91.299	-10.7162
622.000000	91.249	-10.3671
630.000000	91.191	-9.9540
640.000000	91.121	-9.4163
650.000000	91.052	-8.8710
660.000000	90.987	-8.3279
670.000000	90.924	-7.7682
680.000000	90.866	-7.1726
690.000000	90.810	-6.5360
700.000000	90.759	-5.8709
710.000000	90.709	-5.1920
720.000000	90.660	-4.5002
730.000000	90.613	-3.7964
740.000000	90.568	-3.0857
750.000000	90.525	-2.3748
762.000000	90.477	-1.5184
775.000000	90.430	-0.5750
788.000000	90.389	0.3868
800.000000	90.356	1.2814
812.000000	90.327	2.1747
825.000000	90.300	3.1448
838.000000	90.279	4.1198
850.000000	90.264	5.0229
862.000000	90.254	5.9272
875.000000	90.250	6.8994
885.000000	90.252	7.6366
900.000000	90.259	8.7426
912.000000	90.266	9.6492
925.000000	90.278	10.6422
938.000000	90.296	11.6228
950.000000	90.319	12.5042
962.000000	90.347	13.3577
975.000000	90.382	14.2524
988.000000	90.420	15.1152
1000.000000	90.458	15.8759
1015.000000	90.507	16.7742
1030.000000	90.558	17.6375
1044.000000	90.606	18.4349
1060.000000	90.661	19.3519
1075.000000	90.714	20.2390
1090.000000	90.781	21.1366
1106.000000	90.870	22.0093
1120.000000	90.951	22.6478
1138.000000	91.046	23.3474
1150.000000	91.103	23.7828
1172.000000	91.202	24.5593
1180.000000	91.236	24.8357
1206.000000	91.343	25.7037
1220.000000	91.398	26.1519
1241.000000	91.477	26.8064
1250.000000	91.509	27.0843
1265.000000	91.562	27.5478
1280.000000	91.613	28.0089
1315.000000	91.726	29.0319
1320.000000	91.741	29.1717
1340.000000	91.801	29.7300
1360.000000	91.857	30.2999
1380.000000	91.912	30.8804
1400.000000	91.965	31.4653
1430.000000	92.045	32.3508
1450.000000	92.098	32.9456
1475.000000	92.165	33.7021
1500.000000	92.232	34.4835
1525.000000	92.299	35.2995
1550.000000	92.366	36.1327
1575.000000	92.435	36.9751
1600.000000	92.508	37.8228
1625.000000	92.585	38.6621
1650.000000	92.666	39.4958
1675.000000	92.751	40.3151
1700.000000	92.839	41.0868
1725.000000	92.931	41.7955
1750.000000	93.026	42.4531
1775.000000	93.127	43.1051
1800.000000	93.235	43.7938
1825.000000	93.348	44.5280
1850.000000	93.464	45.3024
1875.000000	93.585	46.0933
1900.000000	93.711	46.8764
1925.000000	93.842	47.6378
1950.000000	93.978	48.3721
1975.000000	94.119	49.0842
2000.000000	94.265	49.7700
2030.000000	94.446	50.5482
2060.000000	94.633	51.2614
2090.000000	94.828	51.8755
2120.000000	95.028	52.3608
2140.000000	95.163	52.6091
2180.000000	95.440	52.9587
2200.000000	95.581	53.0776
2240.000000	95.868	53.2495
2270.000000	96.087	53.3666
2300.000000	96.313	53.4911
2330.000000	96.544	53.6052
2360.000000	96.775	53.6832
2400.000000	97.086	53.6912
2430.000000	97.320	53.6141
2470.000000	97.630	53.3795
2500.000000	97.858	53.0905
2540.000000	98.157	52.5283
2580.000000	98.446	51.7164
2620.000000	98.720	50.6291
2650.000000	98.914	49.6603
2690.000000	99.157	48.2502
2720.000000	99.327	47.1591
2760.000000	99.537	45.7095
2800.000000	99.726	44.2732
2850.000000	99.925	42.4608
2900.000000	100.083	40.6103
2950.000000	100.200	38.7497
3000.000000	100.281	36.9157
3040.000000	100.321	35.4925
3070.000000	100.338	34.4607
3110.000000	100.344	33.1430
3150.000000	100.332	31.9046
3200.000000	100.297	30.4795
3250.000000	100.243	29.2030
3300.000000	100.175	28.0765
3350.000000	100.096	27.1002
3400.000000	100.009	26.2722
3450.000000	99.919	25.5867
3500.000000	99.827	25.0371
3550.000000	99.737	24.6146
3600.000000	99.650	24.3083
3650.000000	99.570	24.1054
3700.000000	99.496	24.0022
3750.000000	99.430	23.9995
3820.000000	99.353	24.1818
3870.000000	99.313	24.4552
3950.000000	99.273	25.0154
4000.000000	99.260	25.3442
4060.000000	99.261	25.7057
4120.000000	99.281	26.0511
4180.000000	99.321	26.3850
4250.000000	99.392	26.7453
4310.000000	99.474	27.0112
4370.000000	99.576	27.2165
4440.000000	99.721	27.3455
4500.000000	99.865	27.3302
4550.000000	99.999	27.2078
4620.000000	100.203	26.8427
4680.000000	100.391	26.3224
4750.000000	100.620	25.4405
4820.000000	100.853	24.2258
4870.000000	101.016	23.1353
4940.000000	101.233	21.2744
5000.000000	101.399	19.3500
5080.000000	101.574	16.3046
5150.000000	101.664	13.2166
5220.000000	101.679	9.8198
5300.000000	101.588	5.7321
5380.000000	101.374	1.6545
5450.000000	101.091	-1.7159
5520.000000	100.726	-4.7667
5600.000000	100.231	-7.7439
5700.000000	99.523	-10.6138
5800.000000	98.756	-12.5081
5900.000000	97.966	-13.4769
6000.000000	97.184	-13.6133
6080.000000	96.578	-13.2079
6150.000000	96.069	-12.5294
6220.000000	95.582	-11.5931
6300.000000	95.058	-10.2493
6400.000000	94.454	-8.2209
6500.000000	93.907	-5.8898
6600.000000	93.418	-3.3198
6700.000000	92.984	-0.5693
6800.000000	92.604	2.3359
6900.000000	92.276	5.3669
7000.000000	92.002	8.5104
7100.000000	91.781	11.7130
7200.000000	91.618	14.8793
7300.000000	91.518	17.8636
7400.000000	91.482	20.5356
7500.000000	91.516	22.8766
7620.000000	91.642	25.2849
7750.000000	91.866	27.4620
7880.000000	92.170	29.3165
8000.000000	92.527	30.8960
8120.000000	92.972	32.4671
8250.000000	93.568	34.0335
8380.000000	94.289	35.0339
8500.000000	95.064	35.0334
8620.000000	95.912	33.6831
8750.000000	96.834	30.1557
8850.000000	97.465	25.6606
9000.000000	98.124	15.8739
9120.000000	98.281	5.9321
9250.000000	98.006	-5.6565
9380.000000	97.289	-16.4077
9500.000000	96.315	-24.4680
9620.000000	95.149	-30.3944
9750.000000	93.786	-34.6057
9880.000000	92.417	-36.9084
10000.000000	91.202	-37.6174
10150.000000	89.801	-36.8837
10300.000000	88.559	-34.7731
10440.000000	87.540	-32.0352
10600.000000	86.528	-28.3820
10750.000000	85.711	-24.7041
10900.000000	85.010	-20.9772
11060.000000	84.379	-17.1857
11200.000000	83.916	-14.1680
11380.000000	83.433	-10.5225
11500.000000	83.181	-8.0261
11720.000000	82.862	-2.9814
11800.000000	82.795	-1.0109
12060.000000	82.755	5.4529
12200.000000	82.856	8.8088
12410.000000	83.190	13.5112
12500.000000	83.411	15.3571
12650.000000	83.900	18.1243
12800.000000	84.556	20.3397
13150.000000	86.752	21.8213
13200.000000	87.124	21.3776
13400.000000	88.642	17.0970
13600.000000	89.976	7.7911
13800.000000	90.807	-6.8559
14000.000000	90.894	-24.7305
14300.000000	89.558	-49.1538
14500.000000	87.942	-60.0554
14750.000000	85.561	-67.6383
15000.000000	83.193	-70.7274
15250.000000	81.107	-71.4818
15500.000000	79.402	-71.1882
15750.000000	78.082	-70.6254
16000.000000	77.110	-70.3336
16250.000000	76.424	-70.6666
16500.000000	75.974	-71.8433
16750.000000	75.751	-74.0575
17000.000000	75.785	-77.5605
17250.000000	76.083	-82.8108
17500.000000	76.595	-90.5407
17750.000000	77.176	-102.1487
18000.000000	77.600	-118.9798
18250.000000	77.619	-140.9288
18500.000000	77.061	-165.9440
18750.000000	75.873	168.8088
19000.000000	74.123	145.4060
19250.000000	71.942	124.7169
19500.000000	69.486	107.1555
19750.000000	66.989	93.7500
