* +info = www.achoreviews.com
*
* Freq(Hz)	SPL(dB)	Phase(degrees)
20.000000	82.988	-102.1136
20.299999	83.102	-102.2993
20.600000	83.225	-102.3906
20.900000	83.359	-102.4507
21.200001	83.505	-102.5551
21.400000	83.606	-102.6941
21.799999	83.804	-103.2049
22.000000	83.894	-103.5994
22.400000	84.033	-104.6633
22.700001	84.087	-105.6192
23.000000	84.089	-106.5661
23.299999	84.046	-107.3298
23.600000	83.977	-107.7742
24.000000	83.895	-107.7672
24.299999	83.890	-107.4078
24.700001	84.001	-106.8174
25.000000	84.165	-106.6273
25.400000	84.437	-107.0380
25.799999	84.685	-108.2125
26.200001	84.854	-109.7586
26.500000	84.934	-110.8416
26.900000	85.018	-111.9329
27.200001	85.098	-112.5039
27.600000	85.250	-113.1756
28.000000	85.427	-114.0788
28.500000	85.590	-115.6333
29.000000	85.623	-117.0454
29.500000	85.577	-117.5636
30.000000	85.585	-117.1497
30.400000	85.682	-116.6552
30.700001	85.792	-116.4724
31.100000	85.938	-116.6264
31.500000	86.042	-117.1245
32.000000	86.092	-117.8378
32.500000	86.080	-118.2942
33.000000	86.054	-118.3707
33.500000	86.051	-118.0728
34.000000	86.120	-117.4801
34.500000	86.306	-116.9276
35.000000	86.590	-116.9582
35.500000	86.877	-117.9661
36.000000	87.063	-119.7540
36.500000	87.108	-121.6423
37.000000	87.053	-122.9232
37.500000	86.989	-123.3792
38.200001	87.013	-123.2457
38.700001	87.110	-123.2128
39.500000	87.274	-123.7256
40.000000	87.341	-124.1959
40.599998	87.394	-124.6697
41.200001	87.449	-125.0115
41.799999	87.528	-125.3513
42.500000	87.654	-125.9948
43.099998	87.761	-126.9301
43.700001	87.819	-128.1322
44.400002	87.803	-129.3445
45.000000	87.766	-129.7665
45.500000	87.780	-129.7144
46.200001	87.897	-129.5566
46.799999	88.038	-129.7601
47.500000	88.161	-130.3326
48.200001	88.218	-130.8188
48.700001	88.240	-130.9413
49.400002	88.290	-130.8617
50.000000	88.367	-130.8233
50.799999	88.484	-131.1953
51.500000	88.548	-131.8716
52.200001	88.576	-132.5688
53.000000	88.609	-133.2509
53.799999	88.668	-133.9564
54.500000	88.728	-134.6253
55.200001	88.788	-135.2554
56.000000	88.853	-135.8246
57.000000	88.936	-136.1659
58.000000	89.045	-136.1232
59.000000	89.181	-136.0695
60.000000	89.295	-136.2905
60.799999	89.341	-136.6304
61.500000	89.350	-136.9745
62.200001	89.336	-137.3099
63.000000	89.308	-137.6353
64.000000	89.294	-137.9845
65.000000	89.324	-138.4501
66.000000	89.377	-139.1026
67.000000	89.436	-139.7738
68.000000	89.503	-140.3020
69.000000	89.582	-140.6840
70.000000	89.659	-140.9706
71.000000	89.721	-141.1875
72.000000	89.754	-141.3435
73.000000	89.760	-141.3984
74.000000	89.758	-141.2996
75.000000	89.790	-141.1693
76.199997	89.886	-141.4732
77.500000	89.966	-142.5661
78.800003	89.981	-143.7579
80.000000	89.987	-144.5786
81.199997	90.010	-145.1683
82.500000	90.049	-145.6363
83.800003	90.092	-146.0150
85.000000	90.128	-146.3488
86.199997	90.155	-146.6880
87.500000	90.179	-147.0448
88.500000	90.198	-147.2980
90.000000	90.234	-147.6501
91.199997	90.270	-147.9469
92.500000	90.307	-148.3224
93.800003	90.332	-148.7308
95.000000	90.345	-149.0872
96.199997	90.357	-149.4017
97.500000	90.374	-149.7067
98.800003	90.397	-150.0009
100.000000	90.424	-150.2891
101.500000	90.455	-150.6910
103.000000	90.481	-151.0916
104.400002	90.505	-151.4167
106.000000	90.541	-151.7522
107.500000	90.576	-152.0588
109.000000	90.604	-152.3491
110.599998	90.625	-152.6390
112.000000	90.637	-152.8843
113.800003	90.651	-153.1978
115.000000	90.661	-153.4052
117.199997	90.683	-153.7891
118.000000	90.691	-153.9356
120.599998	90.711	-154.4545
122.000000	90.722	-154.7625
124.099998	90.743	-155.2260
125.000000	90.754	-155.4061
126.500000	90.774	-155.6681
128.000000	90.796	-155.8908
131.500000	90.850	-156.3932
132.000000	90.858	-156.4701
134.000000	90.889	-156.7749
136.000000	90.913	-157.0435
138.000000	90.922	-157.2558
140.000000	90.919	-157.4450
143.000000	90.920	-157.8300
145.000000	90.929	-158.1407
147.500000	90.948	-158.5059
150.000000	90.966	-158.8185
152.500000	90.982	-159.0891
155.000000	91.001	-159.3187
157.500000	91.022	-159.5362
160.000000	91.035	-159.7879
162.500000	91.042	-160.0615
165.000000	91.048	-160.3323
167.500000	91.057	-160.5958
170.000000	91.068	-160.8451
172.500000	91.081	-161.0753
175.000000	91.093	-161.2979
177.500000	91.101	-161.5332
180.000000	91.105	-161.7777
182.500000	91.110	-161.9972
185.000000	91.116	-162.1716
187.500000	91.123	-162.3221
190.000000	91.129	-162.4812
192.500000	91.138	-162.6601
195.000000	91.147	-162.8490
197.500000	91.156	-163.0353
200.000000	91.164	-163.2237
203.000000	91.175	-163.4541
206.000000	91.187	-163.6713
209.000000	91.198	-163.8690
212.000000	91.206	-164.0582
214.000000	91.210	-164.1837
218.000000	91.216	-164.4216
220.000000	91.220	-164.5282
224.000000	91.226	-164.7321
227.000000	91.226	-164.9004
230.000000	91.226	-165.0820
233.000000	91.228	-165.2625
236.000000	91.232	-165.4343
240.000000	91.237	-165.6417
243.000000	91.240	-165.7808
247.000000	91.241	-165.9593
250.000000	91.241	-166.0993
254.000000	91.242	-166.2986
258.000000	91.243	-166.5053
262.000000	91.244	-166.7070
265.000000	91.245	-166.8512
269.000000	91.245	-167.0335
272.000000	91.246	-167.1580
276.000000	91.249	-167.3051
280.000000	91.252	-167.4452
285.000000	91.253	-167.6282
290.000000	91.248	-167.8172
295.000000	91.242	-167.9961
300.000000	91.236	-168.1606
304.000000	91.230	-168.2980
307.000000	91.224	-168.4091
311.000000	91.216	-168.5678
315.000000	91.211	-168.7331
320.000000	91.208	-168.9234
325.000000	91.203	-169.0782
330.000000	91.196	-169.2296
335.000000	91.187	-169.3977
340.000000	91.177	-169.5641
345.000000	91.164	-169.7121
350.000000	91.150	-169.8480
355.000000	91.137	-169.9847
360.000000	91.125	-170.1196
365.000000	91.113	-170.2447
370.000000	91.100	-170.3605
375.000000	91.085	-170.4757
382.000000	91.066	-170.6436
387.000000	91.052	-170.7594
395.000000	91.025	-170.9243
400.000000	91.006	-171.0218
406.000000	90.982	-171.1378
412.000000	90.959	-171.2520
418.000000	90.934	-171.3615
425.000000	90.905	-171.4748
431.000000	90.878	-171.5549
437.000000	90.849	-171.6177
444.000000	90.815	-171.6752
450.000000	90.786	-171.7191
455.000000	90.760	-171.7557
462.000000	90.722	-171.8090
468.000000	90.689	-171.8520
475.000000	90.651	-171.8879
482.000000	90.612	-171.9044
487.000000	90.583	-171.9041
494.000000	90.540	-171.8882
500.000000	90.503	-171.8651
508.000000	90.454	-171.8235
515.000000	90.412	-171.7766
522.000000	90.369	-171.7250
530.000000	90.320	-171.6572
538.000000	90.269	-171.5672
545.000000	90.221	-171.4709
552.000000	90.171	-171.3636
560.000000	90.115	-171.2241
570.000000	90.049	-171.0223
580.000000	89.986	-170.8048
590.000000	89.922	-170.5656
600.000000	89.856	-170.2949
608.000000	89.803	-170.0535
615.000000	89.758	-169.8208
622.000000	89.713	-169.5693
630.000000	89.663	-169.2642
640.000000	89.600	-168.8575
650.000000	89.535	-168.4192
660.000000	89.473	-167.9658
670.000000	89.415	-167.5042
680.000000	89.359	-167.0227
690.000000	89.305	-166.5123
700.000000	89.253	-165.9735
710.000000	89.203	-165.4134
720.000000	89.156	-164.8361
730.000000	89.112	-164.2405
740.000000	89.072	-163.6252
750.000000	89.035	-162.9894
762.000000	88.995	-162.2003
775.000000	88.956	-161.3218
788.000000	88.923	-160.4287
800.000000	88.898	-159.5883
812.000000	88.879	-158.7255
825.000000	88.867	-157.7711
838.000000	88.864	-156.8066
850.000000	88.868	-155.9149
862.000000	88.876	-155.0224
875.000000	88.892	-154.0549
885.000000	88.909	-153.3155
900.000000	88.943	-152.2192
912.000000	88.977	-151.3510
925.000000	89.019	-150.4206
938.000000	89.068	-149.5086
950.000000	89.118	-148.6854
962.000000	89.174	-147.8772
975.000000	89.241	-147.0234
988.000000	89.313	-146.2001
1000.000000	89.385	-145.4700
1015.000000	89.480	-144.5981
1030.000000	89.581	-143.7744
1044.000000	89.679	-143.0545
1060.000000	89.795	-142.2859
1075.000000	89.906	-141.6134
1090.000000	90.019	-140.9878
1106.000000	90.141	-140.3717
1120.000000	90.249	-139.8753
1138.000000	90.392	-139.2992
1150.000000	90.487	-138.9568
1172.000000	90.659	-138.4179
1180.000000	90.720	-138.2467
1206.000000	90.918	-137.7591
1220.000000	91.024	-137.5366
1241.000000	91.179	-137.2586
1250.000000	91.245	-137.1600
1265.000000	91.352	-137.0207
1280.000000	91.459	-136.9103
1315.000000	91.700	-136.7558
1320.000000	91.733	-136.7462
1340.000000	91.864	-136.7446
1360.000000	91.991	-136.8025
1380.000000	92.111	-136.9109
1400.000000	92.226	-137.0616
1430.000000	92.387	-137.3653
1450.000000	92.487	-137.6112
1475.000000	92.602	-137.9541
1500.000000	92.707	-138.3324
1525.000000	92.803	-138.7424
1550.000000	92.889	-139.1821
1575.000000	92.965	-139.6549
1600.000000	93.030	-140.1605
1625.000000	93.084	-140.6850
1650.000000	93.126	-141.2147
1675.000000	93.159	-141.7438
1700.000000	93.181	-142.2637
1725.000000	93.194	-142.7653
1750.000000	93.199	-143.2474
1775.000000	93.196	-143.7114
1800.000000	93.189	-144.1602
1825.000000	93.176	-144.6003
1850.000000	93.157	-145.0409
1875.000000	93.131	-145.4880
1900.000000	93.096	-145.9354
1925.000000	93.052	-146.3702
1950.000000	92.998	-146.7798
1975.000000	92.934	-147.1538
2000.000000	92.863	-147.4826
2030.000000	92.767	-147.8104
2060.000000	92.663	-148.0656
2090.000000	92.554	-148.2486
2120.000000	92.440	-148.3596
2140.000000	92.362	-148.3949
2180.000000	92.203	-148.3797
2200.000000	92.122	-148.3318
2240.000000	91.958	-148.1550
2270.000000	91.834	-147.9508
2300.000000	91.710	-147.6859
2330.000000	91.586	-147.3601
2360.000000	91.464	-146.9727
2400.000000	91.306	-146.3648
2430.000000	91.195	-145.8526
2470.000000	91.058	-145.1217
2500.000000	90.963	-144.5612
2540.000000	90.846	-143.8256
2580.000000	90.735	-143.1120
2620.000000	90.626	-142.4191
2650.000000	90.545	-141.9128
2690.000000	90.433	-141.2534
2720.000000	90.347	-140.7655
2760.000000	90.224	-140.1084
2800.000000	90.093	-139.4061
2850.000000	89.923	-138.3842
2900.000000	89.764	-137.1667
2950.000000	89.637	-135.8591
3000.000000	89.548	-134.6563
3040.000000	89.494	-133.8874
3070.000000	89.452	-133.4572
3110.000000	89.379	-133.0760
3150.000000	89.268	-132.8479
3200.000000	89.051	-132.5374
3250.000000	88.749	-131.7912
3300.000000	88.414	-130.2824
3350.000000	88.126	-128.0915
3400.000000	87.928	-125.6425
3450.000000	87.803	-123.3086
3500.000000	87.704	-121.1604
3550.000000	87.607	-119.0535
3600.000000	87.520	-116.8579
3650.000000	87.461	-114.5818
3700.000000	87.434	-112.3154
3750.000000	87.437	-110.1305
3820.000000	87.479	-107.2579
3870.000000	87.535	-105.3660
3950.000000	87.654	-102.6877
4000.000000	87.734	-101.2526
4060.000000	87.826	-99.7621
4120.000000	87.908	-98.4904
4180.000000	87.975	-97.3999
4250.000000	88.029	-96.3312
4310.000000	88.052	-95.5798
4370.000000	88.046	-94.9564
4440.000000	87.993	-94.3140
4500.000000	87.903	-93.7297
4550.000000	87.800	-93.1340
4620.000000	87.634	-92.0439
4680.000000	87.489	-90.8787
4750.000000	87.334	-89.3643
4820.000000	87.188	-87.7854
4870.000000	87.084	-86.6153
4940.000000	86.942	-84.8750
5000.000000	86.831	-83.3084
5080.000000	86.704	-81.2577
5150.000000	86.592	-79.5915
5220.000000	86.451	-77.9478
5300.000000	86.255	-75.8078
5380.000000	86.073	-73.2477
5450.000000	85.967	-70.8699
5520.000000	85.915	-68.6775
5600.000000	85.876	-66.6292
5700.000000	85.781	-64.7100
5800.000000	85.578	-63.1566
5900.000000	85.248	-61.6205
6000.000000	84.766	-59.6771
6080.000000	84.264	-57.3173
6150.000000	83.768	-54.3133
6220.000000	83.275	-50.3297
6300.000000	82.789	-44.7441
6400.000000	82.395	-36.7870
6500.000000	82.274	-28.4753
6600.000000	82.393	-20.4051
6700.000000	82.676	-12.8952
6800.000000	83.062	-6.0088
6900.000000	83.514	0.3158
7000.000000	84.010	6.1612
7100.000000	84.543	11.6162
7200.000000	85.113	16.7859
7300.000000	85.738	21.7684
7400.000000	86.448	26.5872
7500.000000	87.268	31.1159
7620.000000	88.400	35.8210
7750.000000	89.768	39.5340
7880.000000	91.204	41.3169
8000.000000	92.487	40.8549
8120.000000	93.613	38.1718
8250.000000	94.532	33.0248
8380.000000	95.053	26.5417
8500.000000	95.181	20.6668
8620.000000	95.052	15.8987
8750.000000	94.753	12.3352
8850.000000	94.480	10.5640
9000.000000	94.057	9.0551
9120.000000	93.726	8.6215
9250.000000	93.386	8.8132
9380.000000	93.084	9.6288
9500.000000	92.857	10.8629
9620.000000	92.701	12.4267
9750.000000	92.622	14.3029
9880.000000	92.635	16.1984
10000.000000	92.729	17.8297
10150.000000	92.949	19.4408
10300.000000	93.249	20.2015
10440.000000	93.539	19.9115
10600.000000	93.808	18.4124
10750.000000	93.949	16.1093
10900.000000	93.958	13.2683
11060.000000	93.809	10.0522
11200.000000	93.553	7.4003
11380.000000	93.078	4.5430
11500.000000	92.688	3.0761
11720.000000	91.857	1.3799
11800.000000	91.524	1.1028
12060.000000	90.360	1.6734
12200.000000	89.715	3.0518
12410.000000	88.823	6.5322
12500.000000	88.501	8.4453
12650.000000	88.083	11.9719
12800.000000	87.837	15.6395
13150.000000	87.879	23.0328
13200.000000	87.938	23.8210
13400.000000	88.252	26.0649
13600.000000	88.619	26.7353
13800.000000	88.965	25.8345
14000.000000	89.237	23.5175
14300.000000	89.426	17.8984
14500.000000	89.355	13.1574
14750.000000	88.992	6.9172
15000.000000	88.321	1.3832
15250.000000	87.428	-2.5571
15500.000000	86.484	-4.7216
15750.000000	85.681	-5.7482
16000.000000	85.112	-6.6231
16250.000000	84.742	-8.0199
16500.000000	84.505	-10.1203
16750.000000	84.394	-12.9479
17000.000000	84.456	-16.7514
17250.000000	84.731	-22.1054
17500.000000	85.186	-29.7812
17750.000000	85.703	-40.5452
18000.000000	86.121	-54.8946
18250.000000	86.288	-72.8056
18500.000000	86.100	-93.6291
18750.000000	85.520	-116.2666
19000.000000	84.580	-139.5987
19250.000000	83.360	-162.7157
19500.000000	81.976	175.5526
19750.000000	80.621	157.5280
