* +info = www.achoreviews.com
*
*
* Freq(Hz)	SPL(dB)	Phase(degrees)
20.000000	96.704	-142.6017
20.299999	96.738	-143.2735
20.600000	96.773	-143.9540
20.900000	96.808	-144.6341
21.200001	96.843	-145.3045
21.400000	96.867	-145.7430
21.799999	96.916	-146.5983
22.000000	96.942	-147.0169
22.400000	96.993	-147.8422
22.700001	97.031	-148.4523
23.000000	97.066	-149.0505
23.299999	97.097	-149.6284
23.600000	97.124	-150.1765
24.000000	97.156	-150.8524
24.299999	97.178	-151.3213
24.700001	97.209	-151.9138
25.000000	97.232	-152.3481
25.400000	97.259	-152.9269
25.799999	97.282	-153.5051
26.200001	97.300	-154.0742
26.500000	97.312	-154.4936
26.900000	97.326	-155.0515
27.200001	97.337	-155.4788
27.600000	97.349	-156.0685
28.000000	97.356	-156.6718
28.500000	97.356	-157.4033
29.000000	97.353	-158.0667
29.500000	97.357	-158.6664
30.000000	97.370	-159.2406
30.400000	97.382	-159.6879
30.700001	97.392	-160.0022
31.100000	97.407	-160.3713
31.500000	97.433	-160.6827
32.000000	97.491	-161.0694
32.500000	97.574	-161.6105
33.000000	97.654	-162.4201
33.500000	97.696	-163.4410
34.000000	97.685	-164.4677
34.500000	97.633	-165.2888
35.000000	97.571	-165.8272
35.500000	97.527	-166.1673
36.000000	97.505	-166.4527
36.500000	97.496	-166.7660
37.000000	97.492	-167.1062
37.500000	97.493	-167.4539
38.200001	97.505	-167.9859
38.700001	97.515	-168.4333
39.500000	97.516	-169.2036
40.000000	97.506	-169.6411
40.599998	97.496	-170.0902
41.200001	97.494	-170.4980
41.799999	97.499	-170.9255
42.500000	97.505	-171.4969
43.099998	97.499	-172.0298
43.700001	97.479	-172.5316
44.400002	97.453	-173.0124
45.000000	97.441	-173.3779
45.500000	97.438	-173.7073
46.200001	97.430	-174.2191
46.799999	97.418	-174.6442
47.500000	97.407	-175.0850
48.200001	97.407	-175.5262
48.700001	97.408	-175.8742
49.400002	97.404	-176.3957
50.000000	97.392	-176.8458
50.799999	97.364	-177.4121
51.500000	97.328	-177.8311
52.200001	97.290	-178.1510
53.000000	97.257	-178.4512
53.799999	97.230	-178.7599
54.500000	97.208	-179.0408
55.200001	97.190	-179.3331
56.000000	97.173	-179.7209
57.000000	97.144	179.7236
58.000000	97.110	179.1875
59.000000	97.079	178.6762
60.000000	97.051	178.1992
60.799999	97.037	177.8524
61.500000	97.033	177.5070
62.200001	97.023	177.0888
63.000000	96.991	176.6097
64.000000	96.932	176.1986
65.000000	96.884	175.9471
66.000000	96.848	175.7032
67.000000	96.817	175.4224
68.000000	96.786	175.0919
69.000000	96.750	174.7335
70.000000	96.712	174.3891
71.000000	96.675	174.0770
72.000000	96.642	173.7903
73.000000	96.615	173.5057
74.000000	96.588	173.1966
75.000000	96.555	172.8744
76.199997	96.506	172.5277
77.500000	96.451	172.2176
78.800003	96.403	171.9197
80.000000	96.360	171.6238
81.199997	96.316	171.3210
82.500000	96.268	171.0056
83.800003	96.222	170.7056
85.000000	96.179	170.4373
86.199997	96.137	170.1766
87.500000	96.090	169.9096
88.500000	96.054	169.7152
90.000000	96.000	169.4365
91.199997	95.958	169.2239
92.500000	95.913	168.9991
93.800003	95.867	168.7845
95.000000	95.823	168.6046
96.199997	95.780	168.4401
97.500000	95.735	168.2666
98.800003	95.690	168.0867
100.000000	95.649	167.9150
101.500000	95.596	167.7042
103.000000	95.543	167.5067
104.400002	95.493	167.3353
106.000000	95.438	167.1580
107.500000	95.387	167.0110
109.000000	95.339	166.8738
110.599998	95.288	166.7233
112.000000	95.242	166.5906
113.800003	95.180	166.4355
115.000000	95.138	166.3399
117.199997	95.064	166.1713
118.000000	95.038	166.1158
120.599998	94.956	165.9562
122.000000	94.914	165.8794
124.099998	94.849	165.7691
125.000000	94.821	165.7219
126.500000	94.774	165.6447
128.000000	94.728	165.5739
131.500000	94.625	165.4530
132.000000	94.610	165.4406
134.000000	94.550	165.4001
136.000000	94.488	165.3673
138.000000	94.428	165.3314
140.000000	94.371	165.2882
143.000000	94.291	165.2381
145.000000	94.238	165.2236
147.500000	94.169	165.2137
150.000000	94.099	165.2172
152.500000	94.032	165.2377
155.000000	93.969	165.2653
157.500000	93.907	165.3007
160.000000	93.844	165.3416
162.500000	93.780	165.3840
165.000000	93.715	165.4366
167.500000	93.652	165.5008
170.000000	93.591	165.5750
172.500000	93.533	165.6600
175.000000	93.475	165.7486
177.500000	93.418	165.8379
180.000000	93.361	165.9300
182.500000	93.305	166.0273
185.000000	93.252	166.1295
187.500000	93.201	166.2368
190.000000	93.149	166.3591
192.500000	93.097	166.4973
195.000000	93.045	166.6378
197.500000	92.994	166.7724
200.000000	92.944	166.9051
203.000000	92.885	167.0702
206.000000	92.827	167.2394
209.000000	92.769	167.4090
212.000000	92.714	167.5802
214.000000	92.678	167.6976
218.000000	92.607	167.9432
220.000000	92.572	168.0750
224.000000	92.504	168.3582
227.000000	92.455	168.5729
230.000000	92.408	168.7883
233.000000	92.362	169.0082
236.000000	92.316	169.2265
240.000000	92.254	169.5063
243.000000	92.207	169.7114
247.000000	92.146	169.9936
250.000000	92.102	170.2160
254.000000	92.048	170.5213
258.000000	91.995	170.8342
262.000000	91.942	171.1559
265.000000	91.903	171.4009
269.000000	91.853	171.7351
272.000000	91.817	171.9899
276.000000	91.767	172.3224
280.000000	91.719	172.6388
285.000000	91.661	173.0235
290.000000	91.604	173.4221
295.000000	91.549	173.8402
300.000000	91.497	174.2603
304.000000	91.457	174.5918
307.000000	91.428	174.8440
311.000000	91.388	175.1898
315.000000	91.350	175.5427
320.000000	91.305	175.9839
325.000000	91.261	176.4173
330.000000	91.218	176.8388
335.000000	91.175	177.2515
340.000000	91.131	177.6665
345.000000	91.090	178.0899
350.000000	91.050	178.5181
355.000000	91.013	178.9489
360.000000	90.977	179.3805
365.000000	90.942	179.8120
370.000000	90.908	-179.7571
375.000000	90.874	-179.3267
382.000000	90.828	-178.7229
387.000000	90.797	-178.2918
395.000000	90.749	-177.5968
400.000000	90.720	-177.1586
406.000000	90.686	-176.6339
412.000000	90.654	-176.1185
418.000000	90.623	-175.6077
425.000000	90.587	-175.0058
431.000000	90.558	-174.4847
437.000000	90.531	-173.9627
444.000000	90.502	-173.3564
450.000000	90.478	-172.8398
455.000000	90.457	-172.4085
462.000000	90.429	-171.8030
468.000000	90.405	-171.2847
475.000000	90.379	-170.6795
482.000000	90.353	-170.0783
487.000000	90.337	-169.6522
494.000000	90.315	-169.0515
500.000000	90.297	-168.5301
508.000000	90.274	-167.8376
515.000000	90.254	-167.2322
522.000000	90.234	-166.6197
530.000000	90.213	-165.9182
538.000000	90.196	-165.2224
545.000000	90.183	-164.6175
552.000000	90.169	-164.0140
560.000000	90.152	-163.3231
570.000000	90.133	-162.4579
580.000000	90.115	-161.5957
590.000000	90.100	-160.7321
600.000000	90.088	-159.8653
608.000000	90.081	-159.1701
615.000000	90.075	-158.5638
622.000000	90.070	-157.9597
630.000000	90.065	-157.2652
640.000000	90.060	-156.3878
650.000000	90.057	-155.5072
660.000000	90.055	-154.6252
670.000000	90.055	-153.7383
680.000000	90.057	-152.8480
690.000000	90.060	-151.9540
700.000000	90.066	-151.0615
710.000000	90.077	-150.1715
720.000000	90.089	-149.2771
730.000000	90.103	-148.3798
740.000000	90.119	-147.4841
750.000000	90.138	-146.5874
762.000000	90.164	-145.5059
775.000000	90.195	-144.3354
788.000000	90.230	-143.1668
800.000000	90.267	-142.0877
812.000000	90.309	-141.0111
825.000000	90.360	-139.8472
838.000000	90.415	-138.6892
850.000000	90.469	-137.6320
862.000000	90.528	-136.5849
875.000000	90.597	-135.4586
885.000000	90.654	-134.6038
900.000000	90.746	-133.3535
912.000000	90.824	-132.3785
925.000000	90.915	-131.3423
938.000000	91.011	-130.3332
950.000000	91.105	-129.4320
962.000000	91.202	-128.5638
975.000000	91.310	-127.6618
988.000000	91.419	-126.7996
1000.000000	91.523	-126.0413
1015.000000	91.655	-125.1524
1030.000000	91.790	-124.3438
1044.000000	91.913	-123.6690
1060.000000	92.047	-122.9832
1075.000000	92.160	-122.3892
1090.000000	92.261	-121.7743
1106.000000	92.364	-121.0379
1120.000000	92.461	-120.3459
1138.000000	92.601	-119.4818
1150.000000	92.701	-118.9577
1172.000000	92.886	-118.1224
1180.000000	92.952	-117.8536
1206.000000	93.159	-117.0725
1220.000000	93.264	-116.6949
1241.000000	93.415	-116.1684
1250.000000	93.476	-115.9548
1265.000000	93.575	-115.6104
1280.000000	93.671	-115.2782
1315.000000	93.881	-114.5494
1320.000000	93.910	-114.4499
1340.000000	94.022	-114.0623
1360.000000	94.127	-113.6909
1380.000000	94.226	-113.3310
1400.000000	94.320	-112.9742
1430.000000	94.447	-112.4285
1450.000000	94.524	-112.0425
1475.000000	94.614	-111.5150
1500.000000	94.699	-110.9287
1525.000000	94.785	-110.2805
1550.000000	94.874	-109.5778
1575.000000	94.971	-108.8368
1600.000000	95.077	-108.0846
1625.000000	95.190	-107.3493
1650.000000	95.309	-106.6456
1675.000000	95.431	-105.9790
1700.000000	95.557	-105.3478
1725.000000	95.684	-104.7484
1750.000000	95.813	-104.1807
1775.000000	95.941	-103.6449
1800.000000	96.068	-103.1374
1825.000000	96.196	-102.6548
1850.000000	96.323	-102.1985
1875.000000	96.450	-101.7692
1900.000000	96.576	-101.3648
1925.000000	96.701	-100.9844
1950.000000	96.825	-100.6295
1975.000000	96.947	-100.3008
2000.000000	97.067	-99.9968
2030.000000	97.210	-99.6642
2060.000000	97.350	-99.3666
2090.000000	97.488	-99.1020
2120.000000	97.622	-98.8697
2140.000000	97.710	-98.7334
2180.000000	97.880	-98.5033
2200.000000	97.962	-98.4087
2240.000000	98.120	-98.2583
2270.000000	98.234	-98.1769
2300.000000	98.342	-98.1187
2330.000000	98.445	-98.0811
2360.000000	98.542	-98.0637
2400.000000	98.663	-98.0702
2430.000000	98.747	-98.0938
2470.000000	98.850	-98.1473
2500.000000	98.920	-98.2007
2540.000000	99.005	-98.2812
2580.000000	99.080	-98.3651
2620.000000	99.145	-98.4486
2650.000000	99.187	-98.5084
2690.000000	99.236	-98.5792
2720.000000	99.266	-98.6236
2760.000000	99.301	-98.6694
2800.000000	99.328	-98.6961
2850.000000	99.352	-98.6982
2900.000000	99.368	-98.6592
2950.000000	99.376	-98.5737
3000.000000	99.378	-98.4395
3040.000000	99.377	-98.2975
3070.000000	99.374	-98.1715
3110.000000	99.369	-97.9786
3150.000000	99.363	-97.7585
3200.000000	99.354	-97.4468
3250.000000	99.346	-97.0972
3300.000000	99.338	-96.7125
3350.000000	99.331	-96.2962
3400.000000	99.327	-95.8526
3450.000000	99.325	-95.3899
3500.000000	99.326	-94.9160
3550.000000	99.329	-94.4349
3600.000000	99.335	-93.9516
3650.000000	99.344	-93.4716
3700.000000	99.356	-93.0012
3750.000000	99.370	-92.5472
3820.000000	99.394	-91.9545
3870.000000	99.412	-91.5709
3950.000000	99.443	-91.0403
4000.000000	99.462	-90.7678
4060.000000	99.484	-90.5089
4120.000000	99.501	-90.3324
4180.000000	99.513	-90.2449
4250.000000	99.515	-90.2595
4310.000000	99.506	-90.3709
4370.000000	99.484	-90.5692
4440.000000	99.438	-90.9011
4500.000000	99.378	-91.2604
4550.000000	99.312	-91.6023
4620.000000	99.192	-92.1231
4680.000000	99.062	-92.5845
4750.000000	98.877	-93.1047
4820.000000	98.655	-93.5617
4870.000000	98.474	-93.8184
4940.000000	98.191	-94.0334
5000.000000	97.927	-94.0515
5080.000000	97.555	-93.8264
5150.000000	97.215	-93.4222
5220.000000	96.862	-92.8362
5300.000000	96.447	-91.9137
5380.000000	96.028	-90.7164
5450.000000	95.664	-89.4865
5520.000000	95.301	-88.1226
5600.000000	94.885	-86.4024
5700.000000	94.363	-83.9776
5800.000000	93.845	-81.2217
5900.000000	93.340	-78.1403
6000.000000	92.857	-74.7609
6080.000000	92.490	-71.8647
6150.000000	92.185	-69.2032
6220.000000	91.896	-66.4339
6300.000000	91.585	-63.1501
6400.000000	91.226	-58.8840
6500.000000	90.903	-54.4587
6600.000000	90.614	-49.8893
6700.000000	90.357	-45.1838
6800.000000	90.132	-40.3472
6900.000000	89.938	-35.3809
7000.000000	89.776	-30.2880
7100.000000	89.648	-25.0845
7200.000000	89.557	-19.7871
7300.000000	89.501	-14.3957
7400.000000	89.483	-8.8917
7500.000000	89.507	-3.2400
7620.000000	89.606	3.8158
7750.000000	89.834	11.9426
7880.000000	90.263	20.6410
8000.000000	90.918	28.9069
8120.000000	91.875	36.8441
8250.000000	93.262	44.1532
8380.000000	94.922	48.9639
8500.000000	96.528	50.4410
8620.000000	98.030	49.0022
8750.000000	99.386	44.7353
8850.000000	100.188	40.1288
9000.000000	100.991	32.0668
9120.000000	101.312	25.2117
9250.000000	101.368	17.8244
9380.000000	101.138	10.8497
9500.000000	100.694	5.1206
9620.000000	100.064	0.3709
9750.000000	99.225	-3.4313
9880.000000	98.291	-5.7307
10000.000000	97.404	-6.5583
10150.000000	96.326	-6.0481
10300.000000	95.339	-4.1450
10440.000000	94.530	-1.4316
10600.000000	93.759	2.4299
10750.000000	93.194	6.5087
10900.000000	92.784	10.8090
11060.000000	92.520	15.4248
11200.000000	92.433	19.3103
11380.000000	92.514	23.8174
11500.000000	92.684	26.3297
11720.000000	93.206	29.3893
11800.000000	93.449	29.8524
12060.000000	94.305	28.3100
12200.000000	94.701	25.3882
12410.000000	95.005	18.5758
12500.000000	94.979	15.0328
12650.000000	94.686	8.8284
12800.000000	94.081	2.8624
13150.000000	91.714	-7.0267
13200.000000	91.307	-7.8322
13400.000000	89.617	-9.5298
13600.000000	87.931	-9.0809
13800.000000	86.347	-6.9851
14000.000000	84.922	-3.7586
14300.000000	83.128	2.2506
14500.000000	82.152	6.5849
14750.000000	81.143	12.0261
15000.000000	80.330	17.2157
15250.000000	79.694	21.8967
15500.000000	79.239	25.8282
15750.000000	78.964	28.6928
16000.000000	78.834	30.2017
16250.000000	78.786	30.2392
16500.000000	78.761	28.7428
16750.000000	78.713	25.6628
17000.000000	78.604	21.0057
17250.000000	78.402	14.9043
17500.000000	78.084	7.6317
17750.000000	77.636	-0.5307
18000.000000	77.065	-9.4570
18250.000000	76.396	-19.2118
18500.000000	75.668	-30.0422
18750.000000	74.911	-42.2009
19000.000000	74.118	-55.8800
19250.000000	73.219	-71.2245
19500.000000	72.139	-87.6387
19750.000000	70.964	-102.5673
20000.000000	70.138	-110.0629
