* Measurement data measured by REW V5.20.5
* Source: Microphone (3- USB Sound Device        ), MICROPHONE (Master Volume), L, volume: 0.560
* Format: 256k Log Swept Sine, 1 sweep at 6.0- dBFS with no timing reference
* Dated: 10/07/2023 11:35:28 ã
* REW Settings:
*  C-weighting compensation: Off
*  Target level: 75.0 dB
* Note: ; 
* Measurement: AFUL Performer 8 WIZ L
* Smoothing: None
* Frequency Step: 1/48 octave
* Start Frequency: 20.000 Hz
*
* Freq(Hz)	SPL(dB)	Phase(degrees)
20.000000	88.527	177.7733
20.299999	88.529	177.3470
20.600000	88.525	176.9255
20.900000	88.516	176.4981
21.200001	88.503	176.0566
21.400000	88.491	175.7544
21.799999	88.462	175.1341
22.000000	88.445	174.8162
22.400000	88.412	174.1602
22.700001	88.389	173.6412
23.000000	88.365	173.0931
23.299999	88.342	172.5221
23.600000	88.320	171.9399
24.000000	88.293	171.1642
24.299999	88.278	170.5874
24.700001	88.265	169.8161
25.000000	88.260	169.2296
25.400000	88.255	168.4458
25.799999	88.248	167.6958
26.200001	88.240	167.0165
26.500000	88.237	166.5567
26.900000	88.238	165.9910
27.200001	88.240	165.5839
27.600000	88.241	165.0522
28.000000	88.238	164.5389
28.500000	88.226	163.9360
29.000000	88.209	163.3593
29.500000	88.185	162.7793
30.000000	88.151	162.1951
30.400000	88.120	161.7357
30.700001	88.097	161.3948
31.100000	88.068	160.9314
31.500000	88.041	160.4427
32.000000	88.009	159.7890
32.500000	87.977	159.1023
33.000000	87.946	158.4075
33.500000	87.915	157.7266
34.000000	87.887	157.0784
34.500000	87.864	156.4648
35.000000	87.846	155.8702
35.500000	87.827	155.2859
36.000000	87.806	154.7262
36.500000	87.782	154.2057
37.000000	87.757	153.7144
37.500000	87.732	153.2293
38.200001	87.693	152.5453
38.700001	87.661	152.0560
39.500000	87.608	151.2640
40.000000	87.574	150.7623
40.599998	87.534	150.1531
41.200001	87.493	149.5310
41.799999	87.451	148.9179
42.500000	87.403	148.2587
43.099998	87.370	147.7208
43.700001	87.338	147.1668
44.400002	87.297	146.5244
45.000000	87.261	146.0099
45.500000	87.233	145.5933
46.200001	87.196	144.9930
46.799999	87.163	144.4519
47.500000	87.119	143.8118
48.200001	87.072	143.2098
48.700001	87.042	142.8025
49.400002	87.004	142.2272
50.000000	86.969	141.7505
50.799999	86.929	141.1533
51.500000	86.891	140.5810
52.200001	86.834	140.0776
53.000000	86.788	139.6680
53.799999	86.755	138.9934
54.500000	86.679	138.3981
55.200001	86.630	138.1101
56.000000	86.634	137.1533
57.000000	86.388	135.6443
58.000000	86.237	136.6641
59.000000	86.432	135.9521
60.000000	86.324	134.4211
60.799999	86.284	134.2682
61.500000	86.304	133.6170
62.200001	86.240	132.9083
63.000000	86.184	132.6724
64.000000	86.179	131.9499
65.000000	86.090	131.2397
66.000000	86.039	130.7685
67.000000	85.979	130.1292
68.000000	85.922	129.5720
69.000000	85.862	128.9473
70.000000	85.803	128.4008
71.000000	85.752	127.8337
72.000000	85.699	127.2679
73.000000	85.649	126.7302
74.000000	85.600	126.1531
75.000000	85.535	125.6153
76.199997	85.473	125.0680
77.500000	85.405	124.3461
78.800003	85.333	123.6925
80.000000	85.275	123.0593
81.199997	85.215	122.4351
82.500000	85.153	121.7997
83.800003	85.086	121.1574
85.000000	85.029	120.6790
86.199997	84.977	120.0520
87.500000	84.906	119.4894
88.500000	84.867	118.9881
90.000000	84.785	118.2715
91.199997	84.734	117.7789
92.500000	84.682	117.1837
93.800003	84.621	116.5815
95.000000	84.563	116.0688
96.199997	84.505	115.5922
97.500000	84.455	115.0603
98.800003	84.393	114.4625
100.000000	84.338	114.0113
101.500000	84.269	113.3727
103.000000	84.216	112.8666
104.400002	84.152	112.2112
106.000000	84.096	111.6805
107.500000	84.029	111.0913
109.000000	83.972	110.4818
110.599998	83.901	109.9400
112.000000	83.847	109.3847
113.800003	83.776	108.7955
115.000000	83.732	108.3488
117.199997	83.650	107.5695
118.000000	83.609	107.2640
120.599998	83.479	106.4058
122.000000	83.462	105.9656
124.099998	83.374	105.2961
125.000000	83.347	104.9577
126.500000	83.273	104.5255
128.000000	83.229	104.1712
131.500000	83.099	103.1668
132.000000	83.080	103.0314
134.000000	83.021	102.4729
136.000000	82.948	102.2019
138.000000	82.892	101.5517
140.000000	82.833	101.3741
143.000000	82.759	100.6160
145.000000	82.692	100.0020
147.500000	82.650	99.5604
150.000000	82.560	99.2812
152.500000	82.571	98.9944
155.000000	82.533	98.5564
157.500000	82.546	98.3696
160.000000	82.558	97.7491
162.500000	82.617	96.9561
165.000000	82.593	96.2574
167.500000	82.602	95.5071
170.000000	82.629	94.7760
172.500000	82.629	93.4060
175.000000	82.588	92.9164
177.500000	82.600	91.7766
180.000000	82.527	90.8252
182.500000	82.489	89.9255
185.000000	82.458	89.0598
187.500000	82.410	88.2372
190.000000	82.368	87.6348
192.500000	82.327	86.8676
195.000000	82.291	86.1732
197.500000	82.250	85.5679
200.000000	82.227	84.8612
203.000000	82.186	84.0153
206.000000	82.142	83.3370
209.000000	82.121	82.6686
212.000000	82.097	81.8688
214.000000	82.063	81.2266
218.000000	82.041	80.2694
220.000000	82.027	79.8540
224.000000	81.879	78.7043
227.000000	81.942	77.9388
230.000000	81.961	77.2249
233.000000	81.928	76.5290
236.000000	81.897	75.8276
240.000000	81.852	74.7450
243.000000	81.845	74.2063
247.000000	81.793	73.3238
250.000000	81.779	72.5043
254.000000	81.754	71.6757
258.000000	81.750	70.9230
262.000000	81.709	69.8710
265.000000	81.689	69.1321
269.000000	81.672	68.3797
272.000000	81.661	67.7341
276.000000	81.641	66.8308
280.000000	81.633	66.0295
285.000000	81.598	65.0423
290.000000	81.596	64.1086
295.000000	81.563	62.9886
300.000000	81.552	62.1017
304.000000	81.535	61.2491
307.000000	81.541	60.7424
311.000000	81.532	59.9498
315.000000	81.509	59.1310
320.000000	81.507	58.2352
325.000000	81.499	57.3197
330.000000	81.490	56.4913
335.000000	81.486	55.6870
340.000000	81.474	54.8068
345.000000	81.487	54.0337
350.000000	81.487	53.3189
355.000000	81.515	52.6160
360.000000	81.553	51.8035
365.000000	81.600	50.9671
370.000000	81.638	50.0047
375.000000	81.672	49.0192
382.000000	81.692	47.6170
387.000000	81.690	46.6219
395.000000	81.716	45.2382
400.000000	81.718	44.2085
406.000000	81.726	43.2435
412.000000	81.729	42.1523
418.000000	81.748	41.0903
425.000000	81.753	40.0075
431.000000	81.769	39.0412
437.000000	81.777	38.0867
444.000000	81.799	37.0004
450.000000	81.810	36.0112
455.000000	81.821	35.2221
462.000000	81.830	34.2337
468.000000	81.865	33.3566
475.000000	81.872	32.3374
482.000000	81.891	31.1801
487.000000	81.912	30.4978
494.000000	81.937	29.5401
500.000000	81.957	28.6494
508.000000	81.982	27.5283
515.000000	82.004	26.5073
522.000000	82.025	25.4901
530.000000	82.046	24.4564
538.000000	82.079	23.3549
545.000000	82.096	22.4027
552.000000	82.131	21.4601
560.000000	82.158	20.3912
570.000000	82.185	19.0421
580.000000	82.217	17.7880
590.000000	82.250	16.4640
600.000000	82.274	15.1842
608.000000	82.303	14.1236
615.000000	82.322	13.2722
622.000000	82.350	12.3279
630.000000	82.364	11.3650
640.000000	82.393	10.1467
650.000000	82.424	8.9717
660.000000	82.451	7.7205
670.000000	82.469	6.5357
680.000000	82.506	5.3448
690.000000	82.524	4.2070
700.000000	82.549	3.1530
710.000000	82.563	2.0212
720.000000	82.576	0.8530
730.000000	82.603	-0.2565
740.000000	82.631	-1.3464
750.000000	82.638	-2.3936
762.000000	82.652	-3.6032
775.000000	82.669	-4.9719
788.000000	82.690	-6.2506
800.000000	82.704	-7.3660
812.000000	82.727	-8.5192
825.000000	82.738	-9.8322
838.000000	82.756	-10.9576
850.000000	82.774	-12.0322
862.000000	82.790	-13.0862
875.000000	82.817	-14.1791
885.000000	82.827	-14.9939
900.000000	82.856	-16.1446
912.000000	82.873	-17.2332
925.000000	82.901	-18.1930
938.000000	82.942	-19.3253
950.000000	82.967	-20.1674
962.000000	83.001	-21.1048
975.000000	83.022	-22.1091
988.000000	83.061	-23.0430
1000.000000	83.088	-24.1584
1015.000000	83.133	-25.0581
1030.000000	83.196	-26.2276
1044.000000	83.222	-27.3014
1060.000000	83.279	-28.5149
1075.000000	83.330	-29.6099
1090.000000	83.385	-30.7643
1106.000000	83.434	-32.0076
1120.000000	83.466	-33.0977
1138.000000	83.526	-34.4705
1150.000000	83.556	-35.3958
1172.000000	83.629	-37.0562
1180.000000	83.653	-37.7009
1206.000000	83.718	-39.6265
1220.000000	83.747	-40.6720
1241.000000	83.815	-42.2905
1250.000000	83.838	-42.8749
1265.000000	83.879	-44.0450
1280.000000	83.911	-45.0966
1315.000000	84.010	-47.6377
1320.000000	84.029	-47.9701
1340.000000	84.074	-49.4061
1360.000000	84.126	-50.7334
1380.000000	84.184	-52.2441
1400.000000	84.225	-53.5763
1430.000000	84.322	-55.6181
1450.000000	84.387	-57.0186
1475.000000	84.458	-58.7046
1500.000000	84.547	-60.4334
1525.000000	84.609	-62.1527
1550.000000	84.694	-63.7612
1575.000000	84.785	-65.5031
1600.000000	84.887	-67.2457
1625.000000	84.969	-68.9231
1650.000000	85.071	-70.7614
1675.000000	85.177	-72.4565
1700.000000	85.288	-74.2744
1725.000000	85.384	-76.0942
1750.000000	85.501	-78.0032
1775.000000	85.614	-79.8912
1800.000000	85.727	-81.8706
1825.000000	85.848	-83.8270
1850.000000	85.962	-85.9625
1875.000000	86.073	-88.0503
1900.000000	86.187	-90.3350
1925.000000	86.296	-92.6871
1950.000000	86.416	-94.9351
1975.000000	86.510	-97.3868
2000.000000	86.600	-99.7908
2030.000000	86.698	-102.8953
2060.000000	86.787	-106.0586
2090.000000	86.854	-109.2174
2120.000000	86.900	-112.4348
2140.000000	86.920	-114.6116
2180.000000	86.948	-118.9612
2200.000000	86.939	-121.1019
2240.000000	86.900	-125.3948
2270.000000	86.858	-128.5019
2300.000000	86.803	-131.6026
2330.000000	86.726	-134.5619
2360.000000	86.659	-137.4414
2400.000000	86.548	-141.1971
2430.000000	86.447	-143.8787
2470.000000	86.332	-147.3074
2500.000000	86.235	-149.8376
2540.000000	86.114	-152.9866
2580.000000	86.010	-156.1495
2620.000000	85.902	-159.2097
2650.000000	85.829	-161.3537
2690.000000	85.742	-164.2590
2720.000000	85.688	-166.3544
2760.000000	85.626	-169.2017
2800.000000	85.562	-171.9473
2850.000000	85.506	-175.3195
2900.000000	85.491	-178.6589
2950.000000	85.475	177.9812
3000.000000	85.491	174.8299
3040.000000	85.526	171.9932
3070.000000	85.555	169.9562
3110.000000	85.604	167.2972
3150.000000	85.698	164.5754
3200.000000	85.816	160.9353
3250.000000	85.965	157.2736
3300.000000	86.135	153.3631
3350.000000	86.309	149.3366
3400.000000	86.523	144.9545
3450.000000	86.722	140.3999
3500.000000	86.912	135.5659
3550.000000	87.087	130.4937
3600.000000	87.214	125.1591
3650.000000	87.321	119.7036
3700.000000	87.364	114.2021
3750.000000	87.378	108.6536
3820.000000	87.278	101.1689
3870.000000	87.178	96.1945
3950.000000	86.963	88.8505
4000.000000	86.838	84.6656
4060.000000	86.667	80.1047
4120.000000	86.520	75.7915
4180.000000	86.419	71.7184
4250.000000	86.309	67.2648
4310.000000	86.244	63.5520
4370.000000	86.195	59.8855
4440.000000	86.124	55.7085
4500.000000	86.092	52.2878
4550.000000	86.049	49.4042
4620.000000	85.989	45.6649
4680.000000	85.929	42.5277
4750.000000	85.867	38.9968
4820.000000	85.808	35.7792
4870.000000	85.774	33.5372
4940.000000	85.700	30.5032
5000.000000	85.621	28.3354
5080.000000	85.581	25.3235
5150.000000	85.538	22.9359
5220.000000	85.505	20.7488
5300.000000	85.478	18.5312
5380.000000	85.487	16.2970
5450.000000	85.506	14.5740
5520.000000	85.541	12.8813
5600.000000	85.596	11.0562
5700.000000	85.711	8.8262
5800.000000	85.854	6.6372
5900.000000	86.033	4.3245
6000.000000	86.204	1.9280
6080.000000	86.376	0.0058
6150.000000	86.507	-1.8802
6220.000000	86.629	-3.8896
6300.000000	86.788	-6.2449
6400.000000	86.925	-9.4944
6500.000000	87.038	-12.8453
6600.000000	87.109	-16.2497
6700.000000	87.100	-19.6588
6800.000000	87.028	-22.8898
6900.000000	86.915	-25.8550
7000.000000	86.765	-28.5344
7100.000000	86.599	-30.7711
7200.000000	86.439	-32.6412
7300.000000	86.301	-34.3523
7400.000000	86.205	-35.7494
7500.000000	86.140	-37.0356
7620.000000	86.108	-38.5591
7750.000000	86.134	-40.8424
7880.000000	86.193	-43.6798
8000.000000	86.210	-46.9688
8120.000000	86.142	-51.2148
8250.000000	85.909	-56.4284
8380.000000	85.410	-61.5877
8500.000000	84.775	-65.9424
8620.000000	83.967	-69.1937
8750.000000	82.975	-71.3947
8850.000000	82.140	-72.2366
9000.000000	80.962	-71.9814
9120.000000	80.023	-70.4094
9250.000000	79.145	-67.7374
9380.000000	78.301	-64.1130
9500.000000	77.657	-60.4628
9620.000000	77.087	-55.8456
9750.000000	76.591	-50.5279
9880.000000	76.232	-45.1054
10000.000000	76.043	-40.2159
10150.000000	75.956	-34.8351
10300.000000	75.901	-29.3192
10440.000000	75.996	-24.1503
10600.000000	76.085	-18.8193
10750.000000	76.262	-14.0806
10900.000000	76.439	-9.6747
11060.000000	76.652	-4.8690
11200.000000	76.994	-1.1643
11380.000000	77.311	3.0828
11500.000000	77.603	5.8364
11720.000000	78.179	10.4523
11800.000000	78.415	12.5295
12060.000000	79.151	16.2094
12200.000000	79.576	17.7797
12410.000000	80.074	19.4906
12500.000000	80.312	20.1052
12650.000000	80.549	20.8843
12800.000000	80.787	22.4431
13150.000000	81.455	25.9543
13200.000000	81.538	26.5908
13400.000000	82.048	27.8736
13600.000000	82.621	28.5045
13800.000000	83.197	27.8271
14000.000000	83.662	25.7095
14300.000000	84.045	22.0310
14500.000000	84.102	19.2460
14750.000000	83.958	16.0823
15000.000000	83.731	13.8666
15250.000000	83.567	12.5456
15500.000000	83.538	10.8704
15750.000000	83.542	6.7977
16000.000000	83.176	0.5881
16250.000000	82.178	-5.2024
16500.000000	80.770	-7.5513
16750.000000	79.446	-6.4969
17000.000000	78.315	-3.1621
17250.000000	77.425	1.3365
17500.000000	76.845	6.4503
17750.000000	76.510	10.6228
18000.000000	76.179	19.3572
18250.000000	79.592	24.0992
18500.000000	79.777	-4.5291
18750.000000	76.538	-21.0549
19000.000000	72.417	-12.9838
19250.000000	73.646	-0.8619
19500.000000	72.634	-17.7449
19750.000000	69.875	-22.1139
