* Measurement data measured by REW V5.20.5
* Source: Microphone (3- USB Sound Device        ), MICROPHONE (Master Volume), L, volume: 0.560
* Format: 256k Log Swept Sine, 1 sweep at 6.0- dBFS with no timing reference
* Dated: 12/07/2023 12:25:51 ã
* REW Settings:
*  C-weighting compensation: Off
*  Target level: 75.0 dB
* Note: ; 
* Measurement: 8  jvc R
* Smoothing: None
* Frequency Step: 1/48 octave
* Start Frequency: 20.000 Hz
*
* Freq(Hz)	SPL(dB)	Phase(degrees)
20.000000	88.685	178.2993
20.299999	88.692	177.9718
20.600000	88.691	177.6422
20.900000	88.682	177.2888
21.200001	88.662	176.8975
21.400000	88.644	176.6191
21.799999	88.594	176.0354
22.000000	88.566	175.7340
22.400000	88.510	175.1051
22.700001	88.473	174.5840
23.000000	88.440	173.9950
23.299999	88.408	173.3387
23.600000	88.376	172.6374
24.000000	88.334	171.6835
24.299999	88.309	170.9873
24.700001	88.288	170.0941
25.000000	88.284	169.4383
25.400000	88.291	168.5682
25.799999	88.305	167.7154
26.200001	88.321	166.9137
26.500000	88.334	166.3612
26.900000	88.349	165.6935
27.200001	88.358	165.2426
27.600000	88.366	164.7077
28.000000	88.368	164.2492
28.500000	88.366	163.7544
29.000000	88.358	163.2699
29.500000	88.339	162.7414
30.000000	88.302	162.1826
30.400000	88.265	161.7329
30.700001	88.236	161.3892
31.100000	88.197	160.9017
31.500000	88.159	160.3688
32.000000	88.113	159.6503
32.500000	88.069	158.9009
33.000000	88.032	158.1316
33.500000	88.000	157.3547
34.000000	87.972	156.6133
34.500000	87.951	155.9397
35.000000	87.941	155.3125
35.500000	87.934	154.6942
36.000000	87.923	154.0961
36.500000	87.904	153.5565
37.000000	87.884	153.0771
37.500000	87.863	152.6166
38.200001	87.826	151.9533
38.700001	87.793	151.4750
39.500000	87.736	150.7012
40.000000	87.700	150.1910
40.599998	87.657	149.5538
41.200001	87.614	148.9161
41.799999	87.578	148.2932
42.500000	87.546	147.5614
43.099998	87.523	146.8988
43.700001	87.495	146.2303
44.400002	87.454	145.5112
45.000000	87.420	144.9460
45.500000	87.392	144.4834
46.200001	87.350	143.8456
46.799999	87.314	143.3092
47.500000	87.270	142.6674
48.200001	87.223	142.0210
48.700001	87.189	141.5787
49.400002	87.146	140.9827
50.000000	87.114	140.4694
50.799999	87.072	139.7496
51.500000	87.026	139.1303
52.200001	86.978	138.6139
53.000000	86.941	138.0294
53.799999	86.893	137.3296
54.500000	86.837	136.8390
55.200001	86.804	136.3784
56.000000	86.755	135.6189
57.000000	86.644	135.1074
58.000000	86.660	134.7366
59.000000	86.632	133.4723
60.000000	86.515	132.7569
60.799999	86.475	132.2979
61.500000	86.431	131.7100
62.200001	86.373	131.2242
63.000000	86.328	130.7115
64.000000	86.273	129.9471
65.000000	86.220	129.2424
66.000000	86.166	128.5228
67.000000	86.116	127.9407
68.000000	86.071	127.2712
69.000000	86.004	126.6960
70.000000	85.954	126.1317
71.000000	85.890	125.4476
72.000000	85.818	124.8587
73.000000	85.759	124.3106
74.000000	85.714	123.7602
75.000000	85.672	123.1435
76.199997	85.611	122.4553
77.500000	85.547	121.7464
78.800003	85.479	121.0816
80.000000	85.421	120.4422
81.199997	85.364	119.7926
82.500000	85.295	119.0729
83.800003	85.235	118.4540
85.000000	85.181	117.7830
86.199997	85.113	117.1476
87.500000	85.048	116.5343
88.500000	85.005	116.0056
90.000000	84.936	115.2911
91.199997	84.884	114.6596
92.500000	84.822	114.0967
93.800003	84.758	113.4085
95.000000	84.694	112.9636
96.199997	84.656	112.3605
97.500000	84.594	111.7083
98.800003	84.536	111.1141
100.000000	84.486	110.6291
101.500000	84.425	109.9906
103.000000	84.366	109.3375
104.400002	84.295	108.7200
106.000000	84.235	108.0575
107.500000	84.173	107.4281
109.000000	84.114	106.8062
110.599998	84.058	106.1705
112.000000	83.994	105.6378
113.800003	83.931	104.9182
115.000000	83.878	104.4996
117.199997	83.803	103.6950
118.000000	83.774	103.3283
120.599998	83.671	102.4211
122.000000	83.633	101.8826
124.099998	83.562	101.0595
125.000000	83.529	100.7472
126.500000	83.483	100.2046
128.000000	83.425	99.6255
131.500000	83.315	98.4197
132.000000	83.299	98.2672
134.000000	83.245	97.5717
136.000000	83.176	96.9317
138.000000	83.117	96.2137
140.000000	83.062	95.6256
143.000000	82.981	94.6438
145.000000	82.920	93.9769
147.500000	82.849	93.1803
150.000000	82.789	92.4869
152.500000	82.722	91.7158
155.000000	82.659	90.9960
157.500000	82.591	90.1655
160.000000	82.533	89.4776
162.500000	82.482	88.7562
165.000000	82.421	88.1091
167.500000	82.357	87.4001
170.000000	82.308	86.7385
172.500000	82.260	86.0735
175.000000	82.201	85.3959
177.500000	82.152	84.7952
180.000000	82.099	84.2275
182.500000	82.047	83.5330
185.000000	82.009	82.8556
187.500000	81.963	82.3371
190.000000	81.925	81.7197
192.500000	81.880	81.2373
195.000000	81.850	80.5874
197.500000	81.816	80.1095
200.000000	81.788	79.4717
203.000000	81.761	78.7433
206.000000	81.709	78.1122
209.000000	81.672	77.4814
212.000000	81.637	76.7948
214.000000	81.631	76.3254
218.000000	81.586	75.4573
220.000000	81.570	75.1617
224.000000	81.530	74.3610
227.000000	81.498	73.8030
230.000000	81.483	73.3106
233.000000	81.459	72.8787
236.000000	81.463	72.3242
240.000000	81.495	71.5660
243.000000	81.482	71.0037
247.000000	81.504	70.1009
250.000000	81.524	69.4419
254.000000	81.543	68.4168
258.000000	81.549	67.3638
262.000000	81.537	66.4417
265.000000	81.536	65.5915
269.000000	81.527	64.5847
272.000000	81.511	63.9069
276.000000	81.494	62.9633
280.000000	81.470	62.0275
285.000000	81.452	60.9618
290.000000	81.430	59.9869
295.000000	81.416	58.9601
300.000000	81.395	58.0047
304.000000	81.384	57.2095
307.000000	81.389	56.6472
311.000000	81.364	55.9062
315.000000	81.371	55.1783
320.000000	81.363	54.3640
325.000000	81.348	53.3966
330.000000	81.352	52.4624
335.000000	81.348	51.6219
340.000000	81.351	50.8228
345.000000	81.356	49.9900
350.000000	81.349	49.1046
355.000000	81.370	48.2552
360.000000	81.377	47.4460
365.000000	81.385	46.6852
370.000000	81.381	45.8904
375.000000	81.400	45.0652
382.000000	81.416	44.0124
387.000000	81.432	43.2089
395.000000	81.461	41.9725
400.000000	81.489	41.2374
406.000000	81.494	40.3469
412.000000	81.527	39.4093
418.000000	81.551	38.5490
425.000000	81.585	37.4963
431.000000	81.606	36.6334
437.000000	81.632	35.7850
444.000000	81.658	34.7400
450.000000	81.707	33.8981
455.000000	81.718	33.2302
462.000000	81.751	32.2439
468.000000	81.783	31.3736
475.000000	81.827	30.4301
482.000000	81.870	29.3651
487.000000	81.888	28.7402
494.000000	81.946	27.8199
500.000000	81.967	26.9438
508.000000	82.019	25.8942
515.000000	82.056	24.9702
522.000000	82.099	23.9709
530.000000	82.144	22.8765
538.000000	82.202	21.8262
545.000000	82.227	20.8642
552.000000	82.277	19.9972
560.000000	82.319	18.8751
570.000000	82.376	17.6289
580.000000	82.420	16.3099
590.000000	82.499	14.9966
600.000000	82.548	13.6475
608.000000	82.590	12.6111
615.000000	82.623	11.7762
622.000000	82.665	10.8273
630.000000	82.700	9.7493
640.000000	82.742	8.4202
650.000000	82.805	7.2375
660.000000	82.856	5.9233
670.000000	82.901	4.6396
680.000000	82.933	3.4026
690.000000	82.965	2.1855
700.000000	83.010	0.9547
710.000000	83.034	-0.2890
720.000000	83.077	-1.5668
730.000000	83.096	-2.7498
740.000000	83.126	-3.9266
750.000000	83.143	-5.0755
762.000000	83.179	-6.4679
775.000000	83.205	-7.8813
788.000000	83.225	-9.3401
800.000000	83.251	-10.5344
812.000000	83.243	-11.8494
825.000000	83.267	-13.1147
838.000000	83.284	-14.3860
850.000000	83.314	-15.4858
862.000000	83.311	-16.6024
875.000000	83.343	-17.7721
885.000000	83.359	-18.6895
900.000000	83.386	-20.0219
912.000000	83.408	-21.0636
925.000000	83.441	-22.1509
938.000000	83.475	-23.1206
950.000000	83.500	-24.2076
962.000000	83.528	-25.1276
975.000000	83.565	-26.1263
988.000000	83.592	-27.1472
1000.000000	83.632	-27.8708
1015.000000	83.680	-29.3861
1030.000000	83.721	-30.4251
1044.000000	83.774	-31.5717
1060.000000	83.819	-32.8271
1075.000000	83.881	-33.9792
1090.000000	83.932	-35.1747
1106.000000	83.989	-36.3271
1120.000000	84.043	-37.4996
1138.000000	84.100	-38.8838
1150.000000	84.140	-39.8152
1172.000000	84.230	-41.7035
1180.000000	84.253	-42.2748
1206.000000	84.345	-44.3215
1220.000000	84.380	-45.3086
1241.000000	84.457	-47.0908
1250.000000	84.488	-47.7643
1265.000000	84.532	-48.9426
1280.000000	84.585	-50.1145
1315.000000	84.702	-52.8072
1320.000000	84.721	-53.3145
1340.000000	84.788	-54.8002
1360.000000	84.857	-56.2614
1380.000000	84.910	-57.7964
1400.000000	84.997	-59.3751
1430.000000	85.098	-61.6176
1450.000000	85.174	-63.2475
1475.000000	85.251	-65.1459
1500.000000	85.340	-67.0419
1525.000000	85.446	-69.0362
1550.000000	85.539	-70.9911
1575.000000	85.629	-72.9172
1600.000000	85.736	-74.9490
1625.000000	85.831	-76.8763
1650.000000	85.941	-78.9600
1675.000000	86.039	-81.0854
1700.000000	86.148	-83.2399
1725.000000	86.255	-85.3671
1750.000000	86.355	-87.6445
1775.000000	86.450	-89.8605
1800.000000	86.554	-92.1868
1825.000000	86.632	-94.5643
1850.000000	86.728	-96.9357
1875.000000	86.820	-99.3468
1900.000000	86.890	-101.9036
1925.000000	86.963	-104.4421
1950.000000	87.034	-106.9323
1975.000000	87.091	-109.6053
2000.000000	87.137	-111.9905
2030.000000	87.186	-115.3271
2060.000000	87.217	-118.5615
2090.000000	87.254	-121.7955
2120.000000	87.255	-124.9066
2140.000000	87.261	-127.1663
2180.000000	87.253	-131.4280
2200.000000	87.234	-133.6542
2240.000000	87.186	-137.8823
2270.000000	87.129	-141.0153
2300.000000	87.061	-144.3095
2330.000000	86.989	-147.3823
2360.000000	86.887	-150.3633
2400.000000	86.749	-154.4050
2430.000000	86.644	-157.3174
2470.000000	86.489	-160.9890
2500.000000	86.369	-163.6227
2540.000000	86.197	-166.9869
2580.000000	86.050	-170.2437
2620.000000	85.888	-173.3971
2650.000000	85.779	-175.6974
2690.000000	85.650	-178.7250
2720.000000	85.548	179.1647
2760.000000	85.434	176.4377
2800.000000	85.330	173.8192
2850.000000	85.241	170.4301
2900.000000	85.172	167.1761
2950.000000	85.108	163.8970
3000.000000	85.102	160.4822
3040.000000	85.111	158.1136
3070.000000	85.130	156.1696
3110.000000	85.170	153.4603
3150.000000	85.222	150.7850
3200.000000	85.309	147.3595
3250.000000	85.427	143.6898
3300.000000	85.561	139.8962
3350.000000	85.708	135.9993
3400.000000	85.867	131.8662
3450.000000	86.025	127.5447
3500.000000	86.172	122.9767
3550.000000	86.304	118.2827
3600.000000	86.429	113.3489
3650.000000	86.506	108.3918
3700.000000	86.557	103.3865
3750.000000	86.581	98.3982
3820.000000	86.537	91.5079
3870.000000	86.488	86.9744
3950.000000	86.351	80.0546
4000.000000	86.274	76.3848
4060.000000	86.177	71.5739
4120.000000	86.115	67.5287
4180.000000	86.057	63.3738
4250.000000	86.011	58.9317
4310.000000	85.980	54.9890
4370.000000	85.967	51.3517
4440.000000	85.945	47.1292
4500.000000	85.923	43.6300
4550.000000	85.920	40.7736
4620.000000	85.885	36.7968
4680.000000	85.848	33.6429
4750.000000	85.813	29.9935
4820.000000	85.759	26.5945
4870.000000	85.714	24.4019
4940.000000	85.684	21.3329
5000.000000	85.647	18.9382
5080.000000	85.588	15.8690
5150.000000	85.575	13.4415
5220.000000	85.564	11.2145
5300.000000	85.557	8.8163
5380.000000	85.635	6.6914
5450.000000	85.652	4.8754
5520.000000	85.726	2.9899
5600.000000	85.853	0.9794
5700.000000	86.001	-1.4358
5800.000000	86.189	-3.8583
5900.000000	86.403	-6.5322
6000.000000	86.624	-9.0516
6080.000000	86.852	-11.3533
6150.000000	87.009	-13.4919
6220.000000	87.202	-15.6317
6300.000000	87.378	-18.3441
6400.000000	87.597	-21.8680
6500.000000	87.777	-25.6161
6600.000000	87.909	-29.6043
6700.000000	87.982	-33.5854
6800.000000	88.009	-37.5605
6900.000000	87.977	-41.3543
7000.000000	87.909	-44.9655
7100.000000	87.839	-48.3766
7200.000000	87.752	-51.4663
7300.000000	87.707	-54.4487
7400.000000	87.659	-57.5004
7500.000000	87.639	-60.7745
7620.000000	87.617	-65.1118
7750.000000	87.569	-70.9651
7880.000000	87.339	-77.5597
8000.000000	86.922	-84.1926
8120.000000	86.267	-90.7885
8250.000000	85.253	-96.9906
8380.000000	84.030	-101.4393
8500.000000	82.818	-103.9710
8620.000000	81.620	-104.8702
8750.000000	80.304	-104.5988
8850.000000	79.433	-103.4358
9000.000000	78.044	-100.7626
9120.000000	77.061	-97.5184
9250.000000	76.145	-93.3907
9380.000000	75.224	-88.8673
9500.000000	74.516	-84.0395
9620.000000	74.003	-77.9156
9750.000000	73.449	-71.9188
9880.000000	73.060	-64.8378
10000.000000	72.935	-58.9173
10150.000000	72.930	-51.3943
10300.000000	72.949	-45.4356
10440.000000	73.073	-39.8033
10600.000000	73.296	-34.1159
10750.000000	73.352	-28.6622
10900.000000	73.642	-23.6885
11060.000000	73.907	-18.3944
11200.000000	74.186	-13.7792
11380.000000	74.562	-8.2993
11500.000000	74.837	-4.3712
11720.000000	75.484	1.6094
11800.000000	75.694	3.7238
12060.000000	76.410	9.3424
12200.000000	76.826	12.0679
12410.000000	77.434	16.6653
12500.000000	77.745	18.4801
12650.000000	78.251	20.9691
12800.000000	78.750	22.8994
13150.000000	79.930	26.9037
13200.000000	80.089	27.3785
13400.000000	80.722	30.0740
13600.000000	81.530	31.9604
13800.000000	82.387	32.8788
14000.000000	83.219	32.6798
14300.000000	84.410	29.8909
14500.000000	84.965	26.8917
14750.000000	85.497	22.9150
15000.000000	85.902	19.5986
15250.000000	86.355	16.4438
15500.000000	87.101	12.3509
15750.000000	87.997	2.9644
16000.000000	88.194	-13.5552
16250.000000	86.563	-30.6565
16500.000000	83.906	-38.8631
16750.000000	81.243	-39.5066
17000.000000	79.084	-35.1964
17250.000000	77.085	-28.4531
17500.000000	75.520	-19.4812
17750.000000	74.183	-10.1880
18000.000000	72.863	-0.0371
18250.000000	71.622	15.9899
18500.000000	71.310	42.9651
18750.000000	74.909	59.3824
19000.000000	76.969	53.2382
19250.000000	77.216	52.7225
19500.000000	77.886	56.2910
19750.000000	78.965	58.2946
