* Measurement data measured by REW V5.20.5
* Source: Microphone (3- USB Sound Device        ), MICROPHONE (Master Volume), L, volume: 0.560
* Format: 256k Log Swept Sine, 1 sweep at 6.0- dBFS with no timing reference
* Dated: 10/07/2023 11:32:40 ã
* REW Settings:
*  C-weighting compensation: Off
*  Target level: 75.0 dB
* Note: ; 
* Measurement: AFUL Performer 8 FINAL R
* Smoothing: None
* Frequency Step: 1/48 octave
* Start Frequency: 20.000 Hz
*
* Freq(Hz)	SPL(dB)	Phase(degrees)
20.000000	88.230	-179.7398
20.299999	88.233	179.8194
20.600000	88.231	179.3901
20.900000	88.225	178.9617
21.200001	88.213	178.5241
21.400000	88.203	178.2254
21.799999	88.177	177.6113
22.000000	88.163	177.2948
22.400000	88.133	176.6372
22.700001	88.111	176.1148
23.000000	88.089	175.5634
23.299999	88.068	174.9898
23.600000	88.048	174.4044
24.000000	88.025	173.6187
24.299999	88.012	173.0261
24.700001	88.003	172.2218
25.000000	87.999	171.6059
25.400000	87.993	170.7870
25.799999	87.984	170.0174
26.200001	87.975	169.3356
26.500000	87.972	168.8800
26.900000	87.975	168.3186
27.200001	87.979	167.9100
27.600000	87.983	167.3708
28.000000	87.980	166.8524
28.500000	87.969	166.2585
29.000000	87.953	165.7067
29.500000	87.934	165.1491
30.000000	87.907	164.5632
30.400000	87.880	164.0813
30.700001	87.858	163.7153
31.100000	87.827	163.2188
31.500000	87.796	162.7102
32.000000	87.758	162.0618
32.500000	87.722	161.4078
33.000000	87.692	160.7479
33.500000	87.666	160.0803
34.000000	87.642	159.4180
34.500000	87.620	158.7797
35.000000	87.600	158.1723
35.500000	87.580	157.5936
36.000000	87.561	157.0405
36.500000	87.540	156.5077
37.000000	87.516	155.9883
37.500000	87.488	155.4863
38.200001	87.445	154.8215
38.700001	87.418	154.3456
39.500000	87.370	153.5154
40.000000	87.334	152.9923
40.599998	87.291	152.4106
41.200001	87.258	151.8345
41.799999	87.227	151.2103
42.500000	87.180	150.4882
43.099998	87.138	149.9564
43.700001	87.104	149.4666
44.400002	87.069	148.8509
45.000000	87.029	148.2950
45.500000	86.989	147.8702
46.200001	86.939	147.3428
46.799999	86.908	146.8565
47.500000	86.868	146.1905
48.200001	86.820	145.5424
48.700001	86.789	145.1193
49.400002	86.755	144.5115
50.000000	86.723	143.9885
50.799999	86.678	143.3608
51.500000	86.634	142.8486
52.200001	86.582	142.4548
53.000000	86.542	142.0601
53.799999	86.482	141.3995
54.500000	86.383	140.9635
55.200001	86.317	140.5951
56.000000	86.187	139.4719
57.000000	85.762	139.6999
58.000000	85.902	142.0368
59.000000	86.237	139.6508
60.000000	86.014	137.4348
60.799999	85.957	137.2186
61.500000	85.967	136.3694
62.200001	85.885	135.5894
63.000000	85.825	135.3956
64.000000	85.833	134.7645
65.000000	85.771	134.0569
66.000000	85.713	133.5401
67.000000	85.644	133.0485
68.000000	85.593	132.5878
69.000000	85.530	131.9666
70.000000	85.461	131.4943
71.000000	85.421	130.9791
72.000000	85.373	130.3857
73.000000	85.328	129.8051
74.000000	85.262	129.2082
75.000000	85.204	128.8510
76.199997	85.145	128.1407
77.500000	85.042	127.7111
78.800003	85.002	127.0083
80.000000	84.909	126.3140
81.199997	84.833	125.7504
82.500000	84.743	125.1685
83.800003	84.648	124.6994
85.000000	84.572	124.3104
86.199997	84.469	123.8504
87.500000	84.377	123.6049
88.500000	84.307	123.1975
90.000000	84.181	122.9454
91.199997	84.115	122.8757
92.500000	84.039	122.7191
93.800003	83.965	123.2048
95.000000	83.963	123.2741
96.199997	83.948	123.7356
97.500000	84.008	123.6249
98.800003	84.150	123.3434
100.000000	84.082	121.5239
101.500000	84.058	122.5947
103.000000	84.226	121.2729
104.400002	84.282	120.4253
106.000000	84.288	119.4191
107.500000	84.275	118.3518
109.000000	84.223	117.3458
110.599998	84.147	116.4072
112.000000	84.086	115.5646
113.800003	84.033	114.5265
115.000000	83.959	113.9924
117.199997	83.853	112.9980
118.000000	83.823	112.8244
120.599998	83.704	111.7983
122.000000	83.659	111.2816
124.099998	83.580	110.4928
125.000000	83.539	110.1914
126.500000	83.479	109.7332
128.000000	83.427	109.2528
131.500000	83.301	108.1075
132.000000	83.286	107.9598
134.000000	83.216	107.3272
136.000000	83.145	106.7990
138.000000	83.085	106.1825
140.000000	83.017	105.6497
143.000000	82.932	104.8337
145.000000	82.884	104.2826
147.500000	82.815	103.6725
150.000000	82.745	102.9894
152.500000	82.679	102.3533
155.000000	82.608	101.6487
157.500000	82.543	100.9868
160.000000	82.477	100.4264
162.500000	82.420	99.7967
165.000000	82.354	99.2748
167.500000	82.295	98.6421
170.000000	82.229	98.1506
172.500000	82.181	97.6055
175.000000	82.106	97.0479
177.500000	82.063	96.5234
180.000000	82.004	96.1239
182.500000	81.958	95.5636
185.000000	81.902	95.1891
187.500000	81.853	94.6786
190.000000	81.795	94.2990
192.500000	81.754	93.8901
195.000000	81.717	93.3901
197.500000	81.668	93.0254
200.000000	81.625	92.6306
203.000000	81.580	92.2700
206.000000	81.515	91.8316
209.000000	81.488	91.4784
212.000000	81.459	91.3274
214.000000	81.448	91.1333
218.000000	81.438	90.8960
220.000000	81.453	90.8016
224.000000	81.522	90.8914
227.000000	81.536	90.0448
230.000000	81.617	89.1860
233.000000	81.652	88.3245
236.000000	81.601	87.6417
240.000000	81.598	86.4949
243.000000	81.541	85.8246
247.000000	81.497	85.0971
250.000000	81.478	84.3843
254.000000	81.441	83.7983
258.000000	81.403	83.0380
262.000000	81.377	82.4212
265.000000	81.362	81.9320
269.000000	81.324	81.3838
272.000000	81.310	80.9603
276.000000	81.285	80.3237
280.000000	81.267	79.7545
285.000000	81.230	79.0976
290.000000	81.225	78.4836
295.000000	81.209	77.8854
300.000000	81.187	77.1971
304.000000	81.182	76.7394
307.000000	81.166	76.3185
311.000000	81.161	75.9085
315.000000	81.169	75.3576
320.000000	81.162	74.8174
325.000000	81.160	74.2576
330.000000	81.159	73.8439
335.000000	81.158	73.1885
340.000000	81.154	72.7624
345.000000	81.155	72.2812
350.000000	81.163	71.7086
355.000000	81.174	71.1465
360.000000	81.174	70.6778
365.000000	81.185	70.1679
370.000000	81.204	69.7356
375.000000	81.209	69.3048
382.000000	81.245	68.6052
387.000000	81.258	68.1696
395.000000	81.279	67.5305
400.000000	81.291	67.0349
406.000000	81.323	66.5511
412.000000	81.351	66.0631
418.000000	81.368	65.6282
425.000000	81.400	64.9483
431.000000	81.436	64.4884
437.000000	81.458	63.9872
444.000000	81.500	63.4569
450.000000	81.528	62.9218
455.000000	81.558	62.5841
462.000000	81.601	62.0667
468.000000	81.617	61.5389
475.000000	81.670	60.9989
482.000000	81.702	60.5591
487.000000	81.739	60.1765
494.000000	81.774	59.6833
500.000000	81.810	59.2042
508.000000	81.852	58.5869
515.000000	81.891	58.1477
522.000000	81.944	57.6565
530.000000	81.990	57.0911
538.000000	82.045	56.5324
545.000000	82.094	56.0463
552.000000	82.128	55.5482
560.000000	82.178	54.9047
570.000000	82.242	54.2281
580.000000	82.297	53.5651
590.000000	82.355	52.9495
600.000000	82.397	52.1983
608.000000	82.449	51.7222
615.000000	82.487	51.2996
622.000000	82.528	50.7617
630.000000	82.564	50.3357
640.000000	82.616	49.6027
650.000000	82.660	49.0018
660.000000	82.710	48.3702
670.000000	82.762	47.6974
680.000000	82.817	47.0895
690.000000	82.838	46.5134
700.000000	82.865	45.9329
710.000000	82.908	45.2958
720.000000	82.941	44.7763
730.000000	82.976	44.1022
740.000000	82.998	43.6755
750.000000	83.021	43.1313
762.000000	83.048	42.5775
775.000000	83.083	41.8916
788.000000	83.105	41.3082
800.000000	83.119	40.7958
812.000000	83.147	40.3185
825.000000	83.161	39.8788
838.000000	83.180	39.4683
850.000000	83.199	39.0998
862.000000	83.214	38.7232
875.000000	83.238	38.3804
885.000000	83.248	38.1165
900.000000	83.280	37.8145
912.000000	83.300	37.5351
925.000000	83.333	37.2903
938.000000	83.368	37.0959
950.000000	83.402	36.9298
962.000000	83.441	36.7363
975.000000	83.473	36.4633
988.000000	83.509	36.3020
1000.000000	83.576	36.0846
1015.000000	83.608	35.9060
1030.000000	83.651	35.7126
1044.000000	83.705	35.5608
1060.000000	83.764	35.2714
1075.000000	83.813	35.0583
1090.000000	83.870	34.8853
1106.000000	83.937	34.6525
1120.000000	83.986	34.5147
1138.000000	84.066	34.1680
1150.000000	84.102	34.0271
1172.000000	84.182	33.5793
1180.000000	84.209	33.4665
1206.000000	84.313	33.1311
1220.000000	84.362	33.0051
1241.000000	84.438	32.6629
1250.000000	84.468	32.6381
1265.000000	84.521	32.4298
1280.000000	84.589	32.2644
1315.000000	84.753	31.8588
1320.000000	84.759	31.7567
1340.000000	84.842	31.4650
1360.000000	84.930	31.1117
1380.000000	85.015	30.7964
1400.000000	85.088	30.4976
1430.000000	85.209	30.0902
1450.000000	85.287	29.7983
1475.000000	85.394	29.4338
1500.000000	85.498	29.0181
1525.000000	85.612	28.6107
1550.000000	85.715	28.1767
1575.000000	85.829	27.7798
1600.000000	85.953	27.3149
1625.000000	86.063	26.8025
1650.000000	86.186	26.2136
1675.000000	86.294	25.6342
1700.000000	86.416	24.9913
1725.000000	86.538	24.3514
1750.000000	86.655	23.5450
1775.000000	86.769	22.7090
1800.000000	86.883	21.7850
1825.000000	86.984	20.9062
1850.000000	87.088	19.8875
1875.000000	87.177	18.8104
1900.000000	87.256	17.7209
1925.000000	87.333	16.5251
1950.000000	87.395	15.3406
1975.000000	87.454	14.1522
2000.000000	87.489	12.7642
2030.000000	87.530	11.2908
2060.000000	87.546	9.7315
2090.000000	87.547	8.1627
2120.000000	87.526	6.4888
2140.000000	87.495	5.4744
2180.000000	87.415	3.3520
2200.000000	87.368	2.3982
2240.000000	87.249	0.4489
2270.000000	87.125	-0.9097
2300.000000	86.986	-2.1963
2330.000000	86.842	-3.3093
2360.000000	86.679	-4.3336
2400.000000	86.448	-5.4274
2430.000000	86.256	-6.0410
2470.000000	86.009	-6.6675
2500.000000	85.850	-6.8311
2540.000000	85.625	-6.7310
2580.000000	85.447	-6.4387
2620.000000	85.331	-6.0109
2650.000000	85.268	-5.6630
2690.000000	85.221	-5.2145
2720.000000	85.215	-4.8546
2760.000000	85.246	-4.4771
2800.000000	85.313	-4.4115
2850.000000	85.392	-4.5740
2900.000000	85.470	-5.0383
2950.000000	85.522	-5.4088
3000.000000	85.628	-5.9286
3040.000000	85.683	-6.2195
3070.000000	85.748	-6.6191
3110.000000	85.834	-7.2033
3150.000000	85.911	-7.7374
3200.000000	86.040	-8.4366
3250.000000	86.175	-9.2952
3300.000000	86.324	-10.1694
3350.000000	86.499	-11.1350
3400.000000	86.699	-12.2811
3450.000000	86.895	-13.9055
3500.000000	87.097	-15.5712
3550.000000	87.258	-17.7063
3600.000000	87.406	-19.8653
3650.000000	87.501	-22.2014
3700.000000	87.554	-24.5840
3750.000000	87.571	-26.9489
3820.000000	87.507	-30.0993
3870.000000	87.423	-32.2263
3950.000000	87.204	-34.8650
4000.000000	87.022	-36.1758
4060.000000	86.820	-37.1193
4120.000000	86.620	-37.6299
4180.000000	86.458	-37.7017
4250.000000	86.308	-37.6965
4310.000000	86.198	-37.2792
4370.000000	86.115	-36.7776
4440.000000	86.047	-35.9884
4500.000000	85.990	-35.3599
4550.000000	85.960	-34.5471
4620.000000	85.932	-33.3406
4680.000000	85.917	-32.2020
4750.000000	85.926	-30.6977
4820.000000	85.952	-29.0708
4870.000000	85.971	-27.8490
4940.000000	86.028	-26.1138
5000.000000	86.060	-24.5033
5080.000000	86.177	-22.1989
5150.000000	86.275	-20.0381
5220.000000	86.392	-17.8024
5300.000000	86.553	-15.1325
5380.000000	86.736	-12.5276
5450.000000	86.933	-10.2258
5520.000000	87.155	-8.0278
5600.000000	87.424	-5.5272
5700.000000	87.793	-2.7651
5800.000000	88.204	-0.4366
5900.000000	88.599	1.3235
6000.000000	88.948	2.4865
6080.000000	89.174	3.0298
6150.000000	89.323	3.2313
6220.000000	89.404	3.2678
6300.000000	89.397	3.2598
6400.000000	89.240	3.3210
6500.000000	88.942	3.9395
6600.000000	88.520	5.3180
6700.000000	88.051	7.7979
6800.000000	87.556	11.1056
6900.000000	87.076	15.1974
7000.000000	86.654	20.1193
7100.000000	86.281	25.5133
7200.000000	85.996	31.2932
7300.000000	85.781	37.2393
7400.000000	85.649	43.4899
7500.000000	85.575	49.5654
7620.000000	85.594	56.7254
7750.000000	85.693	63.6423
7880.000000	85.861	70.0538
8000.000000	85.983	74.6042
8120.000000	86.032	78.4413
8250.000000	85.919	81.9488
8380.000000	85.553	85.2356
8500.000000	85.016	88.7840
8620.000000	84.332	93.3079
8750.000000	83.516	99.4906
8850.000000	82.889	105.2564
9000.000000	81.926	114.8513
9120.000000	81.244	123.7390
9250.000000	80.588	134.2404
9380.000000	79.998	145.0499
9500.000000	79.563	155.8402
9620.000000	79.206	166.7504
9750.000000	78.918	179.2336
9880.000000	78.746	-168.1977
10000.000000	78.775	-156.4464
10150.000000	78.992	-142.4243
10300.000000	79.287	-129.2941
10440.000000	79.796	-117.3890
10600.000000	80.342	-105.3496
10750.000000	80.861	-94.8546
10900.000000	81.377	-85.7560
11060.000000	81.836	-76.6171
11200.000000	82.139	-69.5956
11380.000000	82.412	-60.9293
11500.000000	82.526	-55.7764
11720.000000	82.434	-47.0869
11800.000000	82.225	-43.8225
12060.000000	81.227	-30.7945
12200.000000	80.684	-21.7299
12410.000000	79.860	-6.6060
12500.000000	79.568	0.5002
12650.000000	79.174	12.6221
12800.000000	78.953	24.9253
13150.000000	78.638	53.7614
13200.000000	78.644	57.7081
13400.000000	78.711	72.6322
13600.000000	78.804	87.0819
13800.000000	78.845	100.9082
14000.000000	78.790	113.8424
14300.000000	78.559	133.3165
14500.000000	78.387	146.9648
14750.000000	78.105	163.1016
15000.000000	77.747	179.5367
15250.000000	77.439	-163.1821
15500.000000	77.050	-146.4910
15750.000000	76.660	-128.9695
16000.000000	76.313	-111.3194
16250.000000	75.931	-90.9579
16500.000000	75.972	-71.1611
16750.000000	76.211	-50.8787
17000.000000	77.186	-32.0097
17250.000000	78.753	-17.8247
17500.000000	80.603	-16.0468
17750.000000	80.091	-30.0235
18000.000000	75.826	-32.6489
18250.000000	71.092	-14.6347
18500.000000	68.029	21.4003
18750.000000	68.513	50.8413
19000.000000	68.468	63.3596
19250.000000	66.666	80.8214
19500.000000	64.888	101.9650
19750.000000	63.526	123.7788
