* Measurement data measured by REW V5.20.5
* Source: Microphone (3- USB Sound Device        ), MICROPHONE (Master Volume), L, volume: 0.560
* Format: 256k Log Swept Sine, 1 sweep at 6.0- dBFS with no timing reference
* Dated: 10/07/2023 11:38:19 ã
* REW Settings:
*  C-weighting compensation: Off
*  Target level: 75.0 dB
* Note: ; 
* Measurement: AFUL Performer 8 OR S L
* Smoothing: None
* Frequency Step: 1/48 octave
* Start Frequency: 20.000 Hz
*
* Freq(Hz)	SPL(dB)	Phase(degrees)
20.000000	88.524	-179.5631
20.299999	88.527	-179.9480
20.600000	88.525	179.6732
20.900000	88.517	179.2864
21.200001	88.504	178.8810
21.400000	88.491	178.6021
21.799999	88.458	178.0351
22.000000	88.439	177.7512
22.400000	88.400	177.1832
22.700001	88.374	176.7406
23.000000	88.352	176.2618
23.299999	88.333	175.7363
23.600000	88.313	175.1705
24.000000	88.283	174.3832
24.299999	88.260	173.8014
24.700001	88.231	173.0718
25.000000	88.214	172.5685
25.400000	88.203	171.9464
25.799999	88.206	171.3514
26.200001	88.218	170.7520
26.500000	88.229	170.2909
26.900000	88.240	169.6707
27.200001	88.242	169.2225
27.600000	88.237	168.6797
28.000000	88.227	168.2170
28.500000	88.216	167.7171
29.000000	88.204	167.2204
29.500000	88.184	166.6893
30.000000	88.151	166.1583
30.400000	88.119	165.7539
30.700001	88.096	165.4545
31.100000	88.067	165.0364
31.500000	88.038	164.5839
32.000000	87.999	163.9837
32.500000	87.961	163.3773
33.000000	87.926	162.7738
33.500000	87.898	162.1635
34.000000	87.871	161.5554
34.500000	87.847	160.9723
35.000000	87.826	160.4204
35.500000	87.807	159.8922
36.000000	87.787	159.3876
36.500000	87.766	158.9121
37.000000	87.744	158.4602
37.500000	87.719	158.0197
38.200001	87.679	157.4182
38.700001	87.648	157.0021
39.500000	87.598	156.3311
40.000000	87.567	155.8889
40.599998	87.527	155.3394
41.200001	87.484	154.8000
41.799999	87.444	154.2943
42.500000	87.405	153.7187
43.099998	87.375	153.1998
43.700001	87.340	152.6888
44.400002	87.297	152.1547
45.000000	87.266	151.7114
45.500000	87.239	151.3168
46.200001	87.192	150.7635
46.799999	87.148	150.3408
47.500000	87.104	149.8802
48.200001	87.068	149.3622
48.700001	87.037	148.9476
49.400002	86.982	148.4146
50.000000	86.943	148.0648
50.799999	86.915	147.5324
51.500000	86.873	146.9497
52.200001	86.820	146.5560
53.000000	86.796	146.1125
53.799999	86.737	145.4314
54.500000	86.665	145.2301
55.200001	86.671	144.9525
56.000000	86.595	143.8435
57.000000	86.333	144.3281
58.000000	86.565	145.0117
59.000000	86.588	142.3294
60.000000	86.302	141.9115
60.799999	86.310	141.9315
61.500000	86.286	141.1573
62.200001	86.201	140.7214
63.000000	86.169	140.4064
64.000000	86.112	139.6496
65.000000	86.055	139.2513
66.000000	86.025	138.6721
67.000000	85.968	138.1784
68.000000	85.921	137.7317
69.000000	85.865	137.2830
70.000000	85.805	136.8373
71.000000	85.748	136.4280
72.000000	85.697	135.9120
73.000000	85.632	135.4262
74.000000	85.580	135.0178
75.000000	85.533	134.5757
76.199997	85.475	134.0607
77.500000	85.411	133.5475
78.800003	85.347	132.9695
80.000000	85.278	132.4753
81.199997	85.213	132.0034
82.500000	85.148	131.5496
83.800003	85.090	131.0506
85.000000	85.030	130.5970
86.199997	84.971	130.1613
87.500000	84.906	129.6584
88.500000	84.854	129.3179
90.000000	84.794	128.7834
91.199997	84.737	128.3498
92.500000	84.677	127.9178
93.800003	84.614	127.5402
95.000000	84.560	127.1575
96.199997	84.506	126.7893
97.500000	84.453	126.3223
98.800003	84.390	125.8789
100.000000	84.345	125.5613
101.500000	84.287	125.0483
103.000000	84.232	124.6854
104.400002	84.168	124.2152
106.000000	84.108	123.8020
107.500000	84.043	123.3379
109.000000	83.977	122.9119
110.599998	83.925	122.4706
112.000000	83.862	122.0761
113.800003	83.793	121.6134
115.000000	83.759	121.3312
117.199997	83.669	120.8018
118.000000	83.648	120.5845
120.599998	83.567	119.8869
122.000000	83.494	119.5464
124.099998	83.432	119.0838
125.000000	83.389	118.8265
126.500000	83.335	118.5904
128.000000	83.293	118.1849
131.500000	83.167	117.4637
132.000000	83.155	117.3532
134.000000	83.073	116.8484
136.000000	83.015	116.4431
138.000000	82.945	116.1060
140.000000	82.887	115.6275
143.000000	82.780	115.1335
145.000000	82.730	114.7257
147.500000	82.631	114.3775
150.000000	82.550	113.9993
152.500000	82.463	113.6340
155.000000	82.340	113.3836
157.500000	82.288	113.3961
160.000000	82.217	113.6191
162.500000	82.136	113.6783
165.000000	82.179	114.5490
167.500000	82.209	114.7591
170.000000	82.362	114.8564
172.500000	82.465	114.1734
175.000000	82.472	112.7432
177.500000	82.533	111.6171
180.000000	82.577	110.9348
182.500000	82.520	109.8484
185.000000	82.472	109.2572
187.500000	82.428	108.5941
190.000000	82.373	107.9027
192.500000	82.326	107.3808
195.000000	82.286	106.8442
197.500000	82.238	106.3733
200.000000	82.196	105.9514
203.000000	82.132	105.4250
206.000000	82.101	104.9827
209.000000	82.069	104.4318
212.000000	82.042	103.9276
214.000000	82.013	103.6805
218.000000	81.977	102.9856
220.000000	81.958	102.7635
224.000000	81.957	102.5371
227.000000	81.917	101.7992
230.000000	81.893	101.2838
233.000000	81.876	100.4891
236.000000	81.837	100.1826
240.000000	81.810	99.5858
243.000000	81.785	99.2259
247.000000	81.747	98.6646
250.000000	81.741	98.2477
254.000000	81.716	97.8311
258.000000	81.676	97.2006
262.000000	81.667	96.5986
265.000000	81.647	96.2957
269.000000	81.626	95.6700
272.000000	81.610	95.3861
276.000000	81.590	94.9041
280.000000	81.573	94.3997
285.000000	81.561	93.7756
290.000000	81.556	93.2744
295.000000	81.524	92.6602
300.000000	81.522	92.0754
304.000000	81.508	91.5969
307.000000	81.498	91.3188
311.000000	81.500	90.8873
315.000000	81.495	90.4247
320.000000	81.490	89.9794
325.000000	81.479	89.4009
330.000000	81.480	88.8517
335.000000	81.468	88.3450
340.000000	81.475	87.9166
345.000000	81.474	87.3980
350.000000	81.467	86.9224
355.000000	81.473	86.4914
360.000000	81.479	86.0161
365.000000	81.489	85.5555
370.000000	81.494	85.1954
375.000000	81.501	84.8115
382.000000	81.508	84.1595
387.000000	81.521	83.6302
395.000000	81.535	82.9765
400.000000	81.550	82.6105
406.000000	81.556	82.0826
412.000000	81.591	81.7021
418.000000	81.605	81.2027
425.000000	81.624	80.6452
431.000000	81.644	80.2083
437.000000	81.652	79.7209
444.000000	81.682	79.1793
450.000000	81.695	78.7121
455.000000	81.718	78.3778
462.000000	81.729	77.8586
468.000000	81.759	77.4293
475.000000	81.775	76.9084
482.000000	81.802	76.4390
487.000000	81.815	76.1297
494.000000	81.832	75.6363
500.000000	81.849	75.2480
508.000000	81.881	74.7459
515.000000	81.901	74.3046
522.000000	81.925	73.8539
530.000000	81.954	73.3644
538.000000	81.994	72.9718
545.000000	81.999	72.5290
552.000000	82.030	72.0959
560.000000	82.066	71.7084
570.000000	82.087	71.1276
580.000000	82.126	70.5457
590.000000	82.162	70.0125
600.000000	82.186	69.4607
608.000000	82.212	69.0595
615.000000	82.232	68.7492
622.000000	82.258	68.3806
630.000000	82.278	68.0521
640.000000	82.303	67.5293
650.000000	82.334	67.0807
660.000000	82.351	66.6430
670.000000	82.371	66.0804
680.000000	82.413	65.7898
690.000000	82.432	65.3373
700.000000	82.450	64.8855
710.000000	82.471	64.5808
720.000000	82.492	64.1664
730.000000	82.505	63.7816
740.000000	82.525	63.5153
750.000000	82.554	63.1492
762.000000	82.565	62.7162
775.000000	82.595	62.3898
788.000000	82.599	62.0240
800.000000	82.607	61.7479
812.000000	82.638	61.3821
825.000000	82.650	61.1719
838.000000	82.661	60.9152
850.000000	82.673	60.6230
862.000000	82.696	60.4515
875.000000	82.724	60.2817
885.000000	82.732	60.2031
900.000000	82.758	60.0437
912.000000	82.792	59.8931
925.000000	82.814	59.7801
938.000000	82.845	59.6099
950.000000	82.866	59.5870
962.000000	82.902	59.3990
975.000000	82.934	59.3459
988.000000	82.969	59.2749
1000.000000	83.039	59.1752
1015.000000	83.047	59.0452
1030.000000	83.097	58.8846
1044.000000	83.132	58.8257
1060.000000	83.185	58.6955
1075.000000	83.235	58.5362
1090.000000	83.278	58.3813
1106.000000	83.321	58.3004
1120.000000	83.364	58.1027
1138.000000	83.418	57.9075
1150.000000	83.457	57.8743
1172.000000	83.526	57.6334
1180.000000	83.538	57.5553
1206.000000	83.625	57.2061
1220.000000	83.641	57.1924
1241.000000	83.705	56.9714
1250.000000	83.728	56.9055
1265.000000	83.760	56.8228
1280.000000	83.803	56.6758
1315.000000	83.893	56.3873
1320.000000	83.897	56.4136
1340.000000	83.949	56.2185
1360.000000	84.004	56.0895
1380.000000	84.065	56.0744
1400.000000	84.110	55.8442
1430.000000	84.191	55.7932
1450.000000	84.252	55.7146
1475.000000	84.331	55.5269
1500.000000	84.399	55.4796
1525.000000	84.479	55.4558
1550.000000	84.564	55.2050
1575.000000	84.642	55.0366
1600.000000	84.734	54.9082
1625.000000	84.829	54.7753
1650.000000	84.920	54.5838
1675.000000	85.022	54.2850
1700.000000	85.132	54.1048
1725.000000	85.230	53.7707
1750.000000	85.354	53.4349
1775.000000	85.466	53.0513
1800.000000	85.586	52.5972
1825.000000	85.707	51.9980
1850.000000	85.824	51.4572
1875.000000	85.932	50.8153
1900.000000	86.036	50.1582
1925.000000	86.144	49.2960
1950.000000	86.261	48.5307
1975.000000	86.359	47.5918
2000.000000	86.441	46.3577
2030.000000	86.542	45.2600
2060.000000	86.630	43.9306
2090.000000	86.698	42.4755
2120.000000	86.741	41.0208
2140.000000	86.777	40.0274
2180.000000	86.798	38.0489
2200.000000	86.793	36.9843
2240.000000	86.762	35.0140
2270.000000	86.725	33.6110
2300.000000	86.664	32.2151
2330.000000	86.598	30.9163
2360.000000	86.507	29.7059
2400.000000	86.413	28.2154
2430.000000	86.320	27.2591
2470.000000	86.193	26.0472
2500.000000	86.099	25.1890
2540.000000	85.985	24.1674
2580.000000	85.883	23.2419
2620.000000	85.784	22.4103
2650.000000	85.691	21.8495
2690.000000	85.612	21.0580
2720.000000	85.554	20.5928
2760.000000	85.475	20.0052
2800.000000	85.431	19.4138
2850.000000	85.364	18.6512
2900.000000	85.341	18.0437
2950.000000	85.340	17.3414
3000.000000	85.366	16.7754
3040.000000	85.388	16.1259
3070.000000	85.418	15.6590
3110.000000	85.485	15.0333
3150.000000	85.562	14.3246
3200.000000	85.684	13.3613
3250.000000	85.821	12.2703
3300.000000	86.000	10.9602
3350.000000	86.172	9.4360
3400.000000	86.367	7.7104
3450.000000	86.559	5.7281
3500.000000	86.754	3.4669
3550.000000	86.922	0.8953
3600.000000	87.074	-1.8809
3650.000000	87.178	-4.8430
3700.000000	87.238	-7.8737
3750.000000	87.233	-10.9067
3820.000000	87.163	-14.8720
3870.000000	87.068	-17.4869
3950.000000	86.871	-20.9717
4000.000000	86.715	-22.9044
4060.000000	86.582	-24.5731
4120.000000	86.445	-26.0713
4180.000000	86.339	-27.3644
4250.000000	86.224	-28.5895
4310.000000	86.152	-29.5733
4370.000000	86.071	-30.3438
4440.000000	86.018	-31.2222
4500.000000	85.957	-31.8464
4550.000000	85.913	-32.3498
4620.000000	85.839	-33.0413
4680.000000	85.769	-33.2502
4750.000000	85.696	-33.5367
4820.000000	85.626	-33.5265
4870.000000	85.566	-33.4918
4940.000000	85.491	-33.1642
5000.000000	85.467	-32.6691
5080.000000	85.373	-32.0291
5150.000000	85.337	-31.1314
5220.000000	85.310	-30.1282
5300.000000	85.302	-28.8175
5380.000000	85.316	-27.3912
5450.000000	85.323	-26.1279
5520.000000	85.365	-24.6746
5600.000000	85.436	-23.0203
5700.000000	85.535	-20.9288
5800.000000	85.689	-18.6254
5900.000000	85.846	-16.4581
6000.000000	86.072	-14.3339
6080.000000	86.237	-12.9680
6150.000000	86.401	-11.7350
6220.000000	86.560	-10.8477
6300.000000	86.748	-9.7515
6400.000000	86.953	-8.7263
6500.000000	87.133	-7.9380
6600.000000	87.266	-7.4774
6700.000000	87.346	-7.0889
6800.000000	87.350	-6.8616
6900.000000	87.302	-6.4521
7000.000000	87.182	-5.7860
7100.000000	87.024	-5.1699
7200.000000	86.850	-3.9725
7300.000000	86.633	-2.7281
7400.000000	86.426	-1.0713
7500.000000	86.198	0.6694
7620.000000	85.959	3.3324
7750.000000	85.782	6.2443
7880.000000	85.657	8.9454
8000.000000	85.548	10.5495
8120.000000	85.399	11.2287
8250.000000	85.068	11.4049
8380.000000	84.485	11.4287
8500.000000	83.744	12.0037
8620.000000	82.849	13.5027
8750.000000	81.722	16.7010
8850.000000	80.858	20.2178
9000.000000	79.643	27.3947
9120.000000	78.639	33.9928
9250.000000	77.729	42.1245
9380.000000	76.939	51.1758
9500.000000	76.293	60.0694
9620.000000	75.843	69.2131
9750.000000	75.405	79.2316
9880.000000	75.081	89.0061
10000.000000	74.868	98.4055
10150.000000	74.809	109.7570
10300.000000	74.739	120.3901
10440.000000	74.775	130.1350
10600.000000	74.914	141.2032
10750.000000	75.057	150.9999
10900.000000	75.170	161.1890
11060.000000	75.375	170.5945
11200.000000	75.659	179.0793
11380.000000	75.999	-169.8096
11500.000000	76.179	-162.6783
11720.000000	76.636	-149.6720
11800.000000	76.828	-145.5231
12060.000000	77.484	-132.0405
12200.000000	77.816	-125.6302
12410.000000	78.347	-115.6646
12500.000000	78.544	-111.4353
12650.000000	78.815	-104.4158
12800.000000	79.086	-98.1210
13150.000000	79.781	-82.0508
13200.000000	79.885	-79.9185
13400.000000	80.401	-70.9460
13600.000000	80.982	-63.1389
13800.000000	81.567	-56.6106
14000.000000	82.068	-50.4784
14300.000000	82.637	-43.3336
14500.000000	82.844	-38.6620
14750.000000	82.978	-32.4725
15000.000000	83.066	-25.8097
15250.000000	83.158	-18.3456
15500.000000	83.589	-11.0694
15750.000000	84.341	-6.5968
16000.000000	84.997	-7.8024
16250.000000	84.639	-14.0605
16500.000000	82.943	-17.4885
16750.000000	80.792	-14.0491
17000.000000	78.677	-5.1154
17250.000000	76.880	6.2358
17500.000000	75.387	20.7638
17750.000000	73.767	36.0984
18000.000000	72.365	59.4732
18250.000000	74.538	86.0255
18500.000000	74.906	87.6164
18750.000000	74.192	99.5759
19000.000000	74.030	124.4927
19250.000000	79.100	142.7021
19500.000000	81.610	122.1353
19750.000000	81.129	105.3050
