* Measurement data measured by REW V5.20.5
* Source: Microphone (3- USB Sound Device        ), MICROPHONE (Master Volume), L, volume: 0.560
* Format: 256k Log Swept Sine, 1 sweep at 6.0- dBFS with no timing reference
* Dated: 10/07/2023 11:27:08 ã
* REW Settings:
*  C-weighting compensation: Off
*  Target level: 75.0 dB
* Note: ; 
* Measurement: AFUL Performer 8 SOFT R
* Smoothing: None
* Frequency Step: 1/48 octave
* Start Frequency: 20.000 Hz
*
* Freq(Hz)	SPL(dB)	Phase(degrees)
20.000000	88.832	179.1420
20.299999	88.834	178.6753
20.600000	88.832	178.2221
20.900000	88.825	177.7703
21.200001	88.815	177.3083
21.400000	88.805	176.9929
21.799999	88.780	176.3467
22.000000	88.766	176.0161
22.400000	88.738	175.3362
22.700001	88.717	174.8005
23.000000	88.698	174.2346
23.299999	88.678	173.6409
23.600000	88.659	173.0301
24.000000	88.634	172.2102
24.299999	88.618	171.6038
24.700001	88.603	170.8090
25.000000	88.596	170.2202
25.400000	88.592	169.4453
25.799999	88.590	168.6961
26.200001	88.590	167.9894
26.500000	88.592	167.4891
26.900000	88.596	166.8542
27.200001	88.599	166.3963
27.600000	88.599	165.8090
28.000000	88.595	165.2537
28.500000	88.585	164.6039
29.000000	88.568	163.9800
29.500000	88.544	163.3626
30.000000	88.513	162.7542
30.400000	88.486	162.2715
30.700001	88.466	161.9020
31.100000	88.441	161.3843
31.500000	88.413	160.8357
32.000000	88.376	160.1307
32.500000	88.339	159.4375
33.000000	88.309	158.7562
33.500000	88.285	158.0649
34.000000	88.263	157.3641
34.500000	88.241	156.6821
35.000000	88.220	156.0387
35.500000	88.200	155.4328
36.000000	88.181	154.8561
36.500000	88.162	154.3035
37.000000	88.141	153.7681
37.500000	88.118	153.2424
38.200001	88.080	152.5147
38.700001	88.050	151.9950
39.500000	87.997	151.1552
40.000000	87.962	150.6373
40.599998	87.921	150.0272
41.200001	87.885	149.4019
41.799999	87.850	148.7516
42.500000	87.806	148.0073
43.099998	87.771	147.4045
43.700001	87.740	146.8071
44.400002	87.703	146.1044
45.000000	87.667	145.5258
45.500000	87.637	145.0724
46.200001	87.597	144.4598
46.799999	87.564	143.9281
47.500000	87.524	143.2956
48.200001	87.479	142.6760
48.700001	87.447	142.2513
49.400002	87.406	141.6642
50.000000	87.372	141.1381
50.799999	87.321	140.4220
51.500000	87.274	139.8493
52.200001	87.236	139.2863
53.000000	87.190	138.5869
53.799999	87.140	137.9803
54.500000	87.114	137.4521
55.200001	87.075	136.8167
56.000000	87.009	136.4465
57.000000	87.075	136.1158
58.000000	87.095	134.2956
59.000000	86.872	133.3091
60.000000	86.800	133.3456
60.799999	86.772	132.7529
61.500000	86.704	132.2876
62.200001	86.657	131.9415
63.000000	86.613	131.3493
64.000000	86.537	130.6290
65.000000	86.486	129.9412
66.000000	86.430	129.2050
67.000000	86.382	128.5667
68.000000	86.333	127.8956
69.000000	86.274	127.3105
70.000000	86.222	126.7712
71.000000	86.172	126.1654
72.000000	86.110	125.5173
73.000000	86.049	124.9421
74.000000	85.999	124.3293
75.000000	85.942	123.7187
76.199997	85.884	123.0728
77.500000	85.822	122.3459
78.800003	85.762	121.6288
80.000000	85.694	120.9557
81.199997	85.633	120.3293
82.500000	85.560	119.6073
83.800003	85.497	118.9849
85.000000	85.443	118.3268
86.199997	85.380	117.7311
87.500000	85.330	117.0699
88.500000	85.277	116.5233
90.000000	85.209	115.8305
91.199997	85.150	115.2662
92.500000	85.097	114.6632
93.800003	85.030	114.0389
95.000000	84.974	113.5173
96.199997	84.924	112.9737
97.500000	84.862	112.3640
98.800003	84.814	111.8668
100.000000	84.768	111.2825
101.500000	84.705	110.6265
103.000000	84.639	109.9669
104.400002	84.573	109.3272
106.000000	84.511	108.6965
107.500000	84.446	108.0790
109.000000	84.401	107.4417
110.599998	84.328	106.8074
112.000000	84.272	106.2057
113.800003	84.204	105.5537
115.000000	84.154	105.0621
117.199997	84.076	104.2862
118.000000	84.052	103.9552
120.599998	83.965	103.0031
122.000000	83.903	102.4192
124.099998	83.829	101.6709
125.000000	83.796	101.3741
126.500000	83.748	100.8341
128.000000	83.695	100.3286
131.500000	83.585	99.1290
132.000000	83.569	98.9521
134.000000	83.502	98.2859
136.000000	83.450	97.5902
138.000000	83.379	96.9471
140.000000	83.334	96.2512
143.000000	83.243	95.3347
145.000000	83.186	94.7147
147.500000	83.113	93.9448
150.000000	83.041	93.1399
152.500000	82.983	92.3113
155.000000	82.905	91.5929
157.500000	82.841	90.9276
160.000000	82.775	90.2084
162.500000	82.707	89.5720
165.000000	82.640	88.8872
167.500000	82.570	88.2487
170.000000	82.510	87.5711
172.500000	82.447	87.0298
175.000000	82.378	86.3892
177.500000	82.322	85.8370
180.000000	82.243	85.4199
182.500000	82.161	85.0171
185.000000	82.108	84.7887
187.500000	82.059	84.6028
190.000000	82.044	84.5424
192.500000	82.056	84.5523
195.000000	82.100	84.4581
197.500000	82.189	84.1471
200.000000	82.284	83.4962
203.000000	82.360	82.4074
206.000000	82.397	81.0044
209.000000	82.404	79.7298
212.000000	82.386	78.5477
214.000000	82.356	77.8597
218.000000	82.300	76.5360
220.000000	82.269	75.8956
224.000000	82.172	74.8113
227.000000	82.161	73.8929
230.000000	82.129	73.0831
233.000000	82.090	72.4228
236.000000	82.076	71.5932
240.000000	82.024	70.7583
243.000000	81.982	69.9942
247.000000	81.944	69.1198
250.000000	81.920	68.4682
254.000000	81.878	67.5536
258.000000	81.875	66.7824
262.000000	81.828	65.8733
265.000000	81.804	65.2702
269.000000	81.789	64.4872
272.000000	81.761	63.8485
276.000000	81.741	63.0742
280.000000	81.727	62.3264
285.000000	81.707	61.3795
290.000000	81.682	60.4205
295.000000	81.667	59.5094
300.000000	81.661	58.6321
304.000000	81.651	57.9565
307.000000	81.653	57.4287
311.000000	81.647	56.7456
315.000000	81.641	56.0020
320.000000	81.641	55.0786
325.000000	81.639	54.2419
330.000000	81.637	53.4115
335.000000	81.651	52.6024
340.000000	81.655	51.7697
345.000000	81.663	50.9709
350.000000	81.676	50.1619
355.000000	81.686	49.3205
360.000000	81.711	48.5103
365.000000	81.718	47.7318
370.000000	81.726	47.0365
375.000000	81.748	46.2108
382.000000	81.761	45.1489
387.000000	81.782	44.3993
395.000000	81.808	43.0984
400.000000	81.823	42.4211
406.000000	81.844	41.4927
412.000000	81.891	40.6252
418.000000	81.911	39.7201
425.000000	81.954	38.7198
431.000000	81.985	37.7552
437.000000	82.012	36.9102
444.000000	82.042	35.9144
450.000000	82.069	35.0639
455.000000	82.099	34.3809
462.000000	82.139	33.3820
468.000000	82.173	32.5110
475.000000	82.208	31.5944
482.000000	82.235	30.6121
487.000000	82.272	29.9008
494.000000	82.303	28.9562
500.000000	82.346	28.1620
508.000000	82.390	27.0833
515.000000	82.429	26.1602
522.000000	82.469	25.1981
530.000000	82.525	24.1252
538.000000	82.562	23.1173
545.000000	82.607	22.2050
552.000000	82.637	21.2424
560.000000	82.685	20.2755
570.000000	82.745	18.9402
580.000000	82.806	17.6204
590.000000	82.853	16.3506
600.000000	82.905	15.0443
608.000000	82.953	14.0797
615.000000	82.996	13.2053
622.000000	83.029	12.2627
630.000000	83.061	11.3939
640.000000	83.115	10.0095
650.000000	83.157	8.8198
660.000000	83.204	7.5515
670.000000	83.250	6.3379
680.000000	83.293	5.1378
690.000000	83.329	3.9464
700.000000	83.362	2.7345
710.000000	83.389	1.5027
720.000000	83.415	0.3484
730.000000	83.454	-0.7675
740.000000	83.479	-1.9359
750.000000	83.504	-3.1349
762.000000	83.534	-4.3785
775.000000	83.559	-5.8030
788.000000	83.585	-7.1667
800.000000	83.606	-8.3985
812.000000	83.621	-9.6105
825.000000	83.640	-10.8210
838.000000	83.658	-12.1114
850.000000	83.678	-13.1680
862.000000	83.691	-14.2952
875.000000	83.712	-15.3450
885.000000	83.737	-16.2855
900.000000	83.776	-17.5339
912.000000	83.790	-18.4758
925.000000	83.814	-19.4906
938.000000	83.845	-20.5175
950.000000	83.875	-21.4766
962.000000	83.908	-22.3251
975.000000	83.950	-23.4076
988.000000	83.985	-24.3854
1000.000000	84.033	-25.4070
1015.000000	84.069	-26.3693
1030.000000	84.128	-27.6000
1044.000000	84.164	-28.6217
1060.000000	84.217	-29.8658
1075.000000	84.279	-30.9236
1090.000000	84.330	-32.0969
1106.000000	84.388	-33.3187
1120.000000	84.444	-34.3866
1138.000000	84.509	-35.7426
1150.000000	84.546	-36.7198
1172.000000	84.629	-38.3878
1180.000000	84.662	-39.0161
1206.000000	84.751	-40.9489
1220.000000	84.801	-42.0456
1241.000000	84.869	-43.6250
1250.000000	84.911	-44.3242
1265.000000	84.951	-45.5004
1280.000000	85.004	-46.5810
1315.000000	85.126	-49.1257
1320.000000	85.138	-49.5691
1340.000000	85.200	-51.0403
1360.000000	85.275	-52.5408
1380.000000	85.346	-53.9868
1400.000000	85.421	-55.5453
1430.000000	85.530	-57.7263
1450.000000	85.604	-59.1915
1475.000000	85.675	-61.0330
1500.000000	85.785	-62.9023
1525.000000	85.884	-64.7207
1550.000000	85.987	-66.7233
1575.000000	86.081	-68.6185
1600.000000	86.191	-70.5536
1625.000000	86.298	-72.4751
1650.000000	86.401	-74.5377
1675.000000	86.507	-76.5536
1700.000000	86.611	-78.6243
1725.000000	86.725	-80.7667
1750.000000	86.827	-82.9751
1775.000000	86.924	-85.2382
1800.000000	87.034	-87.4462
1825.000000	87.133	-89.7595
1850.000000	87.241	-92.1774
1875.000000	87.330	-94.5676
1900.000000	87.417	-97.0045
1925.000000	87.489	-99.5294
1950.000000	87.554	-102.0214
1975.000000	87.611	-104.5638
2000.000000	87.640	-107.2941
2030.000000	87.715	-110.3459
2060.000000	87.753	-113.5186
2090.000000	87.781	-116.7179
2120.000000	87.788	-119.9349
2140.000000	87.791	-122.0578
2180.000000	87.768	-126.3752
2200.000000	87.760	-128.5237
2240.000000	87.692	-132.7894
2270.000000	87.638	-135.8969
2300.000000	87.570	-139.0048
2330.000000	87.478	-142.0735
2360.000000	87.382	-145.0630
2400.000000	87.238	-148.8942
2430.000000	87.117	-151.7014
2470.000000	86.960	-155.1945
2500.000000	86.832	-157.7734
2540.000000	86.659	-160.9768
2580.000000	86.496	-164.0867
2620.000000	86.345	-167.0536
2650.000000	86.240	-169.2515
2690.000000	86.103	-172.0616
2720.000000	86.018	-174.0544
2760.000000	85.906	-176.6787
2800.000000	85.819	-179.2155
2850.000000	85.731	177.6886
2900.000000	85.666	174.5455
2950.000000	85.629	171.4992
3000.000000	85.646	168.3161
3040.000000	85.656	165.8900
3070.000000	85.681	164.0264
3110.000000	85.722	161.4381
3150.000000	85.796	158.7448
3200.000000	85.906	155.4575
3250.000000	86.032	151.9449
3300.000000	86.173	148.2296
3350.000000	86.328	144.4224
3400.000000	86.499	140.2700
3450.000000	86.667	136.0753
3500.000000	86.826	131.5345
3550.000000	86.956	126.8399
3600.000000	87.074	122.1389
3650.000000	87.159	117.2040
3700.000000	87.215	112.2426
3750.000000	87.227	107.3400
3820.000000	87.197	100.7294
3870.000000	87.124	96.2216
3950.000000	87.002	89.5239
4000.000000	86.953	85.6042
4060.000000	86.829	81.2223
4120.000000	86.751	77.1237
4180.000000	86.688	73.2369
4250.000000	86.629	68.9672
4310.000000	86.596	65.3367
4370.000000	86.572	61.9255
4440.000000	86.544	58.0060
4500.000000	86.543	54.6585
4550.000000	86.525	52.0690
4620.000000	86.507	48.4330
4680.000000	86.490	45.6196
4750.000000	86.484	42.2579
4820.000000	86.461	39.2654
4870.000000	86.458	37.1590
4940.000000	86.444	34.4058
5000.000000	86.422	32.1882
5080.000000	86.436	29.4243
5150.000000	86.461	27.1552
5220.000000	86.494	25.1637
5300.000000	86.570	23.0353
5380.000000	86.661	20.9237
5450.000000	86.777	19.2319
5520.000000	86.927	17.5153
5600.000000	87.100	15.4935
5700.000000	87.365	12.9174
5800.000000	87.644	10.1253
5900.000000	87.955	7.2487
6000.000000	88.264	3.9763
6080.000000	88.538	1.1146
6150.000000	88.738	-1.6720
6220.000000	88.916	-4.5953
6300.000000	89.104	-8.1741
6400.000000	89.244	-12.8557
6500.000000	89.304	-17.6156
6600.000000	89.266	-22.3901
6700.000000	89.144	-26.7871
6800.000000	88.943	-30.9270
6900.000000	88.706	-34.5117
7000.000000	88.440	-37.5923
7100.000000	88.181	-40.2893
7200.000000	87.946	-42.5823
7300.000000	87.751	-44.6863
7400.000000	87.562	-46.7781
7500.000000	87.397	-48.9485
7620.000000	87.259	-51.5887
7750.000000	87.070	-55.0864
7880.000000	86.812	-59.2116
8000.000000	86.423	-63.1923
8120.000000	85.940	-67.3152
8250.000000	85.200	-71.2084
8380.000000	84.287	-74.2655
8500.000000	83.379	-75.9238
8620.000000	82.447	-76.5699
8750.000000	81.434	-75.8401
8850.000000	80.652	-74.5631
9000.000000	79.555	-71.9462
9120.000000	78.795	-68.8218
9250.000000	77.980	-64.9650
9380.000000	77.309	-60.4226
9500.000000	76.682	-55.3207
9620.000000	76.261	-49.9462
9750.000000	75.926	-43.7551
9880.000000	75.658	-37.0012
10000.000000	75.694	-31.4629
10150.000000	75.800	-24.5817
10300.000000	75.899	-18.2640
10440.000000	76.172	-12.8979
10600.000000	76.524	-7.4594
10750.000000	76.826	-2.1223
10900.000000	77.203	3.0317
11060.000000	77.727	7.7766
11200.000000	78.217	11.9171
11380.000000	78.847	16.8029
11500.000000	79.352	19.8817
11720.000000	80.330	24.5212
11800.000000	80.754	25.5146
12060.000000	82.034	27.6110
12200.000000	82.647	28.4022
12410.000000	83.576	28.4384
12500.000000	83.893	28.1105
12650.000000	84.418	27.0693
12800.000000	84.824	26.1790
13150.000000	85.603	24.4921
13200.000000	85.723	24.3634
13400.000000	86.237	23.4284
13600.000000	86.819	21.3031
13800.000000	87.338	17.4127
14000.000000	87.548	12.3613
14300.000000	87.356	5.0056
14500.000000	87.013	1.1846
14750.000000	86.430	-2.6632
15000.000000	85.794	-5.5422
15250.000000	85.190	-8.0319
15500.000000	84.437	-10.3468
15750.000000	83.499	-12.1970
16000.000000	82.288	-12.6720
16250.000000	81.116	-10.2650
16500.000000	80.120	-5.8689
16750.000000	79.247	-0.2733
17000.000000	78.780	6.9021
17250.000000	78.693	14.1202
17500.000000	78.992	20.1517
17750.000000	79.715	24.8344
18000.000000	80.825	25.3046
18250.000000	81.657	17.4228
18500.000000	81.352	10.5100
18750.000000	81.279	0.0779
19000.000000	79.679	-14.1458
19250.000000	76.928	-18.3514
19500.000000	74.591	-16.2014
19750.000000	72.641	-10.6860
