* Measurement data measured by REW V5.20.13
* Source: USB Sound Device        , MICROPHONE, R, volume: 0.697
* Format: 256k Log Swept Sine, 1 sweep at -6.0 dBFS with no timing reference
* Dated: Dec 4, 2023 4:56:34 AM
* REW Settings:
*  C-weighting compensation: Off
*  Target level: 75.0 dB
* Note: ; 
* Measurement: Andronida FOAM TRIP R
* Smoothing: None
* Frequency Step: 1/48 octave
* Start Frequency: 20.000 Hz
*
* Freq(Hz)	SPL(dB)	Phase(degrees)
20.000000	81.082	-144.3278
20.299999	81.273	-143.8405
20.600000	81.428	-143.2354
20.900000	81.542	-142.5979
21.200001	81.606	-141.9525
21.400000	81.622	-141.4932
21.799999	81.604	-140.5011
22.000000	81.580	-140.0005
22.400000	81.520	-139.1468
22.700001	81.462	-138.7924
23.000000	81.378	-138.7562
23.299999	81.260	-138.9695
23.600000	81.117	-139.3340
24.000000	80.917	-139.9498
24.299999	80.792	-140.5338
24.700001	80.679	-141.6148
25.000000	80.631	-142.7095
25.400000	80.599	-144.4563
25.799999	80.596	-146.2559
26.200001	80.640	-147.8701
26.500000	80.709	-148.9249
26.900000	80.845	-150.1578
27.200001	80.963	-150.9557
27.600000	81.122	-151.7920
28.000000	81.274	-152.2916
28.500000	81.458	-152.4948
29.000000	81.622	-152.4603
29.500000	81.734	-152.2962
30.000000	81.788	-151.9598
30.400000	81.807	-151.6186
30.700001	81.812	-151.4018
31.100000	81.799	-151.2504
31.500000	81.760	-151.2539
32.000000	81.679	-151.3891
32.500000	81.595	-151.6541
33.000000	81.527	-152.1533
33.500000	81.471	-152.8975
34.000000	81.431	-153.7443
34.500000	81.423	-154.5920
35.000000	81.449	-155.4430
35.500000	81.494	-156.2491
36.000000	81.551	-156.8941
36.500000	81.622	-157.3520
37.000000	81.700	-157.7051
37.500000	81.766	-157.9832
38.200001	81.826	-158.1607
38.700001	81.857	-158.1864
39.500000	81.878	-158.3063
40.000000	81.865	-158.4030
40.599998	81.846	-158.5200
41.200001	81.835	-158.7640
41.799999	81.822	-159.1541
42.500000	81.809	-159.6559
43.099998	81.811	-160.0965
43.700001	81.822	-160.5362
44.400002	81.843	-160.9951
45.000000	81.866	-161.3672
45.500000	81.877	-161.6537
46.200001	81.885	-161.9376
46.799999	81.897	-162.1249
47.500000	81.907	-162.4072
48.200001	81.907	-162.6747
48.700001	81.913	-162.8497
49.400002	81.931	-163.1923
50.000000	81.939	-163.5440
50.799999	81.944	-163.9165
51.500000	81.956	-164.1683
52.200001	81.968	-164.3786
53.000000	81.980	-164.5640
53.799999	81.985	-164.7592
54.500000	81.979	-164.9431
55.200001	81.968	-165.1446
56.000000	81.954	-165.4199
57.000000	81.942	-165.8328
58.000000	81.945	-166.2243
59.000000	81.977	-166.6725
60.000000	81.988	-167.0667
60.799999	82.003	-167.1494
61.500000	82.026	-167.2584
62.200001	82.031	-167.4202
63.000000	82.020	-167.5484
64.000000	82.009	-167.7387
65.000000	81.992	-168.0670
66.000000	81.972	-168.3972
67.000000	81.976	-168.6718
68.000000	81.992	-169.0006
69.000000	82.002	-169.2527
70.000000	82.009	-169.4265
71.000000	82.011	-169.5594
72.000000	82.006	-169.7572
73.000000	81.987	-169.9534
74.000000	81.978	-170.1266
75.000000	81.981	-170.3874
76.199997	81.975	-170.7098
77.500000	81.980	-170.9451
78.800003	81.979	-171.2191
80.000000	81.965	-171.4234
81.199997	81.963	-171.5685
82.500000	81.960	-171.8719
83.800003	81.949	-172.0095
85.000000	81.957	-172.2006
86.199997	81.944	-172.3746
87.500000	81.941	-172.5748
88.500000	81.928	-172.7674
90.000000	81.921	-173.0323
91.199997	81.920	-173.1957
92.500000	81.926	-173.3922
93.800003	81.919	-173.5432
95.000000	81.905	-173.6504
96.199997	81.897	-173.7530
97.500000	81.879	-173.9846
98.800003	81.872	-174.0983
100.000000	81.876	-174.3293
101.500000	81.861	-174.5208
103.000000	81.859	-174.6231
104.400002	81.846	-174.8083
106.000000	81.837	-174.9870
107.500000	81.822	-175.1883
109.000000	81.816	-175.3041
110.599998	81.808	-175.5247
112.000000	81.783	-175.6299
113.800003	81.784	-175.7619
115.000000	81.766	-175.9416
117.199997	81.748	-176.1020
118.000000	81.742	-176.1294
120.599998	81.710	-176.3822
122.000000	81.708	-176.4964
124.099998	81.700	-176.6731
125.000000	81.698	-176.7390
126.500000	81.677	-176.8407
128.000000	81.670	-176.9304
131.500000	81.624	-177.2569
132.000000	81.622	-177.2838
134.000000	81.609	-177.4710
136.000000	81.597	-177.4845
138.000000	81.571	-177.6151
140.000000	81.556	-177.7713
143.000000	81.530	-177.9861
145.000000	81.520	-178.0506
147.500000	81.487	-178.1267
150.000000	81.463	-178.3555
152.500000	81.422	-178.4961
155.000000	81.427	-178.5822
157.500000	81.400	-178.6414
160.000000	81.370	-178.7858
162.500000	81.337	-178.8958
165.000000	81.325	-179.0200
167.500000	81.297	-179.1063
170.000000	81.276	-179.2235
172.500000	81.254	-179.3210
175.000000	81.228	-179.3727
177.500000	81.199	-179.4364
180.000000	81.177	-179.4595
182.500000	81.148	-179.6039
185.000000	81.128	-179.6024
187.500000	81.096	-179.7423
190.000000	81.071	-179.7612
192.500000	81.050	-179.9252
195.000000	81.022	-179.9405
197.500000	80.998	-179.9759
200.000000	80.960	-179.9226
203.000000	80.934	179.9284
206.000000	80.916	179.8415
209.000000	80.893	179.8076
212.000000	80.853	179.7811
214.000000	80.841	179.7394
218.000000	80.789	179.7374
220.000000	80.776	179.7177
224.000000	80.734	179.7147
227.000000	80.698	179.6372
230.000000	80.690	179.6168
233.000000	80.645	179.6146
236.000000	80.619	179.5990
240.000000	80.563	179.5950
243.000000	80.545	179.6216
247.000000	80.505	179.6243
250.000000	80.468	179.6495
254.000000	80.425	179.6248
258.000000	80.389	179.6745
262.000000	80.362	179.7208
265.000000	80.316	179.6194
269.000000	80.288	179.7721
272.000000	80.242	179.7452
276.000000	80.192	179.8522
280.000000	80.175	179.8455
285.000000	80.114	179.9815
290.000000	80.064	179.9179
295.000000	80.024	-179.9207
300.000000	79.970	-179.8810
304.000000	79.941	-179.8510
307.000000	79.903	-179.7202
311.000000	79.858	-179.6640
315.000000	79.826	-179.6815
320.000000	79.767	-179.5190
325.000000	79.728	-179.4204
330.000000	79.674	-179.3636
335.000000	79.629	-179.2126
340.000000	79.589	-179.0988
345.000000	79.536	-178.9258
350.000000	79.489	-178.8170
355.000000	79.443	-178.7451
360.000000	79.401	-178.5833
365.000000	79.335	-178.4370
370.000000	79.300	-178.2404
375.000000	79.254	-178.1918
382.000000	79.188	-177.9815
387.000000	79.132	-177.7799
395.000000	79.059	-177.4765
400.000000	79.020	-177.3276
406.000000	78.961	-177.1398
412.000000	78.919	-176.9404
418.000000	78.833	-176.7807
425.000000	78.780	-176.4287
431.000000	78.744	-176.2448
437.000000	78.663	-176.0536
444.000000	78.607	-175.7389
450.000000	78.562	-175.5396
455.000000	78.524	-175.3349
462.000000	78.452	-174.9805
468.000000	78.399	-174.7075
475.000000	78.343	-174.3795
482.000000	78.280	-174.0358
487.000000	78.247	-173.8396
494.000000	78.178	-173.4437
500.000000	78.112	-173.2035
508.000000	78.058	-172.7730
515.000000	77.996	-172.4635
522.000000	77.956	-172.0297
530.000000	77.870	-171.6348
538.000000	77.805	-171.1935
545.000000	77.762	-170.8795
552.000000	77.696	-170.3839
560.000000	77.642	-169.9069
570.000000	77.566	-169.3605
580.000000	77.474	-168.7543
590.000000	77.425	-168.0762
600.000000	77.356	-167.4342
608.000000	77.294	-166.9073
615.000000	77.246	-166.4579
622.000000	77.209	-165.9701
630.000000	77.171	-165.4878
640.000000	77.106	-164.8030
650.000000	77.051	-164.2432
660.000000	76.985	-163.4734
670.000000	76.926	-162.7253
680.000000	76.882	-161.9388
690.000000	76.832	-161.2222
700.000000	76.773	-160.6231
710.000000	76.718	-159.8237
720.000000	76.679	-158.8112
730.000000	76.657	-158.1815
740.000000	76.608	-157.3826
750.000000	76.568	-156.5915
762.000000	76.525	-155.7392
775.000000	76.516	-154.6802
788.000000	76.466	-153.6619
800.000000	76.444	-152.8355
812.000000	76.422	-151.7780
825.000000	76.407	-150.6762
838.000000	76.393	-149.6861
850.000000	76.384	-148.7846
862.000000	76.380	-147.7339
875.000000	76.382	-146.8284
885.000000	76.389	-146.0096
900.000000	76.379	-144.8142
912.000000	76.416	-143.9285
925.000000	76.444	-143.1404
938.000000	76.431	-141.9981
950.000000	76.503	-141.0287
962.000000	76.524	-139.9657
975.000000	76.547	-139.3463
988.000000	76.618	-138.5325
1000.000000	76.672	-137.4965
1015.000000	76.680	-136.9131
1030.000000	76.726	-135.8252
1044.000000	76.812	-134.9727
1060.000000	76.856	-134.0815
1075.000000	76.917	-133.2720
1090.000000	76.999	-132.3976
1106.000000	77.065	-131.5419
1120.000000	77.134	-131.0107
1138.000000	77.216	-129.9196
1150.000000	77.273	-129.5241
1172.000000	77.365	-128.5641
1180.000000	77.420	-128.1649
1206.000000	77.544	-127.0600
1220.000000	77.578	-126.6142
1241.000000	77.698	-125.5591
1250.000000	77.729	-125.2452
1265.000000	77.787	-124.7309
1280.000000	77.853	-124.1652
1315.000000	78.040	-122.8692
1320.000000	78.059	-122.6695
1340.000000	78.156	-122.1765
1360.000000	78.272	-121.3930
1380.000000	78.351	-120.8513
1400.000000	78.477	-120.1483
1430.000000	78.640	-119.1973
1450.000000	78.744	-118.5375
1475.000000	78.892	-117.8307
1500.000000	79.052	-117.2318
1525.000000	79.209	-116.6434
1550.000000	79.371	-116.2511
1575.000000	79.549	-115.6213
1600.000000	79.715	-115.1698
1625.000000	79.918	-114.9689
1650.000000	80.072	-114.7338
1675.000000	80.262	-114.5312
1700.000000	80.443	-114.4134
1725.000000	80.647	-114.5170
1750.000000	80.831	-114.4711
1775.000000	81.030	-114.7938
1800.000000	81.211	-115.0693
1825.000000	81.401	-115.5228
1850.000000	81.551	-116.1114
1875.000000	81.744	-116.7021
1900.000000	81.895	-117.3834
1925.000000	82.046	-118.3342
1950.000000	82.173	-119.3338
1975.000000	82.310	-120.3161
2000.000000	82.378	-121.2812
2030.000000	82.500	-122.7701
2060.000000	82.565	-124.3464
2090.000000	82.589	-125.8572
2120.000000	82.616	-127.4602
2140.000000	82.569	-128.3092
2180.000000	82.545	-130.1563
2200.000000	82.497	-131.0221
2240.000000	82.375	-132.7634
2270.000000	82.282	-133.7747
2300.000000	82.143	-134.8083
2330.000000	82.023	-135.6020
2360.000000	81.893	-136.4640
2400.000000	81.695	-137.2034
2430.000000	81.549	-137.5822
2470.000000	81.389	-138.1124
2500.000000	81.261	-138.1642
2540.000000	81.082	-138.1961
2580.000000	80.916	-138.2877
2620.000000	80.772	-138.2609
2650.000000	80.674	-138.0860
2690.000000	80.554	-137.7542
2720.000000	80.482	-137.6591
2760.000000	80.382	-137.2026
2800.000000	80.326	-136.9808
2850.000000	80.251	-136.3212
2900.000000	80.206	-135.9330
2950.000000	80.171	-135.6790
3000.000000	80.156	-135.1174
3040.000000	80.118	-135.0763
3070.000000	80.133	-134.8883
3110.000000	80.141	-134.6901
3150.000000	80.126	-134.6040
3200.000000	80.174	-134.3325
3250.000000	80.204	-134.2294
3300.000000	80.244	-134.0874
3350.000000	80.293	-133.9265
3400.000000	80.370	-133.9387
3450.000000	80.457	-133.9577
3500.000000	80.570	-134.3392
3550.000000	80.684	-134.6595
3600.000000	80.802	-135.3829
3650.000000	80.882	-136.2708
3700.000000	80.972	-137.3259
3750.000000	80.990	-138.3064
3820.000000	80.984	-139.8180
3870.000000	80.937	-140.7953
3950.000000	80.831	-141.3545
4000.000000	80.758	-141.6601
4060.000000	80.744	-141.5374
4120.000000	80.800	-140.9845
4180.000000	80.970	-140.7174
4250.000000	81.293	-140.9915
4310.000000	81.615	-141.8293
4370.000000	81.957	-143.7025
4440.000000	82.258	-147.0114
4500.000000	82.387	-150.3765
4550.000000	82.395	-153.7028
4620.000000	82.176	-157.7724
4680.000000	81.889	-160.7230
4750.000000	81.450	-163.0762
4820.000000	80.996	-164.5489
4870.000000	80.666	-164.9062
4940.000000	80.301	-164.8570
5000.000000	80.020	-164.4680
5080.000000	79.705	-163.7250
5150.000000	79.557	-162.5528
5220.000000	79.512	-161.5718
5300.000000	79.459	-160.2469
5380.000000	79.550	-159.2925
5450.000000	79.663	-159.0941
5520.000000	79.743	-158.7275
5600.000000	79.883	-158.5422
5700.000000	80.047	-158.3714
5800.000000	80.277	-157.8944
5900.000000	80.598	-157.8967
6000.000000	81.078	-158.8096
6080.000000	81.430	-159.9270
6150.000000	81.810	-161.9731
6220.000000	82.102	-164.4954
6300.000000	82.373	-168.4826
6400.000000	82.516	-173.9239
6500.000000	82.276	-179.7367
6600.000000	81.826	175.1607
6700.000000	81.112	171.2201
6800.000000	80.345	169.8348
6900.000000	79.629	169.3237
7000.000000	79.006	170.3632
7100.000000	78.588	171.6823
7200.000000	78.171	173.4607
7300.000000	77.824	175.4490
7400.000000	77.533	177.6374
7500.000000	77.347	179.8878
7620.000000	77.204	-177.2308
7750.000000	77.214	-174.0085
7880.000000	77.378	-170.3233
8000.000000	77.654	-168.7764
8120.000000	77.918	-166.6010
8250.000000	78.312	-165.9042
8380.000000	78.531	-164.8556
8500.000000	78.860	-164.2247
8620.000000	79.179	-163.2318
8750.000000	79.701	-162.9378
8850.000000	80.161	-162.9318
9000.000000	80.926	-165.0454
9120.000000	81.486	-168.1248
9250.000000	81.928	-172.8400
9380.000000	82.135	-178.8491
9500.000000	81.998	175.4920
9620.000000	81.678	170.4139
9750.000000	81.154	166.1953
9880.000000	80.514	163.1769
10000.000000	79.947	161.6651
10150.000000	79.212	160.9839
10300.000000	78.619	160.8543
10440.000000	78.143	161.2808
10600.000000	77.735	162.5166
10750.000000	77.333	163.7603
10900.000000	77.053	164.5144
11060.000000	76.861	165.6487
11200.000000	76.688	166.5048
11380.000000	76.536	167.3492
11500.000000	76.407	167.3680
11720.000000	76.233	167.4623
11800.000000	76.094	167.3279
12060.000000	75.644	166.3410
12200.000000	75.465	166.8360
12410.000000	75.192	166.6205
12500.000000	75.027	166.4034
12650.000000	74.804	165.9008
12800.000000	74.385	165.4279
13150.000000	73.442	163.9702
13200.000000	73.327	164.3257
13400.000000	72.749	164.4439
13600.000000	71.909	165.9622
13800.000000	71.365	167.3701
14000.000000	70.577	168.8902
14300.000000	69.923	174.2483
14500.000000	69.570	178.8146
14750.000000	69.652	-177.9105
15000.000000	69.620	-173.6458
15250.000000	69.992	-172.3230
15500.000000	70.611	-175.0765
15750.000000	70.635	-179.9775
16000.000000	70.116	175.3550
16250.000000	69.261	168.5929
16500.000000	68.270	167.3502
16750.000000	67.288	165.3867
17000.000000	66.543	166.0994
17250.000000	65.421	170.8804
17500.000000	64.669	172.0245
17750.000000	64.593	176.4215
18000.000000	64.215	-177.4246
18250.000000	64.350	-175.6713
18500.000000	64.635	-174.2260
18750.000000	64.642	-171.5858
19000.000000	65.230	-174.1566
19250.000000	65.715	-175.9917
19500.000000	65.943	177.9579
19750.000000	66.141	168.6246
