* Measurement data measured by REW V5.20.13
* Source: USB Sound Device        , MICROPHONE, R, volume: 0.697
* Format: 256k Log Swept Sine, 1 sweep at -6.0 dBFS with no timing reference
* Dated: Dec 4, 2023 4:31:14 AM
* REW Settings:
*  C-weighting compensation: Off
*  Target level: 75.0 dB
* Note: @iemworld / Campfire Audio Andromeda 2020 / XDUOO XD-05 PRO # AKM4499 - MUSES 01 / www.iem-world.com; 
* Measurement: Andronida OR-S L
* Smoothing: None
* Frequency Step: 1/48 octave
* Start Frequency: 20.000 Hz
*
* Freq(Hz)	SPL(dB)	Phase(degrees)
20.000000	82.255	19.4509
20.299999	82.218	18.5240
20.600000	82.202	17.5529
20.900000	82.208	16.6063
21.200001	82.241	15.7299
21.400000	82.278	15.1802
21.799999	82.383	14.1466
22.000000	82.444	13.6672
22.400000	82.564	12.8342
22.700001	82.648	12.3950
23.000000	82.730	12.1649
23.299999	82.815	12.1137
23.600000	82.904	12.1722
24.000000	83.019	12.3091
24.299999	83.088	12.4177
24.700001	83.146	12.6060
25.000000	83.165	12.8193
25.400000	83.171	13.1940
25.799999	83.166	13.5681
26.200001	83.148	13.8261
26.500000	83.121	13.9238
26.900000	83.069	13.9529
27.200001	83.022	13.9159
27.600000	82.961	13.7765
28.000000	82.905	13.4981
28.500000	82.842	12.9646
29.000000	82.794	12.3319
29.500000	82.775	11.6645
30.000000	82.788	10.9494
30.400000	82.809	10.3790
30.700001	82.828	10.0040
31.100000	82.861	9.6285
31.500000	82.908	9.3839
32.000000	82.983	9.1612
32.500000	83.054	8.9603
33.000000	83.103	8.8388
33.500000	83.131	8.8540
34.000000	83.151	8.9483
34.500000	83.160	9.0270
35.000000	83.155	9.0593
35.500000	83.138	9.0382
36.000000	83.114	8.9426
36.500000	83.083	8.7780
37.000000	83.052	8.5851
37.500000	83.031	8.3694
38.200001	83.023	7.9660
38.700001	83.023	7.6303
39.500000	83.033	7.1731
40.000000	83.050	6.9306
40.599998	83.070	6.6681
41.200001	83.085	6.4937
41.799999	83.101	6.3913
42.500000	83.117	6.2618
43.099998	83.119	6.1551
43.700001	83.117	6.0668
44.400002	83.115	5.9149
45.000000	83.108	5.7461
45.500000	83.103	5.6127
46.200001	83.101	5.4155
46.799999	83.100	5.2284
47.500000	83.101	5.0401
48.200001	83.106	4.8654
48.700001	83.107	4.7376
49.400002	83.104	4.5896
50.000000	83.102	4.4792
50.799999	83.096	4.3053
51.500000	83.087	4.1503
52.200001	83.082	3.9782
53.000000	83.078	3.7435
53.799999	83.076	3.5139
54.500000	83.076	3.3316
55.200001	83.078	3.2127
56.000000	83.091	3.1196
57.000000	83.100	2.9207
58.000000	83.085	2.8413
59.000000	83.087	2.7681
60.000000	83.076	2.4610
60.799999	83.049	2.2540
61.500000	83.036	2.1270
62.200001	83.032	1.9561
63.000000	83.025	1.7658
64.000000	83.027	1.6065
65.000000	83.027	1.4172
66.000000	83.016	1.3193
67.000000	83.008	1.2453
68.000000	82.996	1.1323
69.000000	82.987	0.9889
70.000000	82.980	0.7741
71.000000	82.965	0.5503
72.000000	82.956	0.4227
73.000000	82.954	0.2772
74.000000	82.946	0.1631
75.000000	82.940	0.0386
76.199997	82.922	-0.1239
77.500000	82.907	-0.2677
78.800003	82.893	-0.4541
80.000000	82.885	-0.5676
81.199997	82.876	-0.7383
82.500000	82.855	-0.8826
83.800003	82.837	-1.0152
85.000000	82.821	-1.1542
86.199997	82.810	-1.3396
87.500000	82.788	-1.4678
88.500000	82.784	-1.5573
90.000000	82.761	-1.6773
91.199997	82.745	-1.8000
92.500000	82.719	-1.8683
93.800003	82.714	-2.0304
95.000000	82.692	-2.1894
96.199997	82.680	-2.2737
97.500000	82.666	-2.3349
98.800003	82.658	-2.4743
100.000000	82.624	-2.5592
101.500000	82.615	-2.6670
103.000000	82.581	-2.8238
104.400002	82.569	-2.9400
106.000000	82.546	-3.0450
107.500000	82.517	-3.1800
109.000000	82.492	-3.1901
110.599998	82.466	-3.3749
112.000000	82.446	-3.4207
113.800003	82.422	-3.5735
115.000000	82.399	-3.6559
117.199997	82.368	-3.7669
118.000000	82.355	-3.7905
120.599998	82.304	-3.9045
122.000000	82.279	-3.9671
124.099998	82.252	-4.0310
125.000000	82.228	-4.1255
126.500000	82.200	-4.1959
128.000000	82.165	-4.2496
131.500000	82.109	-4.3520
132.000000	82.100	-4.3797
134.000000	82.053	-4.4586
136.000000	82.009	-4.4451
138.000000	81.972	-4.4792
140.000000	81.924	-4.5313
143.000000	81.851	-4.4775
145.000000	81.801	-4.4298
147.500000	81.733	-4.2853
150.000000	81.679	-4.1002
152.500000	81.602	-3.8450
155.000000	81.536	-3.4132
157.500000	81.480	-2.8189
160.000000	81.452	-2.1119
162.500000	81.461	-1.2760
165.000000	81.536	-0.4469
167.500000	81.683	0.0878
170.000000	81.825	-0.0251
172.500000	81.946	-0.4738
175.000000	82.008	-1.2190
177.500000	82.023	-1.9304
180.000000	82.014	-2.5586
182.500000	81.992	-3.0710
185.000000	81.951	-3.4444
187.500000	81.890	-3.7729
190.000000	81.847	-4.0260
192.500000	81.795	-4.2376
195.000000	81.747	-4.4098
197.500000	81.692	-4.5801
200.000000	81.652	-4.6753
203.000000	81.588	-4.7435
206.000000	81.544	-4.7657
209.000000	81.482	-4.8997
212.000000	81.428	-4.8613
214.000000	81.394	-4.8680
218.000000	81.333	-4.9094
220.000000	81.298	-4.8630
224.000000	81.227	-4.8799
227.000000	81.190	-4.8862
230.000000	81.136	-4.8920
233.000000	81.089	-4.8128
236.000000	81.039	-4.7417
240.000000	80.973	-4.6184
243.000000	80.930	-4.5886
247.000000	80.873	-4.5539
250.000000	80.835	-4.3612
254.000000	80.754	-4.1856
258.000000	80.711	-3.9569
262.000000	80.660	-3.7570
265.000000	80.611	-3.5666
269.000000	80.575	-3.3761
272.000000	80.543	-3.1801
276.000000	80.491	-2.8773
280.000000	80.464	-2.6610
285.000000	80.412	-2.2387
290.000000	80.394	-1.7902
295.000000	80.400	-1.2890
300.000000	80.454	-1.3325
304.000000	80.452	-1.3567
307.000000	80.457	-1.5053
311.000000	80.421	-1.7754
315.000000	80.387	-1.9045
320.000000	80.329	-2.0772
325.000000	80.258	-2.0774
330.000000	80.190	-2.0053
335.000000	80.132	-1.9433
340.000000	80.069	-1.8773
345.000000	79.997	-1.6519
350.000000	79.954	-1.5988
355.000000	79.893	-1.3426
360.000000	79.844	-1.2034
365.000000	79.780	-1.0183
370.000000	79.725	-0.7952
375.000000	79.664	-0.6163
382.000000	79.620	-0.3358
387.000000	79.546	-0.1977
395.000000	79.465	0.2217
400.000000	79.421	0.2596
406.000000	79.356	0.7707
412.000000	79.298	0.9207
418.000000	79.236	1.2396
425.000000	79.172	1.5595
431.000000	79.120	1.8336
437.000000	79.067	2.0765
444.000000	79.012	2.4947
450.000000	78.939	2.7854
455.000000	78.900	3.0676
462.000000	78.843	3.3795
468.000000	78.803	3.8290
475.000000	78.717	4.1103
482.000000	78.666	4.4689
487.000000	78.631	4.7734
494.000000	78.572	5.1638
500.000000	78.509	5.3955
508.000000	78.467	6.0003
515.000000	78.405	6.4243
522.000000	78.354	6.8198
530.000000	78.281	7.3560
538.000000	78.228	7.7151
545.000000	78.187	8.2070
552.000000	78.117	8.5307
560.000000	78.067	9.0749
570.000000	78.002	9.8003
580.000000	77.927	10.4256
590.000000	77.868	11.0783
600.000000	77.784	11.7130
608.000000	77.755	12.4471
615.000000	77.722	12.8223
622.000000	77.672	13.2994
630.000000	77.624	13.8912
640.000000	77.583	14.4758
650.000000	77.525	15.2653
660.000000	77.482	16.0384
670.000000	77.447	16.8802
680.000000	77.385	17.5182
690.000000	77.335	18.3266
700.000000	77.295	19.0781
710.000000	77.270	19.7846
720.000000	77.209	20.5489
730.000000	77.205	21.3359
740.000000	77.136	22.2225
750.000000	77.137	22.9805
762.000000	77.111	23.9950
775.000000	77.090	24.9478
788.000000	77.053	26.0523
800.000000	77.060	27.1827
812.000000	77.041	28.1201
825.000000	77.032	29.0494
838.000000	77.011	29.9302
850.000000	77.017	31.1969
862.000000	77.046	32.1042
875.000000	77.073	33.1640
885.000000	77.080	33.8148
900.000000	77.106	35.0384
912.000000	77.149	35.7810
925.000000	77.169	36.9119
938.000000	77.222	37.7186
950.000000	77.283	38.6265
962.000000	77.303	39.4715
975.000000	77.358	40.3491
988.000000	77.419	41.1625
1000.000000	77.504	42.1507
1015.000000	77.540	42.7932
1030.000000	77.643	43.6025
1044.000000	77.705	44.5906
1060.000000	77.817	45.3613
1075.000000	77.865	45.9976
1090.000000	77.937	46.6785
1106.000000	78.048	47.4011
1120.000000	78.118	47.8139
1138.000000	78.226	48.8143
1150.000000	78.269	49.2009
1172.000000	78.404	50.0673
1180.000000	78.457	50.3855
1206.000000	78.600	51.1256
1220.000000	78.679	51.6524
1241.000000	78.803	52.3321
1250.000000	78.843	52.6246
1265.000000	78.936	53.0047
1280.000000	79.001	53.3160
1315.000000	79.203	54.2883
1320.000000	79.224	54.4920
1340.000000	79.332	54.8995
1360.000000	79.443	55.4329
1380.000000	79.561	55.8266
1400.000000	79.675	56.0969
1430.000000	79.849	56.8247
1450.000000	79.969	57.2184
1475.000000	80.105	57.5474
1500.000000	80.297	57.8877
1525.000000	80.452	58.1184
1550.000000	80.621	58.4268
1575.000000	80.800	58.6334
1600.000000	80.966	58.7190
1625.000000	81.137	58.6525
1650.000000	81.313	58.7074
1675.000000	81.504	58.5963
1700.000000	81.696	58.2307
1725.000000	81.873	58.0487
1750.000000	82.039	57.5292
1775.000000	82.211	56.9451
1800.000000	82.383	56.2731
1825.000000	82.546	55.4279
1850.000000	82.697	54.4488
1875.000000	82.870	53.5531
1900.000000	82.981	52.4226
1925.000000	83.088	51.2687
1950.000000	83.190	49.9372
1975.000000	83.274	48.5541
2000.000000	83.349	47.2229
2030.000000	83.353	45.4557
2060.000000	83.363	43.6033
2090.000000	83.346	41.8871
2120.000000	83.294	40.2539
2140.000000	83.235	39.0766
2180.000000	83.107	37.0782
2200.000000	83.026	36.0844
2240.000000	82.823	34.0880
2270.000000	82.666	32.9707
2300.000000	82.488	31.9002
2330.000000	82.305	30.9846
2360.000000	82.126	30.2302
2400.000000	81.885	29.3670
2430.000000	81.690	28.8621
2470.000000	81.438	28.4966
2500.000000	81.242	28.1760
2540.000000	81.022	27.9969
2580.000000	80.784	27.8520
2620.000000	80.630	28.0248
2650.000000	80.454	28.1973
2690.000000	80.286	28.1500
2720.000000	80.155	28.5298
2760.000000	80.019	28.7514
2800.000000	79.882	28.9370
2850.000000	79.747	29.3299
2900.000000	79.567	29.5972
2950.000000	79.464	30.2062
3000.000000	79.298	30.5109
3040.000000	79.272	30.6456
3070.000000	79.196	30.7840
3110.000000	79.114	31.2598
3150.000000	79.042	31.4349
3200.000000	78.951	31.8165
3250.000000	78.879	32.2837
3300.000000	78.805	32.8601
3350.000000	78.757	33.3154
3400.000000	78.726	33.8674
3450.000000	78.731	34.4763
3500.000000	78.718	34.8370
3550.000000	78.768	35.2339
3600.000000	78.805	35.5817
3650.000000	78.865	35.4513
3700.000000	78.940	35.3426
3750.000000	78.949	34.9771
3820.000000	78.953	34.6350
3870.000000	78.928	34.4752
3950.000000	78.895	34.4627
4000.000000	78.953	34.8281
4060.000000	78.975	35.4117
4120.000000	79.075	36.6581
4180.000000	79.367	36.8497
4250.000000	79.746	36.7952
4310.000000	80.142	35.9546
4370.000000	80.552	34.2453
4440.000000	80.944	30.8252
4500.000000	81.202	27.1554
4550.000000	81.286	23.5115
4620.000000	81.206	18.4015
4680.000000	80.964	14.0955
4750.000000	80.545	9.9432
4820.000000	79.983	6.8040
4870.000000	79.555	5.0984
4940.000000	78.913	3.8551
5000.000000	78.381	3.3645
5080.000000	77.764	3.4783
5150.000000	77.305	4.0545
5220.000000	76.818	5.0196
5300.000000	76.401	6.4393
5380.000000	76.066	8.0893
5450.000000	75.736	9.5897
5520.000000	75.458	10.7298
5600.000000	75.169	13.0384
5700.000000	74.796	15.6121
5800.000000	74.574	19.6389
5900.000000	74.467	23.3892
6000.000000	74.437	27.2811
6080.000000	74.574	31.0270
6150.000000	74.718	33.5576
6220.000000	74.973	36.5300
6300.000000	75.270	39.0273
6400.000000	75.766	42.2742
6500.000000	76.240	43.7885
6600.000000	76.710	44.5816
6700.000000	77.017	45.7601
6800.000000	77.287	47.9114
6900.000000	77.787	50.7235
7000.000000	78.442	53.2795
7100.000000	79.246	54.7924
7200.000000	80.240	55.1366
7300.000000	81.293	54.2281
7400.000000	82.303	51.2337
7500.000000	83.160	46.5553
7620.000000	83.886	39.1584
7750.000000	84.184	30.5767
7880.000000	83.975	23.1519
8000.000000	83.619	18.4134
8120.000000	83.296	15.3270
8250.000000	82.999	12.5525
8380.000000	82.638	9.7005
8500.000000	82.273	7.8837
8620.000000	81.884	7.2060
8750.000000	81.511	7.7587
8850.000000	81.373	8.8477
9000.000000	81.264	10.2126
9120.000000	81.368	11.5299
9250.000000	81.621	12.6744
9380.000000	82.034	13.4962
9500.000000	82.500	12.7346
9620.000000	83.050	11.5571
9750.000000	83.681	8.2129
9880.000000	84.206	3.0063
10000.000000	84.524	-3.2833
10150.000000	84.518	-12.6232
10300.000000	83.957	-21.4562
10440.000000	83.029	-28.2215
10600.000000	81.807	-33.1503
10750.000000	80.602	-35.5082
10900.000000	79.495	-36.1158
11060.000000	78.414	-35.4826
11200.000000	77.613	-33.6816
11380.000000	76.641	-31.1620
11500.000000	76.116	-29.3578
11720.000000	75.262	-25.0240
11800.000000	74.999	-23.4774
12060.000000	74.305	-18.1744
12200.000000	73.959	-14.6465
12410.000000	73.564	-10.4167
12500.000000	73.532	-8.4441
12650.000000	73.364	-5.8541
12800.000000	73.317	-2.4072
13150.000000	73.430	4.0431
13200.000000	73.382	4.7568
13400.000000	73.554	7.0569
13600.000000	73.942	9.1469
13800.000000	74.426	9.3047
14000.000000	74.741	8.3744
14300.000000	75.022	3.6717
14500.000000	74.989	-0.8470
14750.000000	74.327	-5.5665
15000.000000	73.517	-10.1945
15250.000000	72.620	-9.4458
15500.000000	71.551	-7.3986
15750.000000	70.904	-6.3269
16000.000000	70.614	-3.5003
16250.000000	70.583	-3.9863
16500.000000	70.025	-5.8063
16750.000000	69.506	-1.2794
17000.000000	69.114	1.9059
17250.000000	69.293	5.0156
17500.000000	69.667	8.4485
17750.000000	69.891	7.4843
18000.000000	70.317	6.2266
18250.000000	70.999	5.4665
18500.000000	71.574	-1.0576
18750.000000	71.780	-7.6343
19000.000000	71.492	-16.3954
19250.000000	70.776	-22.5902
19500.000000	69.965	-26.6914
19750.000000	69.301	-31.6732
