* Measurement data measured by REW V5.20.13
* Source: USB Sound Device        , MICROPHONE, R, volume: 0.697
* Format: 256k Log Swept Sine, 1 sweep at -6.0 dBFS with no timing reference
* Dated: Dec 4, 2023 4:08:36 AM
* REW Settings:
*  C-weighting compensation: Off
*  Target level: 75.0 dB
* Note: @iemworld / Campfire Audio Andromeda 2020 / XDUOO XD-05 PRO # AKM4499 - MUSES 01 / www.iem-world.com; 
* Measurement: Andronida OR-S 75 OHM R
* Smoothing: None
* Frequency Step: 1/48 octave
* Start Frequency: 20.000 Hz
*
* Freq(Hz)	SPL(dB)	Phase(degrees)
20.000000	78.431	-167.2232
20.299999	78.509	-166.2982
20.600000	78.563	-165.3522
20.900000	78.589	-164.4862
21.200001	78.576	-163.7480
21.400000	78.541	-163.2975
21.799999	78.423	-162.4327
22.000000	78.350	-162.0140
22.400000	78.199	-161.2888
22.700001	78.091	-160.9979
23.000000	77.980	-161.0385
23.299999	77.852	-161.3772
23.600000	77.710	-161.9061
24.000000	77.517	-162.7277
24.299999	77.402	-163.3742
24.700001	77.314	-164.3549
25.000000	77.297	-165.2549
25.400000	77.316	-166.6479
25.799999	77.358	-168.0303
26.200001	77.426	-169.1453
26.500000	77.500	-169.7580
26.900000	77.631	-170.3382
27.200001	77.741	-170.6501
27.600000	77.880	-170.9076
28.000000	77.999	-170.9264
28.500000	78.122	-170.6135
29.000000	78.219	-170.1169
29.500000	78.268	-169.5878
30.000000	78.263	-169.0071
30.400000	78.234	-168.5170
30.700001	78.206	-168.1928
31.100000	78.158	-167.9042
31.500000	78.095	-167.7985
32.000000	77.995	-167.8522
32.500000	77.898	-168.0538
33.000000	77.821	-168.4391
33.500000	77.767	-169.0022
34.000000	77.736	-169.6329
34.500000	77.736	-170.2603
35.000000	77.762	-170.8797
35.500000	77.795	-171.4004
36.000000	77.832	-171.6755
36.500000	77.889	-171.7157
37.000000	77.963	-171.7041
37.500000	78.024	-171.7315
38.200001	78.062	-171.6707
38.700001	78.071	-171.5222
39.500000	78.069	-171.4103
40.000000	78.043	-171.4444
40.599998	77.996	-171.5050
41.200001	77.948	-171.5952
41.799999	77.906	-171.7039
42.500000	77.881	-171.8071
43.099998	77.886	-171.9428
43.700001	77.901	-172.1267
44.400002	77.929	-172.3400
45.000000	77.953	-172.5891
45.500000	77.953	-172.8183
46.200001	77.924	-172.9260
46.799999	77.915	-172.8084
47.500000	77.931	-172.7819
48.200001	77.935	-172.9205
48.700001	77.932	-173.0037
49.400002	77.935	-173.0990
50.000000	77.942	-173.2017
50.799999	77.954	-173.3021
51.500000	77.968	-173.3661
52.200001	77.976	-173.4309
53.000000	77.970	-173.4380
53.799999	77.963	-173.3962
54.500000	77.955	-173.4493
55.200001	77.928	-173.5819
56.000000	77.893	-173.6265
57.000000	77.906	-173.8031
58.000000	77.901	-174.3185
59.000000	77.887	-174.4394
60.000000	77.919	-174.4835
60.799999	77.927	-174.5301
61.500000	77.921	-174.4454
62.200001	77.918	-174.2961
63.000000	77.915	-174.2298
64.000000	77.882	-174.2551
65.000000	77.857	-174.2447
66.000000	77.844	-174.3966
67.000000	77.840	-174.4908
68.000000	77.862	-174.5889
69.000000	77.881	-174.7215
70.000000	77.879	-174.7980
71.000000	77.864	-174.7316
72.000000	77.850	-174.6669
73.000000	77.831	-174.6502
74.000000	77.810	-174.6418
75.000000	77.810	-174.6041
76.199997	77.823	-174.8106
77.500000	77.810	-174.9340
78.800003	77.801	-175.0431
80.000000	77.788	-174.9871
81.199997	77.793	-175.0764
82.500000	77.777	-175.1203
83.800003	77.771	-175.1108
85.000000	77.770	-175.0977
86.199997	77.756	-175.0783
87.500000	77.752	-175.1240
88.500000	77.731	-175.1606
90.000000	77.727	-175.2142
91.199997	77.720	-175.2768
92.500000	77.709	-175.3003
93.800003	77.706	-175.2255
95.000000	77.699	-175.2263
96.199997	77.685	-175.2730
97.500000	77.661	-175.1983
98.800003	77.682	-175.2376
100.000000	77.660	-175.3188
101.500000	77.667	-175.2612
103.000000	77.633	-175.2804
104.400002	77.615	-175.2149
106.000000	77.598	-175.1781
107.500000	77.607	-175.2818
109.000000	77.580	-175.3989
110.599998	77.572	-175.2754
112.000000	77.557	-175.1949
113.800003	77.553	-175.2000
115.000000	77.530	-175.2210
117.199997	77.484	-175.1934
118.000000	77.490	-175.1197
120.599998	77.464	-175.0893
122.000000	77.468	-175.2351
124.099998	77.463	-175.1908
125.000000	77.436	-175.1111
126.500000	77.429	-175.0234
128.000000	77.411	-174.9139
131.500000	77.370	-175.0008
132.000000	77.356	-174.9694
134.000000	77.341	-174.9429
136.000000	77.312	-174.7374
138.000000	77.269	-174.7670
140.000000	77.220	-174.7030
143.000000	77.214	-174.5269
145.000000	77.173	-174.2721
147.500000	77.106	-173.9816
150.000000	77.060	-173.6524
152.500000	77.009	-173.2097
155.000000	76.954	-172.7717
157.500000	76.918	-171.9485
160.000000	76.914	-171.3002
162.500000	76.939	-170.2701
165.000000	77.021	-169.2725
167.500000	77.150	-168.6333
170.000000	77.338	-168.5676
172.500000	77.475	-168.7113
175.000000	77.586	-169.2414
177.500000	77.644	-169.9520
180.000000	77.643	-170.6557
182.500000	77.634	-171.0178
185.000000	77.603	-171.4085
187.500000	77.559	-171.7112
190.000000	77.536	-171.9645
192.500000	77.490	-171.9939
195.000000	77.454	-172.0256
197.500000	77.429	-172.1172
200.000000	77.385	-172.0647
203.000000	77.357	-172.0859
206.000000	77.315	-171.9643
209.000000	77.274	-171.9967
212.000000	77.244	-171.9459
214.000000	77.229	-171.9415
218.000000	77.176	-171.7292
220.000000	77.189	-171.7246
224.000000	77.124	-171.4928
227.000000	77.080	-171.3762
230.000000	77.054	-171.2647
233.000000	77.045	-171.0558
236.000000	77.004	-170.9475
240.000000	76.963	-170.8860
243.000000	76.931	-170.6442
247.000000	76.913	-170.3393
250.000000	76.873	-170.2006
254.000000	76.823	-169.9034
258.000000	76.786	-169.4624
262.000000	76.754	-169.2433
265.000000	76.726	-168.9070
269.000000	76.694	-168.4099
272.000000	76.685	-168.0485
276.000000	76.680	-167.8085
280.000000	76.681	-167.3076
285.000000	76.676	-166.7460
290.000000	76.717	-166.0267
295.000000	76.808	-165.5569
300.000000	76.866	-165.7753
304.000000	76.894	-165.8891
307.000000	76.874	-166.0395
311.000000	76.867	-166.2928
315.000000	76.833	-166.1418
320.000000	76.782	-166.1344
325.000000	76.741	-165.8968
330.000000	76.712	-165.8645
335.000000	76.667	-165.7121
340.000000	76.632	-165.5543
345.000000	76.611	-165.1815
350.000000	76.549	-164.8525
355.000000	76.529	-164.7706
360.000000	76.512	-164.4567
365.000000	76.476	-164.1242
370.000000	76.457	-163.7714
375.000000	76.425	-163.4577
382.000000	76.383	-163.1309
387.000000	76.357	-162.8621
395.000000	76.319	-162.3167
400.000000	76.304	-161.9990
406.000000	76.260	-161.7246
412.000000	76.224	-161.2521
418.000000	76.196	-161.0461
425.000000	76.178	-160.4164
431.000000	76.149	-159.9809
437.000000	76.115	-159.6520
444.000000	76.113	-159.2582
450.000000	76.080	-158.8782
455.000000	76.038	-158.5795
462.000000	76.022	-157.9537
468.000000	76.006	-157.5295
475.000000	75.976	-156.9245
482.000000	75.950	-156.6197
487.000000	75.916	-156.2938
494.000000	75.896	-155.8655
500.000000	75.887	-155.4245
508.000000	75.861	-154.7689
515.000000	75.810	-154.3132
522.000000	75.813	-153.7793
530.000000	75.780	-153.2031
538.000000	75.772	-152.5223
545.000000	75.749	-152.1147
552.000000	75.728	-151.5238
560.000000	75.714	-150.9854
570.000000	75.680	-150.2742
580.000000	75.643	-149.4243
590.000000	75.633	-148.7625
600.000000	75.622	-147.9681
608.000000	75.593	-147.3011
615.000000	75.604	-146.5625
622.000000	75.590	-146.2232
630.000000	75.592	-145.4986
640.000000	75.584	-144.9317
650.000000	75.573	-143.8281
660.000000	75.541	-143.1375
670.000000	75.560	-142.3802
680.000000	75.556	-141.4151
690.000000	75.568	-140.7237
700.000000	75.559	-139.9061
710.000000	75.559	-139.0609
720.000000	75.574	-138.1275
730.000000	75.562	-137.2886
740.000000	75.585	-136.5439
750.000000	75.580	-135.6197
762.000000	75.629	-134.7909
775.000000	75.633	-133.7516
788.000000	75.688	-132.5008
800.000000	75.753	-131.3825
812.000000	75.768	-130.3193
825.000000	75.803	-129.3524
838.000000	75.876	-128.4078
850.000000	75.920	-127.3055
862.000000	76.005	-126.4605
875.000000	76.056	-125.3555
885.000000	76.119	-124.5769
900.000000	76.227	-123.5651
912.000000	76.277	-122.4371
925.000000	76.359	-121.5914
938.000000	76.510	-120.7186
950.000000	76.545	-119.8531
962.000000	76.657	-118.9581
975.000000	76.763	-118.2001
988.000000	76.843	-117.3801
1000.000000	76.944	-116.4949
1015.000000	77.093	-115.8317
1030.000000	77.208	-115.0629
1044.000000	77.345	-114.1914
1060.000000	77.481	-113.4732
1075.000000	77.629	-112.8481
1090.000000	77.799	-112.0583
1106.000000	77.916	-111.4311
1120.000000	78.068	-110.9504
1138.000000	78.222	-110.3585
1150.000000	78.336	-109.8924
1172.000000	78.519	-109.3780
1180.000000	78.604	-109.2162
1206.000000	78.841	-108.5307
1220.000000	78.963	-108.1411
1241.000000	79.138	-107.8995
1250.000000	79.228	-107.6408
1265.000000	79.349	-107.4157
1280.000000	79.484	-107.2069
1315.000000	79.792	-106.5425
1320.000000	79.818	-106.5623
1340.000000	80.004	-106.5643
1360.000000	80.171	-106.2668
1380.000000	80.358	-106.1326
1400.000000	80.513	-106.0485
1430.000000	80.764	-106.1199
1450.000000	80.930	-106.0530
1475.000000	81.157	-106.1517
1500.000000	81.343	-106.3820
1525.000000	81.565	-106.5724
1550.000000	81.765	-106.9355
1575.000000	81.969	-107.4918
1600.000000	82.158	-107.8892
1625.000000	82.341	-108.5709
1650.000000	82.528	-109.2684
1675.000000	82.711	-110.0390
1700.000000	82.876	-110.9750
1725.000000	83.018	-111.9508
1750.000000	83.153	-112.9588
1775.000000	83.284	-114.1051
1800.000000	83.390	-115.3141
1825.000000	83.482	-116.5944
1850.000000	83.547	-117.8374
1875.000000	83.607	-119.1414
1900.000000	83.621	-120.3918
1925.000000	83.654	-121.8074
1950.000000	83.645	-123.0033
1975.000000	83.628	-124.2632
2000.000000	83.581	-125.7127
2030.000000	83.514	-126.9613
2060.000000	83.439	-128.2678
2090.000000	83.309	-129.4729
2120.000000	83.195	-130.5222
2140.000000	83.117	-131.2390
2180.000000	82.944	-132.5016
2200.000000	82.845	-132.8991
2240.000000	82.648	-133.9010
2270.000000	82.489	-134.5014
2300.000000	82.344	-134.9324
2330.000000	82.206	-135.3245
2360.000000	82.071	-135.5204
2400.000000	81.882	-135.9820
2430.000000	81.771	-135.8997
2470.000000	81.598	-136.0438
2500.000000	81.490	-136.0016
2540.000000	81.361	-135.8945
2580.000000	81.201	-135.7402
2620.000000	81.093	-135.7274
2650.000000	81.008	-135.4895
2690.000000	80.928	-135.3109
2720.000000	80.849	-135.0588
2760.000000	80.763	-134.9360
2800.000000	80.685	-134.6495
2850.000000	80.622	-134.5349
2900.000000	80.522	-134.2639
2950.000000	80.494	-134.0316
3000.000000	80.430	-133.9263
3040.000000	80.362	-133.6252
3070.000000	80.310	-133.3121
3110.000000	80.278	-133.2940
3150.000000	80.239	-133.0976
3200.000000	80.199	-132.5357
3250.000000	80.153	-132.3185
3300.000000	80.147	-131.9082
3350.000000	80.164	-131.2916
3400.000000	80.170	-130.7940
3450.000000	80.245	-130.3799
3500.000000	80.314	-130.0891
3550.000000	80.412	-129.9187
3600.000000	80.552	-130.0278
3650.000000	80.678	-130.2406
3700.000000	80.787	-130.8282
3750.000000	80.881	-131.5876
3820.000000	80.952	-132.7746
3870.000000	80.940	-133.5871
3950.000000	80.913	-134.5245
4000.000000	80.914	-135.0140
4060.000000	80.855	-134.7953
4120.000000	80.904	-134.8249
4180.000000	80.998	-134.7958
4250.000000	81.167	-134.7180
4310.000000	81.398	-135.2644
4370.000000	81.633	-136.1399
4440.000000	81.858	-137.9449
4500.000000	82.065	-139.9852
4550.000000	82.142	-141.7723
4620.000000	82.222	-144.7514
4680.000000	82.202	-147.4448
4750.000000	82.084	-150.4903
4820.000000	81.855	-153.4629
4870.000000	81.642	-154.9778
4940.000000	81.285	-156.9308
5000.000000	80.992	-157.7396
5080.000000	80.567	-158.8132
5150.000000	80.195	-159.0442
5220.000000	79.864	-158.7678
5300.000000	79.568	-158.4466
5380.000000	79.222	-157.5533
5450.000000	79.035	-156.8689
5520.000000	78.871	-155.9376
5600.000000	78.626	-154.5121
5700.000000	78.382	-152.6989
5800.000000	78.182	-149.9416
5900.000000	78.068	-146.8753
6000.000000	78.185	-143.7426
6080.000000	78.243	-141.0462
6150.000000	78.432	-138.7625
6220.000000	78.615	-136.4705
6300.000000	78.901	-134.5450
6400.000000	79.372	-132.1572
6500.000000	79.894	-130.4949
6600.000000	80.438	-129.4550
6700.000000	80.891	-129.3602
6800.000000	81.267	-128.9088
6900.000000	81.610	-127.6471
7000.000000	82.132	-125.6415
7100.000000	82.848	-123.9269
7200.000000	83.682	-123.1561
7300.000000	84.654	-123.7791
7400.000000	85.634	-125.5015
7500.000000	86.645	-129.1795
7620.000000	87.675	-135.6425
7750.000000	88.374	-144.9254
7880.000000	88.519	-154.3033
8000.000000	88.333	-161.5304
8120.000000	87.979	-167.3056
8250.000000	87.568	-172.1712
8380.000000	87.143	-176.4320
8500.000000	86.648	-179.3096
8620.000000	86.141	178.6862
8750.000000	85.669	177.9738
8850.000000	85.371	178.1810
9000.000000	85.138	178.8825
9120.000000	85.058	179.4739
9250.000000	85.150	-179.8859
9380.000000	85.371	-179.8734
9500.000000	85.692	179.7793
9620.000000	86.120	178.1339
9750.000000	86.614	175.1540
9880.000000	87.072	170.3084
10000.000000	87.363	164.2486
10150.000000	87.359	154.9070
10300.000000	86.828	145.0370
10440.000000	85.844	137.2173
10600.000000	84.462	131.1221
10750.000000	83.104	127.9890
10900.000000	81.746	127.2399
11060.000000	80.443	127.8391
11200.000000	79.410	129.2479
11380.000000	78.222	132.0324
11500.000000	77.537	134.3116
11720.000000	76.437	138.2262
11800.000000	76.124	140.3926
12060.000000	75.079	146.9557
12200.000000	74.490	150.9022
12410.000000	74.037	156.8724
12500.000000	73.845	159.5203
12650.000000	73.560	163.6157
12800.000000	73.476	167.5999
13150.000000	73.330	175.7020
13200.000000	73.386	176.6807
13400.000000	73.509	-179.2904
13600.000000	73.719	-176.2704
13800.000000	74.049	-173.5546
14000.000000	74.453	-173.0512
14300.000000	74.724	-175.0176
14500.000000	74.720	-177.3212
14750.000000	74.374	-179.4938
15000.000000	73.775	179.3889
15250.000000	73.292	177.9926
15500.000000	72.644	178.9696
15750.000000	72.312	-178.3996
16000.000000	72.084	-177.5760
16250.000000	72.083	-177.2397
16500.000000	71.715	-177.6799
16750.000000	71.007	-177.7163
17000.000000	70.874	-176.0930
17250.000000	70.509	-172.7825
17500.000000	70.344	-169.5878
17750.000000	70.458	-167.6570
18000.000000	70.708	-166.9788
18250.000000	71.198	-165.2284
18500.000000	71.958	-163.9030
18750.000000	72.759	-168.3337
19000.000000	73.002	-175.6977
19250.000000	73.051	175.7817
19500.000000	72.661	167.9452
19750.000000	71.967	162.5312
