* Measurement data measured by REW V5.20.13
* Source: USB Sound Device        , MICROPHONE, R, volume: 0.697
* Format: 256k Log Swept Sine, 1 sweep at -6.0 dBFS with no timing reference
* Dated: Dec 4, 2023 4:43:56 AM
* REW Settings:
*  C-weighting compensation: Off
*  Target level: 75.0 dB
* Note: @iemworld / Campfire Audio Andromeda 2020 / XDUOO XD-05 PRO # AKM4499 - MUSES 01 / www.iem-world.com; 
* Measurement: Andronida WIZ L
* Smoothing: None
* Frequency Step: 1/48 octave
* Start Frequency: 20.000 Hz
*
* Freq(Hz)	SPL(dB)	Phase(degrees)
20.000000	81.762	19.1433
20.299999	81.721	18.1600
20.600000	81.698	17.1395
20.900000	81.697	16.1661
21.200001	81.725	15.2896
21.400000	81.762	14.7479
21.799999	81.871	13.7320
22.000000	81.935	13.2557
22.400000	82.063	12.4138
22.700001	82.151	11.9654
23.000000	82.235	11.7364
23.299999	82.323	11.7002
23.600000	82.415	11.7822
24.000000	82.534	11.9512
24.299999	82.607	12.0779
24.700001	82.667	12.2871
25.000000	82.686	12.5209
25.400000	82.692	12.9311
25.799999	82.689	13.3325
26.200001	82.673	13.5863
26.500000	82.645	13.6603
26.900000	82.583	13.6534
27.200001	82.525	13.6106
27.600000	82.448	13.5121
28.000000	82.383	13.3159
28.500000	82.324	12.8696
29.000000	82.286	12.2380
29.500000	82.273	11.5030
30.000000	82.284	10.7267
30.400000	82.305	10.1365
30.700001	82.326	9.7542
31.100000	82.364	9.3568
31.500000	82.415	9.0680
32.000000	82.489	8.7850
32.500000	82.553	8.5709
33.000000	82.596	8.4998
33.500000	82.626	8.5874
34.000000	82.652	8.7236
34.500000	82.665	8.8061
35.000000	82.658	8.8351
35.500000	82.637	8.8305
36.000000	82.609	8.7675
36.500000	82.577	8.6345
37.000000	82.547	8.4597
37.500000	82.527	8.2431
38.200001	82.520	7.8015
38.700001	82.516	7.4272
39.500000	82.515	6.9674
40.000000	82.529	6.7713
40.599998	82.556	6.5577
41.200001	82.582	6.3674
41.799999	82.603	6.2052
42.500000	82.614	6.0375
43.099998	82.611	5.9471
43.700001	82.609	5.8841
44.400002	82.607	5.7501
45.000000	82.598	5.6057
45.500000	82.592	5.5062
46.200001	82.594	5.3451
46.799999	82.599	5.1441
47.500000	82.596	4.9160
48.200001	82.592	4.7567
48.700001	82.591	4.6677
49.400002	82.593	4.5338
50.000000	82.589	4.3950
50.799999	82.576	4.2273
51.500000	82.569	4.0859
52.200001	82.563	3.8659
53.000000	82.544	3.6394
53.799999	82.544	3.5241
54.500000	82.562	3.3344
55.200001	82.568	3.0921
56.000000	82.565	2.9334
57.000000	82.570	2.8513
58.000000	82.581	2.7284
59.000000	82.571	2.4323
60.000000	82.525	2.2468
60.799999	82.508	2.2335
61.500000	82.515	2.1351
62.200001	82.521	1.9132
63.000000	82.513	1.6806
64.000000	82.509	1.5204
65.000000	82.505	1.3508
66.000000	82.491	1.2785
67.000000	82.487	1.2023
68.000000	82.476	1.0121
69.000000	82.453	0.8302
70.000000	82.436	0.6803
71.000000	82.428	0.5465
72.000000	82.430	0.4005
73.000000	82.424	0.2335
74.000000	82.412	0.1098
75.000000	82.392	0.0293
76.199997	82.383	-0.0294
77.500000	82.368	-0.2668
78.800003	82.348	-0.4068
80.000000	82.346	-0.6013
81.199997	82.317	-0.8083
82.500000	82.294	-0.8366
83.800003	82.283	-0.9835
85.000000	82.259	-1.1808
86.199997	82.240	-1.2379
87.500000	82.232	-1.4031
88.500000	82.216	-1.4500
90.000000	82.198	-1.5882
91.199997	82.171	-1.6488
92.500000	82.142	-1.7596
93.800003	82.130	-1.8516
95.000000	82.111	-2.0746
96.199997	82.095	-2.1547
97.500000	82.075	-2.2586
98.800003	82.060	-2.3000
100.000000	82.033	-2.3596
101.500000	82.010	-2.3855
103.000000	81.983	-2.5265
104.400002	81.949	-2.5589
106.000000	81.939	-2.6732
107.500000	81.900	-2.7329
109.000000	81.887	-2.8069
110.599998	81.856	-2.9801
112.000000	81.818	-2.9585
113.800003	81.788	-2.9994
115.000000	81.756	-3.0099
117.199997	81.704	-2.9077
118.000000	81.694	-3.0241
120.599998	81.625	-2.9167
122.000000	81.575	-2.8598
124.099998	81.529	-2.6428
125.000000	81.515	-2.5246
126.500000	81.488	-2.3317
128.000000	81.456	-2.1021
131.500000	81.451	-1.1827
132.000000	81.469	-1.0910
134.000000	81.504	-0.7520
136.000000	81.576	-0.6469
138.000000	81.650	-0.7083
140.000000	81.702	-0.8290
143.000000	81.763	-1.3097
145.000000	81.774	-1.7379
147.500000	81.777	-2.1946
150.000000	81.748	-2.6335
152.500000	81.704	-2.9913
155.000000	81.671	-3.3230
157.500000	81.634	-3.5803
160.000000	81.592	-3.7326
162.500000	81.540	-3.8562
165.000000	81.498	-3.9829
167.500000	81.450	-4.1623
170.000000	81.399	-4.1861
172.500000	81.365	-4.2780
175.000000	81.327	-4.3826
177.500000	81.285	-4.4357
180.000000	81.253	-4.4835
182.500000	81.207	-4.5165
185.000000	81.159	-4.5211
187.500000	81.121	-4.6069
190.000000	81.088	-4.6460
192.500000	81.048	-4.6076
195.000000	81.004	-4.6484
197.500000	80.953	-4.6240
200.000000	80.916	-4.6008
203.000000	80.870	-4.5626
206.000000	80.815	-4.5367
209.000000	80.767	-4.4859
212.000000	80.728	-4.3229
214.000000	80.703	-4.4235
218.000000	80.628	-4.2986
220.000000	80.597	-4.1200
224.000000	80.540	-4.0618
227.000000	80.495	-3.9274
230.000000	80.436	-3.7709
233.000000	80.401	-3.6296
236.000000	80.345	-3.5003
240.000000	80.286	-3.1309
243.000000	80.243	-2.9935
247.000000	80.174	-2.4687
250.000000	80.138	-2.1070
254.000000	80.128	-1.6527
258.000000	80.133	-1.0064
262.000000	80.200	-0.6369
265.000000	80.245	-0.4611
269.000000	80.284	-0.7107
272.000000	80.311	-0.9611
276.000000	80.291	-1.3038
280.000000	80.264	-1.5996
285.000000	80.187	-1.8191
290.000000	80.130	-2.0050
295.000000	80.061	-1.9547
300.000000	79.984	-1.9635
304.000000	79.923	-1.8490
307.000000	79.884	-1.7725
311.000000	79.836	-1.6729
315.000000	79.792	-1.6774
320.000000	79.730	-1.4961
325.000000	79.666	-1.3957
330.000000	79.606	-1.2097
335.000000	79.544	-0.9853
340.000000	79.502	-0.8454
345.000000	79.433	-0.6867
350.000000	79.378	-0.4650
355.000000	79.326	-0.1695
360.000000	79.280	-0.0012
365.000000	79.228	0.2123
370.000000	79.179	0.3909
375.000000	79.112	0.5671
382.000000	79.049	0.9387
387.000000	79.001	1.1619
395.000000	78.919	1.6775
400.000000	78.870	1.8240
406.000000	78.816	2.1942
412.000000	78.758	2.4194
418.000000	78.700	2.7073
425.000000	78.644	3.1473
431.000000	78.594	3.4138
437.000000	78.540	3.6167
444.000000	78.462	4.1198
450.000000	78.431	4.3770
455.000000	78.384	4.6785
462.000000	78.314	5.1097
468.000000	78.285	5.4156
475.000000	78.222	5.8235
482.000000	78.147	6.2609
487.000000	78.106	6.5620
494.000000	78.066	7.0408
500.000000	78.004	7.3355
508.000000	77.951	7.8572
515.000000	77.903	8.3169
522.000000	77.874	8.6643
530.000000	77.806	9.2289
538.000000	77.737	9.7587
545.000000	77.698	10.1884
552.000000	77.648	10.7355
560.000000	77.592	11.2217
570.000000	77.511	11.8785
580.000000	77.465	12.5669
590.000000	77.416	13.3976
600.000000	77.357	14.0351
608.000000	77.288	14.5251
615.000000	77.243	15.1111
622.000000	77.208	15.5501
630.000000	77.177	16.2067
640.000000	77.117	16.9300
650.000000	77.079	17.5879
660.000000	77.030	18.3996
670.000000	76.961	19.1653
680.000000	76.906	19.9715
690.000000	76.895	20.6460
700.000000	76.869	21.5526
710.000000	76.815	22.2490
720.000000	76.786	22.9832
730.000000	76.772	23.7840
740.000000	76.731	24.8338
750.000000	76.725	25.5741
762.000000	76.696	26.6191
775.000000	76.681	27.6399
788.000000	76.678	28.6998
800.000000	76.682	29.7766
812.000000	76.640	30.5024
825.000000	76.638	31.7558
838.000000	76.649	32.7158
850.000000	76.659	33.8820
862.000000	76.686	34.7122
875.000000	76.690	35.7513
885.000000	76.703	36.5076
900.000000	76.732	37.6809
912.000000	76.779	38.6455
925.000000	76.819	39.5912
938.000000	76.840	40.2535
950.000000	76.929	41.3934
962.000000	76.948	42.2398
975.000000	77.005	43.1165
988.000000	77.058	43.9206
1000.000000	77.125	44.4355
1015.000000	77.182	45.6303
1030.000000	77.262	46.6199
1044.000000	77.350	47.3537
1060.000000	77.424	48.0888
1075.000000	77.539	48.9078
1090.000000	77.598	49.6409
1106.000000	77.690	50.4643
1120.000000	77.769	51.0866
1138.000000	77.854	51.7536
1150.000000	77.936	52.2173
1172.000000	78.063	53.2448
1180.000000	78.112	53.4060
1206.000000	78.269	54.3723
1220.000000	78.355	54.9381
1241.000000	78.440	55.5078
1250.000000	78.492	56.0303
1265.000000	78.575	56.2981
1280.000000	78.692	56.9332
1315.000000	78.855	57.9253
1320.000000	78.894	57.8291
1340.000000	79.000	58.4754
1360.000000	79.143	59.1166
1380.000000	79.256	59.4810
1400.000000	79.356	59.9943
1430.000000	79.557	60.6410
1450.000000	79.664	61.0555
1475.000000	79.846	61.4432
1500.000000	79.996	62.0554
1525.000000	80.161	62.3826
1550.000000	80.362	62.5199
1575.000000	80.529	62.6832
1600.000000	80.684	62.8431
1625.000000	80.895	62.9774
1650.000000	81.060	62.9351
1675.000000	81.259	62.8113
1700.000000	81.440	62.4859
1725.000000	81.612	62.1427
1750.000000	81.806	61.6818
1775.000000	81.977	61.0708
1800.000000	82.144	60.5060
1825.000000	82.304	59.6810
1850.000000	82.459	58.6829
1875.000000	82.618	57.8691
1900.000000	82.719	56.6724
1925.000000	82.822	55.4895
1950.000000	82.916	54.2276
1975.000000	82.985	53.0007
2000.000000	83.039	51.7998
2030.000000	83.063	50.0433
2060.000000	83.034	48.3286
2090.000000	83.001	46.6893
2120.000000	82.937	45.1777
2140.000000	82.896	44.3021
2180.000000	82.734	42.2471
2200.000000	82.640	41.5759
2240.000000	82.461	40.0007
2270.000000	82.292	38.9907
2300.000000	82.129	38.1641
2330.000000	81.947	37.4743
2360.000000	81.772	36.9600
2400.000000	81.539	36.4409
2430.000000	81.384	36.1372
2470.000000	81.125	35.9658
2500.000000	80.991	36.0508
2540.000000	80.761	36.2090
2580.000000	80.593	36.5310
2620.000000	80.456	36.9440
2650.000000	80.319	37.0337
2690.000000	80.227	37.6779
2720.000000	80.172	37.7250
2760.000000	80.073	38.0534
2800.000000	79.975	38.3323
2850.000000	79.859	38.6282
2900.000000	79.775	38.9926
2950.000000	79.682	39.4428
3000.000000	79.648	40.1644
3040.000000	79.576	40.1683
3070.000000	79.536	40.3468
3110.000000	79.509	40.5979
3150.000000	79.436	40.8330
3200.000000	79.414	41.5680
3250.000000	79.414	42.0344
3300.000000	79.371	42.4674
3350.000000	79.408	43.0105
3400.000000	79.441	43.4299
3450.000000	79.530	44.0054
3500.000000	79.574	44.0438
3550.000000	79.701	44.0738
3600.000000	79.792	43.8678
3650.000000	79.854	43.4949
3700.000000	79.964	42.8764
3750.000000	79.976	42.3289
3820.000000	80.012	41.6175
3870.000000	79.973	41.1801
3950.000000	79.979	40.8829
4000.000000	80.016	40.9979
4060.000000	80.046	41.5724
4120.000000	80.225	41.8336
4180.000000	80.467	42.0898
4250.000000	80.868	41.6198
4310.000000	81.263	39.9603
4370.000000	81.622	37.7180
4440.000000	81.947	33.5184
4500.000000	82.016	29.5061
4550.000000	81.965	26.0425
4620.000000	81.676	21.3175
4680.000000	81.309	18.1925
4750.000000	80.767	15.4586
4820.000000	80.201	14.2066
4870.000000	79.808	13.5139
4940.000000	79.325	13.5882
5000.000000	78.944	14.0385
5080.000000	78.531	15.1623
5150.000000	78.225	16.3416
5220.000000	77.985	17.3885
5300.000000	77.801	19.1421
5380.000000	77.627	20.5051
5450.000000	77.548	21.7593
5520.000000	77.426	22.7445
5600.000000	77.348	23.9954
5700.000000	77.241	26.5713
5800.000000	77.170	29.3007
5900.000000	77.287	33.0111
6000.000000	77.581	36.6460
6080.000000	77.914	38.8902
6150.000000	78.311	40.6771
6220.000000	78.821	42.3349
6300.000000	79.386	43.0762
6400.000000	80.258	42.6040
6500.000000	81.022	40.7229
6600.000000	81.620	37.3355
6700.000000	81.930	33.6558
6800.000000	82.227	30.7030
6900.000000	82.497	27.4139
7000.000000	82.695	23.6724
7100.000000	82.738	19.3654
7200.000000	82.619	15.4133
7300.000000	82.276	11.8941
7400.000000	81.880	9.4400
7500.000000	81.401	8.4537
7620.000000	80.976	8.3644
7750.000000	80.612	9.0151
7880.000000	80.454	10.6477
8000.000000	80.411	11.6436
8120.000000	80.479	12.3258
8250.000000	80.520	12.6658
8380.000000	80.461	13.2553
8500.000000	80.493	14.5474
8620.000000	80.680	16.4894
8750.000000	81.046	18.5902
8850.000000	81.534	19.5914
9000.000000	82.426	19.2883
9120.000000	83.332	17.2479
9250.000000	84.301	12.1152
9380.000000	85.026	3.9569
9500.000000	85.237	-6.1408
9620.000000	84.876	-16.1208
9750.000000	83.909	-24.8730
9880.000000	82.730	-30.7277
10000.000000	81.560	-33.8940
10150.000000	80.228	-34.9948
10300.000000	79.109	-34.4032
10440.000000	78.147	-32.7429
10600.000000	77.251	-30.4268
10750.000000	76.605	-28.3776
10900.000000	75.976	-25.1361
11060.000000	75.536	-21.8881
11200.000000	75.220	-19.1421
11380.000000	74.791	-15.5564
11500.000000	74.716	-13.5245
11720.000000	74.381	-9.4056
11800.000000	74.373	-8.5192
12060.000000	74.175	-4.5202
12200.000000	74.082	-2.7022
12410.000000	74.016	-0.0139
12500.000000	74.040	0.3893
12650.000000	74.103	2.3294
12800.000000	74.075	3.1018
13150.000000	74.315	3.5276
13200.000000	74.476	3.5201
13400.000000	74.355	1.2354
13600.000000	74.137	-1.1285
13800.000000	73.729	-3.4484
14000.000000	72.939	-4.2375
14300.000000	71.889	-4.0382
14500.000000	71.177	-1.0544
14750.000000	70.552	3.3898
15000.000000	70.166	8.2353
15250.000000	70.442	14.5203
15500.000000	70.789	17.6531
15750.000000	71.693	20.1396
16000.000000	72.401	18.0365
16250.000000	72.822	11.2903
16500.000000	73.015	7.2009
16750.000000	73.113	2.8638
17000.000000	73.234	-2.0507
17250.000000	73.225	-7.9741
17500.000000	73.058	-15.4974
17750.000000	72.636	-21.9751
18000.000000	72.414	-27.3057
18250.000000	72.038	-34.5034
18500.000000	71.600	-44.2078
18750.000000	70.877	-56.0286
19000.000000	69.562	-68.4610
19250.000000	67.745	-75.9325
19500.000000	65.715	-80.8070
19750.000000	64.030	-86.6327
