* Measurement data measured by REW V5.20.13
* Source: USB Sound Device        , MICROPHONE, R, volume: 0.697
* Format: 256k Log Swept Sine, 1 sweep at -6.0 dBFS with no timing reference
* Dated: Dec 4, 2023 4:36:14 AM
* REW Settings:
*  C-weighting compensation: Off
*  Target level: 75.0 dB
* Note: @iemworld / Campfire Audio Andromeda 2020 / XDUOO XD-05 PRO # AKM4499 - MUSES 01 / www.iem-world.com; 
* Measurement: Andronida OR-F L
* Smoothing: None
* Frequency Step: 1/48 octave
* Start Frequency: 20.000 Hz
*
* Freq(Hz)	SPL(dB)	Phase(degrees)
20.000000	80.169	45.0529
20.299999	80.090	43.8904
20.600000	80.027	42.6101
20.900000	79.989	41.3037
21.200001	79.991	40.0158
21.400000	80.017	39.1553
21.799999	80.116	37.4209
22.000000	80.182	36.5652
22.400000	80.326	34.9763
22.700001	80.439	34.0038
23.000000	80.560	33.2832
23.299999	80.692	32.7767
23.600000	80.831	32.4127
24.000000	81.011	32.0521
24.299999	81.126	31.8616
24.700001	81.240	31.7712
25.000000	81.302	31.8536
25.400000	81.367	32.1130
25.799999	81.416	32.3903
26.200001	81.441	32.5604
26.500000	81.437	32.6099
26.900000	81.406	32.6044
27.200001	81.370	32.5522
27.600000	81.315	32.3831
28.000000	81.258	32.0488
28.500000	81.184	31.4177
29.000000	81.124	30.6542
29.500000	81.102	29.7732
30.000000	81.117	28.7258
30.400000	81.142	27.8286
30.700001	81.164	27.1953
31.100000	81.203	26.4780
31.500000	81.260	25.9048
32.000000	81.350	25.3116
32.500000	81.440	24.8220
33.000000	81.514	24.5002
33.500000	81.578	24.3535
34.000000	81.632	24.2767
34.500000	81.666	24.1943
35.000000	81.676	24.1208
35.500000	81.674	24.0475
36.000000	81.666	23.9000
36.500000	81.650	23.6370
37.000000	81.629	23.2887
37.500000	81.610	22.8805
38.200001	81.594	22.2094
38.700001	81.589	21.7122
39.500000	81.609	20.9897
40.000000	81.637	20.5347
40.599998	81.667	20.0023
41.200001	81.690	19.6133
41.799999	81.719	19.3561
42.500000	81.758	19.0541
43.099998	81.778	18.7759
43.700001	81.786	18.5262
44.400002	81.790	18.2470
45.000000	81.792	18.0000
45.500000	81.797	17.7742
46.200001	81.805	17.3937
46.799999	81.807	17.0543
47.500000	81.810	16.7214
48.200001	81.821	16.3950
48.700001	81.826	16.1562
49.400002	81.828	15.8788
50.000000	81.834	15.6624
50.799999	81.841	15.3018
51.500000	81.835	14.9836
52.200001	81.831	14.7119
53.000000	81.841	14.3677
53.799999	81.850	13.9528
54.500000	81.851	13.6427
55.200001	81.861	13.4356
56.000000	81.884	13.1761
57.000000	81.889	12.8391
58.000000	81.889	12.6564
59.000000	81.886	12.3443
60.000000	81.860	12.0262
60.799999	81.849	11.8049
61.500000	81.851	11.5652
62.200001	81.857	11.2633
63.000000	81.861	10.9315
64.000000	81.875	10.5880
65.000000	81.883	10.2609
66.000000	81.881	10.0613
67.000000	81.880	9.8533
68.000000	81.867	9.6188
69.000000	81.853	9.3786
70.000000	81.846	9.0928
71.000000	81.838	8.7587
72.000000	81.830	8.5143
73.000000	81.840	8.3066
74.000000	81.845	8.0093
75.000000	81.830	7.7917
76.199997	81.823	7.6094
77.500000	81.810	7.3452
78.800003	81.803	7.1100
80.000000	81.800	6.8539
81.199997	81.788	6.5998
82.500000	81.775	6.3815
83.800003	81.763	6.1469
85.000000	81.755	5.8658
86.199997	81.738	5.6114
87.500000	81.730	5.3982
88.500000	81.727	5.2296
90.000000	81.709	4.9807
91.199997	81.695	4.8709
92.500000	81.686	4.6015
93.800003	81.658	4.3962
95.000000	81.654	4.2492
96.199997	81.651	4.0416
97.500000	81.640	3.8435
98.800003	81.618	3.6757
100.000000	81.603	3.6023
101.500000	81.582	3.3707
103.000000	81.569	3.2023
104.400002	81.548	2.9766
106.000000	81.541	2.8335
107.500000	81.520	2.6398
109.000000	81.507	2.4924
110.599998	81.479	2.2845
112.000000	81.465	2.1827
113.800003	81.443	1.9943
115.000000	81.429	1.8217
117.199997	81.401	1.6422
118.000000	81.391	1.5487
120.599998	81.353	1.2911
122.000000	81.345	1.2302
124.099998	81.317	1.0306
125.000000	81.298	0.9939
126.500000	81.297	0.8718
128.000000	81.259	0.7479
131.500000	81.215	0.5215
132.000000	81.211	0.4718
134.000000	81.178	0.3114
136.000000	81.157	0.2415
138.000000	81.128	0.0980
140.000000	81.107	-0.0104
143.000000	81.061	-0.2311
145.000000	81.041	-0.2703
147.500000	81.008	-0.3766
150.000000	80.974	-0.5231
152.500000	80.931	-0.5974
155.000000	80.904	-0.7729
157.500000	80.867	-0.8267
160.000000	80.836	-0.9144
162.500000	80.809	-1.0182
165.000000	80.769	-1.0117
167.500000	80.739	-1.1530
170.000000	80.713	-1.2069
172.500000	80.677	-1.2532
175.000000	80.650	-1.3569
177.500000	80.610	-1.3558
180.000000	80.589	-1.3940
182.500000	80.542	-1.4362
185.000000	80.512	-1.4209
187.500000	80.478	-1.4562
190.000000	80.444	-1.5273
192.500000	80.409	-1.5748
195.000000	80.377	-1.5485
197.500000	80.361	-1.6771
200.000000	80.320	-1.5907
203.000000	80.286	-1.6020
206.000000	80.246	-1.6245
209.000000	80.205	-1.5994
212.000000	80.167	-1.5197
214.000000	80.140	-1.5710
218.000000	80.088	-1.5129
220.000000	80.073	-1.4894
224.000000	80.013	-1.4000
227.000000	79.987	-1.4048
230.000000	79.941	-1.3992
233.000000	79.906	-1.3887
236.000000	79.877	-1.3266
240.000000	79.812	-1.3073
243.000000	79.790	-1.2200
247.000000	79.745	-1.0850
250.000000	79.702	-1.0687
254.000000	79.658	-0.9276
258.000000	79.621	-0.8848
262.000000	79.570	-0.7998
265.000000	79.545	-0.7559
269.000000	79.500	-0.6172
272.000000	79.468	-0.4814
276.000000	79.430	-0.3845
280.000000	79.371	-0.2111
285.000000	79.331	-0.0834
290.000000	79.274	0.1533
295.000000	79.219	0.3138
300.000000	79.166	0.4466
304.000000	79.152	0.5751
307.000000	79.104	0.6410
311.000000	79.087	0.7866
315.000000	79.038	1.0094
320.000000	78.987	1.1173
325.000000	78.937	1.3651
330.000000	78.889	1.4532
335.000000	78.857	1.6837
340.000000	78.815	1.9320
345.000000	78.776	2.1057
350.000000	78.732	2.2703
355.000000	78.703	2.5095
360.000000	78.660	2.6704
365.000000	78.596	2.7716
370.000000	78.566	3.0272
375.000000	78.524	3.1483
382.000000	78.450	3.4274
387.000000	78.406	3.6072
395.000000	78.340	4.0558
400.000000	78.296	4.2308
406.000000	78.227	4.4511
412.000000	78.186	4.6660
418.000000	78.131	5.0312
425.000000	78.092	5.2295
431.000000	78.037	5.6115
437.000000	77.964	5.8882
444.000000	77.923	6.4001
450.000000	77.859	6.5677
455.000000	77.828	6.7990
462.000000	77.768	7.2310
468.000000	77.725	7.4771
475.000000	77.668	7.8821
482.000000	77.605	8.3032
487.000000	77.559	8.6355
494.000000	77.516	8.9991
500.000000	77.474	9.3774
508.000000	77.412	9.8182
515.000000	77.351	10.2838
522.000000	77.290	10.6633
530.000000	77.266	11.2733
538.000000	77.203	11.6170
545.000000	77.150	12.0592
552.000000	77.099	12.5594
560.000000	77.043	13.1134
570.000000	76.987	13.8441
580.000000	76.922	14.3903
590.000000	76.866	15.1580
600.000000	76.812	15.9645
608.000000	76.743	16.2626
615.000000	76.715	16.9416
622.000000	76.673	17.4958
630.000000	76.659	18.0474
640.000000	76.591	18.7448
650.000000	76.549	19.4630
660.000000	76.522	20.1619
670.000000	76.461	20.8414
680.000000	76.415	21.7109
690.000000	76.363	22.5607
700.000000	76.354	23.2571
710.000000	76.303	24.0691
720.000000	76.294	24.9557
730.000000	76.249	25.6693
740.000000	76.240	26.5093
750.000000	76.193	27.2133
762.000000	76.188	28.1838
775.000000	76.157	29.3113
788.000000	76.152	30.2188
800.000000	76.124	31.3605
812.000000	76.143	32.2025
825.000000	76.138	33.4008
838.000000	76.128	34.3555
850.000000	76.151	35.3974
862.000000	76.143	36.2083
875.000000	76.160	37.3063
885.000000	76.190	38.0521
900.000000	76.202	39.2196
912.000000	76.264	40.2750
925.000000	76.266	41.0670
938.000000	76.338	42.0112
950.000000	76.358	42.7763
962.000000	76.404	43.9045
975.000000	76.450	44.8306
988.000000	76.519	45.5587
1000.000000	76.526	46.4298
1015.000000	76.646	47.2589
1030.000000	76.726	48.1617
1044.000000	76.783	49.0145
1060.000000	76.871	49.9237
1075.000000	76.934	50.7220
1090.000000	77.028	51.3715
1106.000000	77.113	52.1874
1120.000000	77.205	52.8374
1138.000000	77.296	53.6118
1150.000000	77.361	54.2279
1172.000000	77.477	55.1132
1180.000000	77.548	55.4252
1206.000000	77.689	56.5077
1220.000000	77.753	56.9896
1241.000000	77.871	57.6450
1250.000000	77.944	58.0814
1265.000000	78.034	58.6175
1280.000000	78.109	59.0152
1315.000000	78.318	60.0864
1320.000000	78.308	60.2142
1340.000000	78.457	60.8721
1360.000000	78.571	61.4157
1380.000000	78.705	62.0479
1400.000000	78.857	62.4098
1430.000000	79.019	63.2509
1450.000000	79.150	63.6954
1475.000000	79.314	64.2007
1500.000000	79.494	64.6604
1525.000000	79.682	65.0461
1550.000000	79.856	65.4468
1575.000000	80.024	65.8167
1600.000000	80.220	65.8573
1625.000000	80.413	65.8905
1650.000000	80.616	65.8750
1675.000000	80.809	65.8597
1700.000000	81.008	65.6499
1725.000000	81.211	65.1960
1750.000000	81.394	64.9044
1775.000000	81.574	64.4604
1800.000000	81.760	63.6387
1825.000000	81.936	62.9022
1850.000000	82.094	62.0727
1875.000000	82.221	61.0613
1900.000000	82.378	60.0940
1925.000000	82.475	58.9413
1950.000000	82.580	57.6808
1975.000000	82.651	56.4075
2000.000000	82.678	55.0914
2030.000000	82.743	53.4104
2060.000000	82.738	51.7717
2090.000000	82.715	50.1151
2120.000000	82.672	48.5541
2140.000000	82.614	47.6774
2180.000000	82.482	45.8201
2200.000000	82.414	45.1153
2240.000000	82.228	43.5739
2270.000000	82.066	42.6532
2300.000000	81.918	41.6997
2330.000000	81.772	41.1014
2360.000000	81.610	40.5779
2400.000000	81.386	40.1738
2430.000000	81.215	39.9221
2470.000000	81.015	39.6207
2500.000000	80.879	39.4432
2540.000000	80.705	39.6891
2580.000000	80.511	39.9044
2620.000000	80.384	40.1031
2650.000000	80.272	40.5958
2690.000000	80.178	40.9119
2720.000000	80.100	41.2175
2760.000000	80.009	41.5089
2800.000000	79.905	42.0875
2850.000000	79.856	42.6089
2900.000000	79.797	43.0997
2950.000000	79.766	43.6174
3000.000000	79.751	44.2057
3040.000000	79.728	44.3104
3070.000000	79.726	44.7272
3110.000000	79.729	44.7815
3150.000000	79.745	45.1292
3200.000000	79.769	45.4241
3250.000000	79.767	45.6810
3300.000000	79.815	46.0203
3350.000000	79.889	46.1587
3400.000000	79.945	46.4194
3450.000000	80.057	46.3513
3500.000000	80.170	46.2064
3550.000000	80.265	45.9246
3600.000000	80.341	45.3807
3650.000000	80.429	44.6871
3700.000000	80.477	44.0543
3750.000000	80.514	43.1211
3820.000000	80.507	41.9844
3870.000000	80.470	41.6241
3950.000000	80.440	41.4545
4000.000000	80.481	41.5478
4060.000000	80.537	42.1107
4120.000000	80.739	42.3743
4180.000000	81.022	42.2222
4250.000000	81.433	41.4581
4310.000000	81.798	39.6392
4370.000000	82.146	36.9708
4440.000000	82.416	32.6100
4500.000000	82.429	28.7261
4550.000000	82.315	25.2076
4620.000000	82.023	20.9407
4680.000000	81.593	18.2526
4750.000000	81.090	16.0466
4820.000000	80.579	15.1506
4870.000000	80.251	15.1080
4940.000000	79.820	15.3535
5000.000000	79.540	15.7385
5080.000000	79.212	17.1893
5150.000000	79.064	18.2260
5220.000000	78.960	19.5826
5300.000000	78.846	20.9411
5380.000000	78.885	21.9188
5450.000000	78.934	22.8610
5520.000000	79.001	23.8483
5600.000000	79.092	24.6910
5700.000000	79.187	25.3052
5800.000000	79.401	27.1711
5900.000000	79.790	28.1841
6000.000000	80.287	29.0691
6080.000000	80.791	28.6454
6150.000000	81.255	27.9127
6220.000000	81.780	26.1166
6300.000000	82.308	22.9214
6400.000000	82.800	17.0575
6500.000000	82.871	10.1341
6600.000000	82.531	3.3519
6700.000000	81.924	-0.9984
6800.000000	81.231	-3.5807
6900.000000	80.644	-4.4911
7000.000000	80.113	-4.7986
7100.000000	79.662	-4.4321
7200.000000	79.281	-4.0039
7300.000000	78.921	-3.1335
7400.000000	78.669	-1.5540
7500.000000	78.417	0.1283
7620.000000	78.240	2.3976
7750.000000	78.198	4.6224
7880.000000	78.396	6.5026
8000.000000	78.530	7.4972
8120.000000	78.673	7.9987
8250.000000	78.725	8.2660
8380.000000	78.767	9.3063
8500.000000	78.894	10.7576
8620.000000	79.104	11.8448
8750.000000	79.622	12.7505
8850.000000	80.068	12.1850
9000.000000	80.719	10.1132
9120.000000	81.156	6.9844
9250.000000	81.477	2.1413
9380.000000	81.533	-3.5258
9500.000000	81.293	-8.7766
9620.000000	80.898	-13.0290
9750.000000	80.263	-16.5472
9880.000000	79.560	-18.8014
10000.000000	78.996	-19.5740
10150.000000	78.238	-19.9048
10300.000000	77.635	-19.0531
10440.000000	77.114	-17.9667
10600.000000	76.613	-16.0858
10750.000000	76.273	-14.3336
10900.000000	75.997	-12.5868
11060.000000	75.804	-10.7972
11200.000000	75.622	-9.6661
11380.000000	75.467	-7.8761
11500.000000	75.403	-7.0896
11720.000000	75.304	-5.8837
11800.000000	75.233	-5.6105
12060.000000	75.018	-4.0343
12200.000000	74.972	-3.5841
12410.000000	74.740	-3.5306
12500.000000	74.663	-3.1959
12650.000000	74.660	-2.4843
12800.000000	74.555	-2.7983
13150.000000	74.211	-5.1183
13200.000000	74.152	-5.1069
13400.000000	73.665	-6.1573
13600.000000	73.201	-6.1990
13800.000000	72.576	-6.4772
14000.000000	72.005	-5.3445
14300.000000	71.138	-1.6004
14500.000000	70.832	1.6742
14750.000000	70.695	5.7454
15000.000000	70.709	8.5541
15250.000000	71.093	10.9587
15500.000000	71.751	9.6517
15750.000000	72.369	5.8525
16000.000000	72.294	-0.7148
16250.000000	71.793	-8.1249
16500.000000	70.906	-12.3193
16750.000000	69.924	-16.1401
17000.000000	69.090	-17.2399
17250.000000	68.381	-17.0645
17500.000000	67.633	-15.3626
17750.000000	66.961	-14.4966
18000.000000	66.587	-13.4031
18250.000000	66.173	-13.1907
18500.000000	66.226	-12.2192
18750.000000	66.228	-12.1108
19000.000000	66.485	-13.3408
19250.000000	66.653	-17.6004
19500.000000	66.497	-21.4722
19750.000000	66.235	-30.3060
