* Measurement data measured by REW V5.20.13
* Source: USB Sound Device        , MICROPHONE, R, volume: 0.697
* Format: 256k Log Swept Sine, 1 sweep at -6.0 dBFS with no timing reference
* Dated: Dec 4, 2023 4:27:27 AM
* REW Settings:
*  C-weighting compensation: Off
*  Target level: 75.0 dB
* Note: @iemworld / Campfire Audio Andromeda 2020 / XDUOO XD-05 PRO # AKM4499 - MUSES 01 / www.iem-world.com; 
* Measurement: Andronida OR-S 110 OHM L
* Smoothing: None
* Frequency Step: 1/48 octave
* Start Frequency: 20.000 Hz
*
* Freq(Hz)	SPL(dB)	Phase(degrees)
20.000000	76.534	22.8579
20.299999	76.433	21.3496
20.600000	76.374	19.7410
20.900000	76.362	18.1702
21.200001	76.409	16.7240
21.400000	76.474	15.8183
21.799999	76.665	14.1156
22.000000	76.775	13.3311
22.400000	76.991	12.0061
22.700001	77.136	11.3797
23.000000	77.275	11.1653
23.299999	77.422	11.2942
23.600000	77.577	11.6169
24.000000	77.780	12.1126
24.299999	77.900	12.4575
24.700001	77.992	12.9723
25.000000	78.014	13.5020
25.400000	78.009	14.4177
25.799999	77.992	15.3751
26.200001	77.961	16.1172
26.500000	77.917	16.4734
26.900000	77.822	16.7303
27.200001	77.732	16.8133
27.600000	77.602	16.7959
28.000000	77.481	16.5875
28.500000	77.353	16.0273
29.000000	77.266	15.2099
29.500000	77.236	14.1880
30.000000	77.254	12.9951
30.400000	77.283	12.0517
30.700001	77.311	11.4605
31.100000	77.364	10.9125
31.500000	77.446	10.5931
32.000000	77.577	10.3160
32.500000	77.693	10.0855
33.000000	77.763	10.0585
33.500000	77.804	10.3423
34.000000	77.840	10.7859
34.500000	77.866	11.1609
35.000000	77.870	11.3822
35.500000	77.846	11.4492
36.000000	77.797	11.3804
36.500000	77.728	11.2470
37.000000	77.663	11.1241
37.500000	77.625	10.9536
38.200001	77.611	10.4341
38.700001	77.602	9.9715
39.500000	77.612	9.4999
40.000000	77.651	9.2617
40.599998	77.697	8.9060
41.200001	77.713	8.6962
41.799999	77.728	8.7492
42.500000	77.766	8.8418
43.099998	77.786	8.7688
43.700001	77.779	8.6478
44.400002	77.753	8.5425
45.000000	77.732	8.4863
45.500000	77.726	8.4252
46.200001	77.728	8.2480
46.799999	77.730	8.0454
47.500000	77.733	7.8493
48.200001	77.738	7.6824
48.700001	77.736	7.5951
49.400002	77.732	7.5565
50.000000	77.732	7.5373
50.799999	77.728	7.4826
51.500000	77.730	7.4082
52.200001	77.736	7.1906
53.000000	77.722	6.8965
53.799999	77.721	6.7447
54.500000	77.737	6.5615
55.200001	77.743	6.4005
56.000000	77.756	6.3754
57.000000	77.771	6.2694
58.000000	77.742	6.2741
59.000000	77.723	6.3600
60.000000	77.703	6.2430
60.799999	77.691	6.0958
61.500000	77.694	5.8782
62.200001	77.694	5.5864
63.000000	77.690	5.3531
64.000000	77.704	5.2132
65.000000	77.717	5.1564
66.000000	77.728	5.1985
67.000000	77.718	5.2093
68.000000	77.703	5.2341
69.000000	77.670	5.1354
70.000000	77.657	5.1928
71.000000	77.678	4.8378
72.000000	77.631	4.5713
73.000000	77.640	4.7019
74.000000	77.661	4.4345
75.000000	77.633	4.4040
76.199997	77.647	4.3569
77.500000	77.622	4.2146
78.800003	77.617	4.0939
80.000000	77.599	4.0237
81.199997	77.589	3.9480
82.500000	77.568	3.9265
83.800003	77.564	3.8690
85.000000	77.553	3.7150
86.199997	77.548	3.6090
87.500000	77.536	3.5092
88.500000	77.534	3.5224
90.000000	77.516	3.5410
91.199997	77.513	3.5411
92.500000	77.475	3.3638
93.800003	77.451	3.3763
95.000000	77.437	3.3021
96.199997	77.443	3.2616
97.500000	77.420	3.1802
98.800003	77.416	3.2920
100.000000	77.406	3.2347
101.500000	77.383	3.1358
103.000000	77.360	3.0436
104.400002	77.341	3.0072
106.000000	77.323	2.9835
107.500000	77.315	3.0512
109.000000	77.301	2.9462
110.599998	77.274	2.8977
112.000000	77.252	2.8917
113.800003	77.231	2.9587
115.000000	77.217	2.9503
117.199997	77.193	2.9222
118.000000	77.170	2.8182
120.599998	77.139	2.9769
122.000000	77.111	2.9821
124.099998	77.090	2.9077
125.000000	77.070	2.8529
126.500000	77.037	2.9024
128.000000	77.022	2.8568
131.500000	76.964	2.9770
132.000000	76.954	3.0474
134.000000	76.935	2.9622
136.000000	76.896	3.0004
138.000000	76.842	3.1689
140.000000	76.796	3.2776
143.000000	76.750	3.4404
145.000000	76.704	3.6605
147.500000	76.649	3.8201
150.000000	76.583	4.1459
152.500000	76.524	4.5882
155.000000	76.451	5.1434
157.500000	76.406	5.8939
160.000000	76.365	6.4806
162.500000	76.417	7.4792
165.000000	76.505	8.4928
167.500000	76.626	9.2275
170.000000	76.827	9.3156
172.500000	76.951	8.8328
175.000000	77.020	8.1674
177.500000	77.047	7.6241
180.000000	77.021	7.1292
182.500000	77.006	6.6342
185.000000	77.002	6.2644
187.500000	76.955	6.2703
190.000000	76.902	6.0604
192.500000	76.852	5.9870
195.000000	76.836	5.8017
197.500000	76.782	5.9770
200.000000	76.741	6.0848
203.000000	76.682	5.9436
206.000000	76.650	5.9183
209.000000	76.603	5.9377
212.000000	76.560	6.2078
214.000000	76.539	6.2293
218.000000	76.480	6.4176
220.000000	76.463	6.4852
224.000000	76.418	6.7585
227.000000	76.389	6.8216
230.000000	76.339	7.0434
233.000000	76.300	7.1778
236.000000	76.238	7.3556
240.000000	76.245	7.5951
243.000000	76.184	7.7562
247.000000	76.153	8.0472
250.000000	76.106	8.3053
254.000000	76.063	8.6555
258.000000	76.016	8.9875
262.000000	75.994	9.4206
265.000000	75.957	9.6249
269.000000	75.932	10.1798
272.000000	75.906	10.4217
276.000000	75.903	10.8558
280.000000	75.883	11.1847
285.000000	75.837	11.7231
290.000000	75.864	12.4095
295.000000	75.905	13.0650
300.000000	75.966	13.2024
304.000000	75.985	13.3201
307.000000	75.994	13.4121
311.000000	75.982	13.2951
315.000000	75.945	13.3070
320.000000	75.922	13.2548
325.000000	75.883	13.3963
330.000000	75.819	13.6270
335.000000	75.782	13.9511
340.000000	75.751	14.2360
345.000000	75.713	14.5326
350.000000	75.679	14.7896
355.000000	75.635	15.0344
360.000000	75.608	15.5456
365.000000	75.582	15.9544
370.000000	75.532	16.3084
375.000000	75.504	16.5180
382.000000	75.483	17.1347
387.000000	75.454	17.5224
395.000000	75.409	18.0140
400.000000	75.388	18.4998
406.000000	75.338	18.9910
412.000000	75.313	19.3055
418.000000	75.292	19.8290
425.000000	75.267	20.4342
431.000000	75.225	20.8363
437.000000	75.208	21.2865
444.000000	75.193	21.7394
450.000000	75.160	22.3228
455.000000	75.145	22.6934
462.000000	75.108	23.1253
468.000000	75.098	23.6020
475.000000	75.073	24.2779
482.000000	75.057	24.9040
487.000000	75.048	25.3445
494.000000	75.025	25.7738
500.000000	74.987	26.1837
508.000000	74.976	26.9296
515.000000	74.950	27.4753
522.000000	74.927	27.9418
530.000000	74.922	28.7474
538.000000	74.902	29.2146
545.000000	74.890	30.0342
552.000000	74.886	30.6570
560.000000	74.869	31.2826
570.000000	74.847	32.1188
580.000000	74.803	33.0668
590.000000	74.806	34.0655
600.000000	74.771	34.6687
608.000000	74.776	35.4046
615.000000	74.805	35.9550
622.000000	74.793	36.5815
630.000000	74.758	37.3732
640.000000	74.784	38.2994
650.000000	74.786	39.0924
660.000000	74.774	39.8687
670.000000	74.805	40.7037
680.000000	74.795	41.6239
690.000000	74.828	42.5961
700.000000	74.811	43.4783
710.000000	74.829	44.4204
720.000000	74.835	45.3844
730.000000	74.885	46.3461
740.000000	74.908	47.0735
750.000000	74.920	48.0379
762.000000	74.940	49.0830
775.000000	74.997	50.2233
788.000000	75.081	51.5253
800.000000	75.080	52.5056
812.000000	75.166	53.6294
825.000000	75.218	54.8366
838.000000	75.296	55.9728
850.000000	75.339	56.8287
862.000000	75.421	57.8418
875.000000	75.509	59.1740
885.000000	75.606	59.9119
900.000000	75.725	61.2755
912.000000	75.784	62.0428
925.000000	75.909	63.0059
938.000000	75.999	63.9977
950.000000	76.099	64.8305
962.000000	76.228	65.6979
975.000000	76.332	66.6410
988.000000	76.477	67.4726
1000.000000	76.569	68.4038
1015.000000	76.745	68.9383
1030.000000	76.894	69.8386
1044.000000	77.022	70.6690
1060.000000	77.180	71.4538
1075.000000	77.348	72.0450
1090.000000	77.513	72.8150
1106.000000	77.674	73.4519
1120.000000	77.825	73.9385
1138.000000	78.044	74.5009
1150.000000	78.150	74.9658
1172.000000	78.377	75.5745
1180.000000	78.477	75.6565
1206.000000	78.739	76.2958
1220.000000	78.896	76.5924
1241.000000	79.094	76.9410
1250.000000	79.187	77.0862
1265.000000	79.355	77.2739
1280.000000	79.497	77.5025
1315.000000	79.857	77.7371
1320.000000	79.902	77.9584
1340.000000	80.106	77.9556
1360.000000	80.299	78.0047
1380.000000	80.491	78.1473
1400.000000	80.705	78.0776
1430.000000	80.990	77.8380
1450.000000	81.194	77.6462
1475.000000	81.428	77.3220
1500.000000	81.663	77.0220
1525.000000	81.889	76.4479
1550.000000	82.134	75.8677
1575.000000	82.347	75.0882
1600.000000	82.562	74.2815
1625.000000	82.761	73.2773
1650.000000	82.949	72.4035
1675.000000	83.135	71.0974
1700.000000	83.284	69.9895
1725.000000	83.428	68.6618
1750.000000	83.552	67.2309
1775.000000	83.645	65.7713
1800.000000	83.745	64.1800
1825.000000	83.794	62.7861
1850.000000	83.814	61.1967
1875.000000	83.843	59.7382
1900.000000	83.826	58.1815
1925.000000	83.801	56.6762
1950.000000	83.744	55.3307
1975.000000	83.682	54.0245
2000.000000	83.572	52.9234
2030.000000	83.455	51.3579
2060.000000	83.324	50.1388
2090.000000	83.173	48.9524
2120.000000	83.006	47.9456
2140.000000	82.908	47.3763
2180.000000	82.672	46.4817
2200.000000	82.545	46.0128
2240.000000	82.339	45.3072
2270.000000	82.162	44.9566
2300.000000	82.010	44.7721
2330.000000	81.844	44.5959
2360.000000	81.700	44.5882
2400.000000	81.517	44.5722
2430.000000	81.405	44.5561
2470.000000	81.236	44.6790
2500.000000	81.118	44.7350
2540.000000	80.988	45.2239
2580.000000	80.863	45.3150
2620.000000	80.746	45.7620
2650.000000	80.694	45.8929
2690.000000	80.614	46.2754
2720.000000	80.540	46.5497
2760.000000	80.469	46.8005
2800.000000	80.423	47.2797
2850.000000	80.348	47.6961
2900.000000	80.305	47.9697
2950.000000	80.254	48.0461
3000.000000	80.244	48.2608
3040.000000	80.149	48.7645
3070.000000	80.132	49.0670
3110.000000	80.110	49.1315
3150.000000	80.095	49.4428
3200.000000	80.065	49.8973
3250.000000	80.053	50.3773
3300.000000	80.069	50.5546
3350.000000	80.083	51.1897
3400.000000	80.181	51.5303
3450.000000	80.215	51.9727
3500.000000	80.313	52.1250
3550.000000	80.449	52.3120
3600.000000	80.562	52.0533
3650.000000	80.675	51.9164
3700.000000	80.802	51.1979
3750.000000	80.881	50.4333
3820.000000	80.934	49.4117
3870.000000	80.951	48.6773
3950.000000	80.969	48.0898
4000.000000	80.970	48.2291
4060.000000	81.020	47.8216
4120.000000	81.150	47.7150
4180.000000	81.312	47.5298
4250.000000	81.573	46.7373
4310.000000	81.822	45.5095
4370.000000	82.053	43.7790
4440.000000	82.230	41.1082
4500.000000	82.343	38.2135
4550.000000	82.355	36.0288
4620.000000	82.251	32.6398
4680.000000	82.106	29.9966
4750.000000	81.809	27.2545
4820.000000	81.479	25.1077
4870.000000	81.164	23.9664
4940.000000	80.802	22.9202
5000.000000	80.432	22.6158
5080.000000	80.028	22.2172
5150.000000	79.700	22.5901
5220.000000	79.419	23.3683
5300.000000	79.136	23.9667
5380.000000	78.907	25.1604
5450.000000	78.714	25.9776
5520.000000	78.562	26.8753
5600.000000	78.350	28.3868
5700.000000	78.097	30.8156
5800.000000	77.962	33.6101
5900.000000	77.909	36.9751
6000.000000	78.044	40.4255
6080.000000	78.201	42.6931
6150.000000	78.453	45.1493
6220.000000	78.745	47.0114
6300.000000	79.074	49.1656
6400.000000	79.607	51.0743
6500.000000	80.121	51.9987
6600.000000	80.584	52.2106
6700.000000	80.923	52.5453
6800.000000	81.229	53.8548
6900.000000	81.728	55.9497
7000.000000	82.390	57.6721
7100.000000	83.233	58.7609
7200.000000	84.151	58.4386
7300.000000	85.181	56.5757
7400.000000	86.154	53.2184
7500.000000	86.996	48.2951
7620.000000	87.702	40.4879
7750.000000	88.028	31.5218
7880.000000	87.892	23.5365
8000.000000	87.571	17.9244
8120.000000	87.268	13.9370
8250.000000	86.981	9.9742
8380.000000	86.625	6.2613
8500.000000	86.204	3.4735
8620.000000	85.731	1.7753
8750.000000	85.292	1.3983
8850.000000	85.037	1.5130
9000.000000	84.845	2.3947
9120.000000	84.852	3.1089
9250.000000	84.993	3.6722
9380.000000	85.256	3.7311
9500.000000	85.623	3.0884
9620.000000	86.083	1.3695
9750.000000	86.602	-1.8836
9880.000000	87.058	-7.2589
10000.000000	87.332	-13.7029
10150.000000	87.234	-23.1988
10300.000000	86.616	-32.8501
10440.000000	85.606	-40.4030
10600.000000	84.216	-45.8520
10750.000000	82.846	-48.4681
10900.000000	81.572	-49.1521
11060.000000	80.355	-48.5055
11200.000000	79.375	-46.8341
11380.000000	78.216	-44.1645
11500.000000	77.544	-41.8174
11720.000000	76.509	-36.6616
11800.000000	76.211	-34.8517
12060.000000	75.264	-28.6528
12200.000000	74.882	-25.0488
12410.000000	74.393	-19.9186
12500.000000	74.287	-17.6741
12650.000000	74.114	-13.6307
12800.000000	73.873	-9.3989
13150.000000	73.877	-1.8461
13200.000000	73.970	-0.6159
13400.000000	74.109	2.4200
13600.000000	74.358	5.4038
13800.000000	74.892	6.3963
14000.000000	75.212	6.6020
14300.000000	75.598	3.4562
14500.000000	75.495	-1.1310
14750.000000	74.936	-5.6379
15000.000000	74.077	-8.2051
15250.000000	73.332	-7.5984
15500.000000	72.405	-6.4095
15750.000000	71.693	-3.2940
16000.000000	71.507	-0.2089
16250.000000	71.437	1.6838
16500.000000	71.187	0.4055
16750.000000	70.490	3.5396
17000.000000	70.477	5.8271
17250.000000	70.689	10.5978
17500.000000	71.005	12.7487
17750.000000	71.478	13.4750
18000.000000	71.996	12.7884
18250.000000	72.604	10.8533
18500.000000	73.133	5.8493
18750.000000	73.418	-1.8472
19000.000000	73.273	-9.5943
19250.000000	72.487	-15.4334
19500.000000	72.035	-21.1694
19750.000000	71.339	-24.3319
