* Measurement data measured by REW V5.20.13
* Source: USB Sound Device        , MICROPHONE, R, volume: 0.697
* Format: 256k Log Swept Sine, 1 sweep at -6.0 dBFS with no timing reference
* Dated: Dec 4, 2023 1:28:50 AM
* REW Settings:
*  C-weighting compensation: Off
*  Target level: 75.0 dB
* Note: @iemworld / EPZ Q5 / XDUOO XD-05 PRO # AKM4499 - MUSES 01 / www.iem-world.com; 
* Measurement: EPZ Q5 OR-S-W L
* Smoothing: None
* Frequency Step: 1/48 octave
* Start Frequency: 20.000 Hz
*
* Freq(Hz)	SPL(dB)	Phase(degrees)
20.000000	84.335	-170.6989
20.299999	84.355	-170.5838
20.600000	84.361	-170.4472
20.900000	84.353	-170.3481
21.200001	84.325	-170.3231
21.400000	84.293	-170.3390
21.799999	84.203	-170.4165
22.000000	84.149	-170.4723
22.400000	84.039	-170.6448
22.700001	83.961	-170.8944
23.000000	83.885	-171.3046
23.299999	83.807	-171.8680
23.600000	83.725	-172.5349
24.000000	83.617	-173.4878
24.299999	83.550	-174.2020
24.700001	83.492	-175.1634
25.000000	83.473	-175.9197
25.400000	83.471	-176.9743
25.799999	83.481	-177.9966
26.200001	83.502	-178.8781
26.500000	83.526	-179.4206
26.900000	83.569	179.9958
27.200001	83.604	179.6426
27.600000	83.647	179.2802
28.000000	83.681	179.0557
28.500000	83.711	178.9355
29.000000	83.726	178.8679
29.500000	83.711	178.7804
30.000000	83.661	178.7117
30.400000	83.609	178.6719
30.700001	83.568	178.6123
31.100000	83.511	178.4345
31.500000	83.445	178.1376
32.000000	83.351	177.6783
32.500000	83.263	177.1963
33.000000	83.197	176.6468
33.500000	83.151	175.9749
34.000000	83.110	175.2613
34.500000	83.077	174.6417
35.000000	83.064	174.1429
35.500000	83.070	173.6973
36.000000	83.081	173.2675
36.500000	83.082	172.8817
37.000000	83.069	172.5836
37.500000	83.045	172.3926
38.200001	83.002	172.2571
38.700001	82.971	172.1532
39.500000	82.902	171.8495
40.000000	82.844	171.6423
40.599998	82.779	171.4010
41.200001	82.726	171.0653
41.799999	82.669	170.6420
42.500000	82.603	170.2001
43.099998	82.563	169.8630
43.700001	82.529	169.4939
44.400002	82.481	169.1022
45.000000	82.441	168.8595
45.500000	82.411	168.6826
46.200001	82.367	168.4302
46.799999	82.326	168.2136
47.500000	82.274	167.9628
48.200001	82.222	167.7265
48.700001	82.190	167.5518
49.400002	82.146	167.2603
50.000000	82.104	167.0089
50.799999	82.048	166.7435
51.500000	82.002	166.5311
52.200001	81.951	166.3460
53.000000	81.891	166.1898
53.799999	81.830	166.0209
54.500000	81.775	165.8706
55.200001	81.725	165.6860
56.000000	81.666	165.3927
57.000000	81.589	165.0519
58.000000	81.525	164.7969
59.000000	81.475	164.6186
60.000000	81.429	164.4602
60.799999	81.384	164.3483
61.500000	81.335	164.2562
62.200001	81.278	164.1877
63.000000	81.211	164.1251
64.000000	81.131	163.9689
65.000000	81.052	163.7911
66.000000	80.989	163.6016
67.000000	80.931	163.3988
68.000000	80.877	163.3112
69.000000	80.837	163.2203
70.000000	80.772	163.0873
71.000000	80.702	163.1216
72.000000	80.643	163.0481
73.000000	80.573	162.9276
74.000000	80.509	162.8059
75.000000	80.446	162.6697
76.199997	80.370	162.5753
77.500000	80.295	162.5219
78.800003	80.208	162.5827
80.000000	80.163	162.5601
81.199997	80.072	162.3731
82.500000	80.000	162.5087
83.800003	79.923	162.4326
85.000000	79.871	162.6059
86.199997	79.806	162.4091
87.500000	79.704	162.5362
88.500000	79.656	162.5273
90.000000	79.558	162.4810
91.199997	79.495	162.5547
92.500000	79.434	162.5880
93.800003	79.365	162.6629
95.000000	79.300	162.6851
96.199997	79.222	162.7811
97.500000	79.164	162.8203
98.800003	79.087	162.8107
100.000000	79.020	162.8807
101.500000	78.947	163.0776
103.000000	78.863	163.0891
104.400002	78.762	163.2607
106.000000	78.671	163.4419
107.500000	78.572	163.5726
109.000000	78.502	163.7481
110.599998	78.381	163.8336
112.000000	78.283	164.1840
113.800003	78.185	164.4525
115.000000	78.074	164.6674
117.199997	77.893	165.4174
118.000000	77.838	165.7359
120.599998	77.581	167.5111
122.000000	77.525	168.6308
124.099998	77.531	171.0707
125.000000	77.587	172.0738
126.500000	77.801	173.3939
128.000000	78.038	173.5861
131.500000	78.344	171.9718
132.000000	78.353	171.7391
134.000000	78.343	170.8995
136.000000	78.267	170.3568
138.000000	78.204	170.0027
140.000000	78.110	169.6231
143.000000	77.987	169.6044
145.000000	77.903	169.6487
147.500000	77.798	169.7125
150.000000	77.706	169.9172
152.500000	77.636	170.1520
155.000000	77.536	170.3780
157.500000	77.446	170.6130
160.000000	77.365	170.9212
162.500000	77.286	171.2281
165.000000	77.213	171.6997
167.500000	77.134	171.9549
170.000000	77.073	172.3148
172.500000	76.993	172.8126
175.000000	76.909	173.1753
177.500000	76.845	173.7221
180.000000	76.774	174.2866
182.500000	76.712	174.9839
185.000000	76.658	175.7081
187.500000	76.646	176.4301
190.000000	76.670	176.9571
192.500000	76.712	177.4804
195.000000	76.710	177.7941
197.500000	76.718	177.8771
200.000000	76.715	177.9891
203.000000	76.670	178.1037
206.000000	76.628	178.3011
209.000000	76.578	178.4999
212.000000	76.527	178.7208
214.000000	76.488	178.9504
218.000000	76.422	179.2527
220.000000	76.379	179.6373
224.000000	76.322	-179.8793
227.000000	76.282	-179.5292
230.000000	76.225	-179.1464
233.000000	76.160	-178.6208
236.000000	76.122	-178.0847
240.000000	76.059	-177.6775
243.000000	76.039	-177.1298
247.000000	76.028	-176.5278
250.000000	75.998	-176.1425
254.000000	75.966	-175.6228
258.000000	75.950	-175.2821
262.000000	75.898	-174.7614
265.000000	75.857	-174.5283
269.000000	75.833	-173.9559
272.000000	75.788	-173.5529
276.000000	75.751	-173.1240
280.000000	75.713	-172.6855
285.000000	75.676	-171.8729
290.000000	75.616	-171.1713
295.000000	75.571	-170.7074
300.000000	75.518	-170.1509
304.000000	75.490	-169.4902
307.000000	75.473	-169.2397
311.000000	75.459	-168.5711
315.000000	75.427	-168.0914
320.000000	75.374	-167.3286
325.000000	75.346	-166.6509
330.000000	75.320	-166.3442
335.000000	75.290	-165.5670
340.000000	75.261	-165.0237
345.000000	75.228	-164.2438
350.000000	75.193	-163.6392
355.000000	75.169	-163.0440
360.000000	75.155	-162.3401
365.000000	75.131	-161.8121
370.000000	75.096	-161.1432
375.000000	75.079	-160.5415
382.000000	75.057	-159.7601
387.000000	75.033	-159.0503
395.000000	75.003	-158.2404
400.000000	74.986	-157.5921
406.000000	74.956	-156.9188
412.000000	74.926	-156.1566
418.000000	74.932	-155.4680
425.000000	74.885	-154.6852
431.000000	74.888	-153.8671
437.000000	74.858	-153.1856
444.000000	74.856	-152.4953
450.000000	74.835	-151.8020
455.000000	74.817	-151.3020
462.000000	74.802	-150.3920
468.000000	74.810	-149.7506
475.000000	74.776	-148.9346
482.000000	74.779	-148.0556
487.000000	74.769	-147.6319
494.000000	74.771	-146.6920
500.000000	74.723	-146.2025
508.000000	74.738	-145.2582
515.000000	74.721	-144.5071
522.000000	74.725	-143.6505
530.000000	74.704	-142.7692
538.000000	74.715	-142.0350
545.000000	74.708	-141.2512
552.000000	74.697	-140.3691
560.000000	74.696	-139.5406
570.000000	74.677	-138.5922
580.000000	74.653	-137.4256
590.000000	74.676	-136.4364
600.000000	74.663	-135.3876
608.000000	74.667	-134.4651
615.000000	74.692	-133.7721
622.000000	74.674	-133.0486
630.000000	74.661	-132.3414
640.000000	74.662	-131.2253
650.000000	74.661	-130.1192
660.000000	74.661	-129.2122
670.000000	74.616	-127.9326
680.000000	74.607	-126.8902
690.000000	74.535	-125.7569
700.000000	74.468	-123.8239
710.000000	74.504	-121.3447
720.000000	74.797	-119.6696
730.000000	74.947	-118.8213
740.000000	75.082	-118.5815
750.000000	75.130	-118.3083
762.000000	75.151	-117.2993
775.000000	75.186	-116.3043
788.000000	75.177	-115.2614
800.000000	75.237	-113.9981
812.000000	75.273	-113.1711
825.000000	75.338	-111.7307
838.000000	75.373	-110.6198
850.000000	75.458	-109.4949
862.000000	75.480	-108.5404
875.000000	75.563	-107.1329
885.000000	75.614	-106.5002
900.000000	75.693	-105.0618
912.000000	75.770	-103.9416
925.000000	75.855	-102.8584
938.000000	75.934	-101.7977
950.000000	76.019	-100.7730
962.000000	76.103	-99.9042
975.000000	76.207	-98.9276
988.000000	76.278	-97.9923
1000.000000	76.373	-97.4433
1015.000000	76.457	-95.9408
1030.000000	76.562	-94.9682
1044.000000	76.665	-94.1721
1060.000000	76.772	-93.0710
1075.000000	76.882	-92.3290
1090.000000	76.985	-91.4214
1106.000000	77.086	-90.6617
1120.000000	77.183	-89.7601
1138.000000	77.317	-88.6509
1150.000000	77.398	-88.1619
1172.000000	77.538	-87.0903
1180.000000	77.578	-86.5479
1206.000000	77.754	-85.4278
1220.000000	77.823	-84.8087
1241.000000	77.950	-83.8993
1250.000000	78.004	-83.3834
1265.000000	78.075	-82.8637
1280.000000	78.186	-82.0887
1315.000000	78.339	-80.6053
1320.000000	78.381	-80.4104
1340.000000	78.500	-79.7120
1360.000000	78.582	-78.8487
1380.000000	78.698	-78.1103
1400.000000	78.765	-77.2272
1430.000000	78.924	-76.0866
1450.000000	79.015	-75.4075
1475.000000	79.141	-74.4647
1500.000000	79.230	-73.4379
1525.000000	79.349	-72.6086
1550.000000	79.480	-71.6420
1575.000000	79.573	-70.6362
1600.000000	79.705	-69.7448
1625.000000	79.816	-68.7185
1650.000000	79.940	-67.9676
1675.000000	80.061	-67.0439
1700.000000	80.169	-66.3551
1725.000000	80.286	-65.5089
1750.000000	80.387	-64.6862
1775.000000	80.503	-63.9397
1800.000000	80.631	-63.1837
1825.000000	80.754	-62.5077
1850.000000	80.867	-61.8777
1875.000000	81.010	-61.2061
1900.000000	81.092	-60.5819
1925.000000	81.215	-59.8761
1950.000000	81.336	-59.2441
1975.000000	81.443	-58.6597
2000.000000	81.550	-58.3364
2030.000000	81.688	-57.5837
2060.000000	81.805	-56.9424
2090.000000	81.948	-56.3928
2120.000000	82.058	-55.8718
2140.000000	82.147	-55.6011
2180.000000	82.301	-54.8768
2200.000000	82.386	-54.5353
2240.000000	82.513	-54.0235
2270.000000	82.610	-53.6537
2300.000000	82.704	-53.3013
2330.000000	82.804	-53.0391
2360.000000	82.870	-52.3552
2400.000000	82.949	-51.9488
2430.000000	83.016	-51.4755
2470.000000	83.088	-50.5440
2500.000000	83.151	-49.7311
2540.000000	83.246	-48.5827
2580.000000	83.414	-47.2689
2620.000000	83.638	-46.0075
2650.000000	83.865	-45.3471
2690.000000	84.187	-45.0474
2720.000000	84.423	-45.0526
2760.000000	84.679	-45.7650
2800.000000	84.887	-46.6753
2850.000000	85.020	-48.0116
2900.000000	85.078	-48.9624
2950.000000	85.094	-49.8157
3000.000000	85.056	-50.3764
3040.000000	85.027	-50.8091
3070.000000	84.981	-50.9375
3110.000000	84.911	-51.1278
3150.000000	84.863	-50.8983
3200.000000	84.774	-50.6511
3250.000000	84.698	-50.1667
3300.000000	84.657	-49.6173
3350.000000	84.647	-48.8176
3400.000000	84.637	-48.1802
3450.000000	84.642	-47.4667
3500.000000	84.667	-46.8126
3550.000000	84.707	-46.2138
3600.000000	84.729	-45.7478
3650.000000	84.769	-45.4362
3700.000000	84.777	-45.1936
3750.000000	84.760	-44.8057
3820.000000	84.769	-44.3601
3870.000000	84.752	-43.8998
3950.000000	84.736	-43.0882
4000.000000	84.768	-42.8071
4060.000000	84.763	-42.0041
4120.000000	84.742	-41.3951
4180.000000	84.755	-40.7268
4250.000000	84.774	-40.1022
4310.000000	84.791	-39.4892
4370.000000	84.807	-39.0537
4440.000000	84.831	-38.4890
4500.000000	84.848	-38.1568
4550.000000	84.867	-37.6765
4620.000000	84.897	-37.4937
4680.000000	84.899	-37.2153
4750.000000	84.910	-36.7877
4820.000000	84.900	-36.5885
4870.000000	84.891	-36.5491
4940.000000	84.863	-36.3784
5000.000000	84.843	-36.2711
5080.000000	84.799	-35.9785
5150.000000	84.731	-35.6911
5220.000000	84.704	-35.5099
5300.000000	84.641	-35.3062
5380.000000	84.568	-35.1660
5450.000000	84.497	-35.2955
5520.000000	84.377	-35.2231
5600.000000	84.221	-35.2069
5700.000000	83.961	-34.9240
5800.000000	83.689	-34.3406
5900.000000	83.368	-33.0625
6000.000000	83.102	-30.6672
6080.000000	83.188	-28.6899
6150.000000	83.175	-28.7812
6220.000000	83.040	-28.7028
6300.000000	82.809	-28.0127
6400.000000	82.587	-26.4633
6500.000000	82.355	-24.7201
6600.000000	82.191	-22.5942
6700.000000	82.048	-20.6296
6800.000000	81.960	-18.5906
6900.000000	81.883	-16.3580
7000.000000	81.858	-14.0403
7100.000000	81.902	-12.0166
7200.000000	81.961	-9.9706
7300.000000	82.079	-8.0763
7400.000000	82.199	-6.5518
7500.000000	82.379	-5.2484
7620.000000	82.603	-3.6866
7750.000000	82.929	-3.1126
7880.000000	83.274	-2.9547
8000.000000	83.608	-3.9737
8120.000000	83.912	-5.5021
8250.000000	84.199	-8.6346
8380.000000	84.334	-12.7460
8500.000000	84.244	-17.2213
8620.000000	83.979	-21.9836
8750.000000	83.361	-26.7043
8850.000000	82.768	-30.0680
9000.000000	81.662	-33.5628
9120.000000	80.701	-35.1126
9250.000000	79.590	-35.4555
9380.000000	78.421	-34.1778
9500.000000	77.474	-31.7719
9620.000000	76.598	-29.0237
9750.000000	75.769	-24.7082
9880.000000	75.066	-20.3972
10000.000000	74.410	-15.8206
10150.000000	73.929	-10.8687
10300.000000	73.349	-4.6105
10440.000000	73.076	1.2975
10600.000000	72.811	7.3868
10750.000000	72.560	12.8411
10900.000000	72.497	18.9456
11060.000000	72.441	24.2443
11200.000000	72.462	30.0217
11380.000000	72.536	37.1665
11500.000000	72.682	41.5591
11720.000000	73.253	50.0032
11800.000000	73.460	52.4995
12060.000000	74.408	61.7070
12200.000000	75.144	65.5498
12410.000000	76.479	71.5237
12500.000000	77.179	73.1334
12650.000000	78.497	75.9592
12800.000000	80.118	76.2566
13150.000000	84.953	59.4617
13200.000000	85.508	53.2020
13400.000000	85.720	22.3162
13600.000000	83.050	1.7326
13800.000000	80.188	-4.8223
14000.000000	77.889	-5.1095
14300.000000	75.399	0.1339
14500.000000	74.118	4.0176
14750.000000	72.997	10.5624
15000.000000	72.284	17.6349
15250.000000	71.759	24.4298
15500.000000	71.867	29.5010
15750.000000	72.065	33.8849
16000.000000	72.603	38.2200
16250.000000	73.513	36.0372
16500.000000	74.016	32.1775
16750.000000	74.427	25.4291
17000.000000	74.012	16.6032
17250.000000	73.023	8.4634
17500.000000	71.730	4.4295
17750.000000	70.227	2.8339
18000.000000	68.694	4.9960
18250.000000	67.395	7.5134
18500.000000	66.857	11.8752
18750.000000	66.025	14.4047
19000.000000	66.094	20.9923
19250.000000	66.115	21.7390
19500.000000	66.170	19.3094
19750.000000	65.650	14.8797
