* Measurement data measured by REW V5.20.13
* Source: USB Sound Device        , MICROPHONE, R, volume: 0.697
* Format: 256k Log Swept Sine, 1 sweep at -6.0 dBFS with no timing reference
* Dated: Dec 4, 2023 2:28:43 AM
* REW Settings:
*  C-weighting compensation: Off
*  Target level: 75.0 dB
* Note: @iemworld / EPZ G10 / XDUOO XD-05 PRO # AKM4499 - MUSES 01 / www.iem-world.com; 
* Measurement: EPZ G10 FOAM R
* Smoothing: None
* Frequency Step: 1/48 octave
* Start Frequency: 20.000 Hz
*
* Freq(Hz)	SPL(dB)	Phase(degrees)
20.000000	81.279	35.7728
20.299999	81.213	34.4550
20.600000	81.164	33.0528
20.900000	81.139	31.6520
21.200001	81.149	30.2986
21.400000	81.177	29.4125
21.799999	81.272	27.6642
22.000000	81.331	26.8146
22.400000	81.454	25.2478
22.700001	81.544	24.2927
23.000000	81.636	23.5904
23.299999	81.737	23.1041
23.600000	81.845	22.7532
24.000000	81.987	22.3731
24.299999	82.073	22.1190
24.700001	82.148	21.8734
25.000000	82.176	21.8068
25.400000	82.192	21.8632
25.799999	82.194	21.9554
26.200001	82.181	21.9376
26.500000	82.155	21.8238
26.900000	82.096	21.5662
27.200001	82.039	21.3161
27.600000	81.959	20.9003
28.000000	81.882	20.3528
28.500000	81.795	19.4752
29.000000	81.726	18.4625
29.500000	81.691	17.3623
30.000000	81.689	16.1679
30.400000	81.699	15.1968
30.700001	81.709	14.5202
31.100000	81.729	13.7543
31.500000	81.762	13.1475
32.000000	81.818	12.5333
32.500000	81.873	12.0139
33.000000	81.909	11.6184
33.500000	81.928	11.3694
34.000000	81.934	11.2060
34.500000	81.926	11.0581
35.000000	81.907	10.8913
35.500000	81.884	10.6375
36.000000	81.852	10.2171
36.500000	81.801	9.6516
37.000000	81.732	9.0658
37.500000	81.663	8.5399
38.200001	81.588	7.8782
38.700001	81.554	7.4586
39.500000	81.546	6.8779
40.000000	81.564	6.4359
40.599998	81.569	5.8089
41.200001	81.543	5.3332
41.799999	81.520	5.0885
42.500000	81.515	4.7614
43.099998	81.489	4.3346
43.700001	81.438	3.9928
44.400002	81.397	3.7055
45.000000	81.381	3.2813
45.500000	81.350	2.7985
46.200001	81.273	2.3145
46.799999	81.234	2.2383
47.500000	81.261	2.0420
48.200001	81.280	1.3979
48.700001	81.251	0.9264
49.400002	81.191	0.5765
50.000000	81.155	0.3670
50.799999	81.095	0.0254
51.500000	81.041	-0.1221
52.200001	81.020	-0.3470
53.000000	80.976	-0.9052
53.799999	80.894	-1.1906
54.500000	80.871	-1.2109
55.200001	80.878	-1.4837
56.000000	80.837	-1.9290
57.000000	80.765	-1.9852
58.000000	80.740	-2.1499
59.000000	80.657	-2.4701
60.000000	80.591	-2.5695
60.799999	80.552	-2.8555
61.500000	80.509	-3.1121
62.200001	80.478	-3.3261
63.000000	80.449	-3.6124
64.000000	80.408	-3.8722
65.000000	80.375	-4.0438
66.000000	80.333	-4.2188
67.000000	80.274	-4.3471
68.000000	80.216	-4.4551
69.000000	80.155	-4.6416
70.000000	80.101	-4.7799
71.000000	80.064	-5.0137
72.000000	80.018	-5.2439
73.000000	79.973	-5.4179
74.000000	79.916	-5.5293
75.000000	79.861	-5.5009
76.199997	79.820	-5.5344
77.500000	79.755	-5.7523
78.800003	79.690	-5.8463
80.000000	79.636	-5.9571
81.199997	79.587	-5.9743
82.500000	79.533	-6.1101
83.800003	79.478	-6.0608
85.000000	79.445	-6.3411
86.199997	79.358	-6.4188
87.500000	79.317	-6.3653
88.500000	79.269	-6.3705
90.000000	79.220	-6.2898
91.199997	79.162	-6.3054
92.500000	79.110	-6.2757
93.800003	79.059	-6.3194
95.000000	79.016	-6.3619
96.199997	78.970	-6.3871
97.500000	78.913	-6.3126
98.800003	78.868	-6.1981
100.000000	78.827	-6.1735
101.500000	78.759	-6.2045
103.000000	78.709	-6.0767
104.400002	78.671	-6.1085
106.000000	78.601	-5.9783
107.500000	78.564	-5.7951
109.000000	78.510	-5.7546
110.599998	78.452	-5.7106
112.000000	78.401	-5.6260
113.800003	78.331	-5.5132
115.000000	78.305	-5.3649
117.199997	78.252	-5.2929
118.000000	78.220	-5.2160
120.599998	78.156	-4.9655
122.000000	78.100	-4.7916
124.099998	78.030	-4.6203
125.000000	78.005	-4.5831
126.500000	77.959	-4.4495
128.000000	77.941	-4.3077
131.500000	77.831	-3.9351
132.000000	77.820	-3.8639
134.000000	77.748	-3.7184
136.000000	77.705	-3.4538
138.000000	77.674	-3.2627
140.000000	77.627	-2.9739
143.000000	77.546	-2.6545
145.000000	77.482	-2.4537
147.500000	77.445	-2.1755
150.000000	77.393	-1.8598
152.500000	77.323	-1.5129
155.000000	77.275	-1.2522
157.500000	77.226	-0.8699
160.000000	77.173	-0.6337
162.500000	77.136	-0.3745
165.000000	77.077	-0.0383
167.500000	77.044	0.3008
170.000000	76.994	0.5598
172.500000	76.955	0.9053
175.000000	76.907	1.3416
177.500000	76.869	1.5789
180.000000	76.822	1.9562
182.500000	76.798	2.2224
185.000000	76.752	2.6154
187.500000	76.693	2.9397
190.000000	76.663	3.2729
192.500000	76.631	3.5513
195.000000	76.617	3.9557
197.500000	76.574	4.2964
200.000000	76.530	4.5802
203.000000	76.489	4.9250
206.000000	76.467	5.3809
209.000000	76.426	5.9184
212.000000	76.381	6.2927
214.000000	76.362	6.4194
218.000000	76.312	7.1086
220.000000	76.295	7.3752
224.000000	76.254	7.9514
227.000000	76.234	8.1879
230.000000	76.217	8.7238
233.000000	76.167	9.0591
236.000000	76.124	9.5414
240.000000	76.101	10.2357
243.000000	76.076	10.4992
247.000000	76.034	10.8666
250.000000	76.028	11.2676
254.000000	76.000	11.9293
258.000000	75.968	12.4367
262.000000	75.930	12.9039
265.000000	75.913	13.3881
269.000000	75.886	13.9624
272.000000	75.879	14.3726
276.000000	75.818	14.9260
280.000000	75.817	15.4175
285.000000	75.775	16.0081
290.000000	75.769	16.7796
295.000000	75.746	17.2482
300.000000	75.717	17.9770
304.000000	75.697	18.5425
307.000000	75.669	18.9181
311.000000	75.653	19.3147
315.000000	75.633	19.8010
320.000000	75.631	20.6327
325.000000	75.606	21.1737
330.000000	75.569	21.8267
335.000000	75.580	22.4390
340.000000	75.556	23.0636
345.000000	75.534	23.6716
350.000000	75.522	24.2187
355.000000	75.509	24.8493
360.000000	75.491	25.5738
365.000000	75.471	26.1320
370.000000	75.466	26.6065
375.000000	75.462	27.3290
382.000000	75.443	28.0473
387.000000	75.427	28.7071
395.000000	75.437	29.6779
400.000000	75.414	30.2234
406.000000	75.417	30.9912
412.000000	75.393	31.4816
418.000000	75.397	32.3706
425.000000	75.388	33.1465
431.000000	75.381	33.7779
437.000000	75.370	34.5627
444.000000	75.350	35.2750
450.000000	75.347	36.1093
455.000000	75.350	36.5609
462.000000	75.358	37.3349
468.000000	75.342	38.0700
475.000000	75.339	38.9794
482.000000	75.335	39.6103
487.000000	75.355	40.1942
494.000000	75.340	40.8360
500.000000	75.344	41.5050
508.000000	75.344	42.3548
515.000000	75.329	43.0922
522.000000	75.348	43.8701
530.000000	75.359	44.8240
538.000000	75.352	45.7708
545.000000	75.384	46.5596
552.000000	75.350	47.3187
560.000000	75.381	47.9989
570.000000	75.400	49.1448
580.000000	75.386	50.3216
590.000000	75.392	51.5021
600.000000	75.411	52.3960
608.000000	75.437	53.3373
615.000000	75.450	54.0579
622.000000	75.440	54.7617
630.000000	75.463	55.6511
640.000000	75.474	56.5581
650.000000	75.502	57.7173
660.000000	75.555	58.8990
670.000000	75.576	59.8851
680.000000	75.602	60.7209
690.000000	75.638	61.8549
700.000000	75.682	63.0276
710.000000	75.671	63.9764
720.000000	75.744	65.0498
730.000000	75.738	65.9595
740.000000	75.814	67.1224
750.000000	75.849	68.0002
762.000000	75.880	69.1957
775.000000	75.930	70.6068
788.000000	76.009	71.9207
800.000000	76.076	73.1100
812.000000	76.133	74.2929
825.000000	76.220	75.5440
838.000000	76.275	76.7344
850.000000	76.340	78.1224
862.000000	76.429	78.9677
875.000000	76.488	80.2597
885.000000	76.584	81.2286
900.000000	76.666	82.5610
912.000000	76.768	83.5148
925.000000	76.845	84.6792
938.000000	76.974	85.6492
950.000000	77.056	86.8829
962.000000	77.149	87.8565
975.000000	77.216	88.7499
988.000000	77.328	89.7530
1000.000000	77.393	90.4530
1015.000000	77.538	91.6470
1030.000000	77.696	92.7582
1044.000000	77.795	93.6502
1060.000000	77.919	94.7378
1075.000000	78.063	95.6380
1090.000000	78.172	96.5069
1106.000000	78.295	97.4847
1120.000000	78.404	98.2934
1138.000000	78.556	99.1837
1150.000000	78.626	99.8945
1172.000000	78.817	101.0075
1180.000000	78.846	101.4403
1206.000000	79.045	102.5997
1220.000000	79.129	103.2601
1241.000000	79.270	104.3587
1250.000000	79.343	104.7914
1265.000000	79.451	105.6160
1280.000000	79.550	106.2108
1315.000000	79.827	107.8977
1320.000000	79.856	108.1170
1340.000000	80.002	108.8620
1360.000000	80.143	109.5775
1380.000000	80.272	110.3358
1400.000000	80.409	111.2301
1430.000000	80.607	112.3015
1450.000000	80.719	112.9851
1475.000000	80.892	113.8898
1500.000000	81.046	114.8379
1525.000000	81.213	115.6264
1550.000000	81.368	116.4904
1575.000000	81.531	117.3884
1600.000000	81.691	118.0923
1625.000000	81.847	118.9424
1650.000000	82.015	119.5695
1675.000000	82.163	120.2551
1700.000000	82.340	120.9343
1725.000000	82.495	121.6258
1750.000000	82.658	122.1657
1775.000000	82.825	122.7415
1800.000000	82.979	123.2686
1825.000000	83.130	123.7222
1850.000000	83.292	124.2559
1875.000000	83.454	124.5732
1900.000000	83.613	124.9515
1925.000000	83.763	125.3245
1950.000000	83.927	125.5199
1975.000000	84.063	125.8700
2000.000000	84.245	125.9711
2030.000000	84.389	126.1411
2060.000000	84.565	126.2156
2090.000000	84.711	126.3527
2120.000000	84.878	126.3557
2140.000000	84.964	126.4044
2180.000000	85.156	126.2918
2200.000000	85.262	126.2587
2240.000000	85.414	125.9868
2270.000000	85.514	125.7808
2300.000000	85.623	125.5970
2330.000000	85.730	125.3399
2360.000000	85.807	125.0848
2400.000000	85.902	124.7121
2430.000000	85.967	124.4652
2470.000000	86.028	124.0717
2500.000000	86.073	123.7873
2540.000000	86.108	123.4695
2580.000000	86.123	123.1879
2620.000000	86.127	122.9761
2650.000000	86.125	122.7627
2690.000000	86.116	122.6259
2720.000000	86.096	122.5626
2760.000000	86.078	122.5585
2800.000000	86.037	122.5386
2850.000000	85.983	122.7497
2900.000000	85.944	122.9114
2950.000000	85.878	123.2952
3000.000000	85.848	123.6290
3040.000000	85.774	124.1751
3070.000000	85.749	124.4840
3110.000000	85.707	124.8888
3150.000000	85.674	125.5422
3200.000000	85.661	126.2650
3250.000000	85.625	127.0074
3300.000000	85.604	127.8205
3350.000000	85.593	128.7325
3400.000000	85.594	129.5608
3450.000000	85.606	130.4313
3500.000000	85.632	131.3904
3550.000000	85.667	132.1127
3600.000000	85.720	132.9729
3650.000000	85.775	133.7830
3700.000000	85.842	134.5453
3750.000000	85.935	135.2328
3820.000000	86.037	135.9996
3870.000000	86.149	136.5002
3950.000000	86.323	137.0339
4000.000000	86.408	137.2279
4060.000000	86.561	137.4223
4120.000000	86.697	137.2706
4180.000000	86.831	137.0157
4250.000000	86.958	136.3584
4310.000000	87.044	135.5688
4370.000000	87.127	134.7130
4440.000000	87.148	133.3678
4500.000000	87.141	132.0991
4550.000000	87.089	130.9911
4620.000000	86.962	129.5799
4680.000000	86.822	128.1947
4750.000000	86.577	126.8467
4820.000000	86.324	125.6281
4870.000000	86.098	125.0177
4940.000000	85.749	124.2820
5000.000000	85.436	124.0062
5080.000000	84.978	123.8152
5150.000000	84.573	124.2232
5220.000000	84.187	124.6672
5300.000000	83.731	125.5390
5380.000000	83.316	126.9967
5450.000000	82.920	128.3513
5520.000000	82.579	129.9760
5600.000000	82.201	131.7980
5700.000000	81.787	134.6330
5800.000000	81.381	137.5551
5900.000000	81.045	140.7712
6000.000000	80.739	144.0455
6080.000000	80.516	147.0479
6150.000000	80.390	149.6800
6220.000000	80.236	152.0760
6300.000000	80.133	154.8014
6400.000000	80.027	158.4128
6500.000000	79.949	161.8691
6600.000000	79.934	165.5556
6700.000000	79.969	168.8880
6800.000000	80.074	172.5926
6900.000000	80.148	175.4622
7000.000000	80.334	178.3271
7100.000000	80.559	-178.7917
7200.000000	80.883	-176.0181
7300.000000	81.208	-174.4710
7400.000000	81.585	-172.6136
7500.000000	82.018	-171.6799
7620.000000	82.509	-171.7744
7750.000000	83.055	-173.2580
7880.000000	83.391	-176.2696
8000.000000	83.501	179.9352
8120.000000	83.367	175.9847
8250.000000	82.956	172.5823
8380.000000	82.368	169.7576
8500.000000	81.756	168.6738
8620.000000	81.083	168.4069
8750.000000	80.351	168.9400
8850.000000	79.862	170.3160
9000.000000	79.158	172.7866
9120.000000	78.604	175.4665
9250.000000	78.155	178.6569
9380.000000	77.795	-177.7299
9500.000000	77.547	-174.5386
9620.000000	77.412	-170.6028
9750.000000	77.320	-166.9144
9880.000000	77.347	-163.2802
10000.000000	77.440	-159.7178
10150.000000	77.754	-156.2167
10300.000000	78.190	-152.8514
10440.000000	78.684	-151.4488
10600.000000	79.431	-151.1601
10750.000000	80.111	-153.8265
10900.000000	80.581	-159.2412
11060.000000	80.419	-167.0006
11200.000000	79.674	-171.9797
11380.000000	78.305	-173.5363
11500.000000	77.635	-171.4455
11720.000000	77.267	-166.5784
11800.000000	77.424	-166.0994
12060.000000	77.485	-169.4521
12200.000000	77.003	-173.3676
12410.000000	75.909	-176.5742
12500.000000	75.399	-177.3344
12650.000000	74.366	-176.8234
12800.000000	73.543	-174.9343
13150.000000	71.826	-168.9200
13200.000000	71.618	-167.0783
13400.000000	70.884	-162.9899
13600.000000	70.395	-158.6729
13800.000000	69.835	-154.1842
14000.000000	69.525	-150.7437
14300.000000	69.083	-144.1754
14500.000000	68.915	-142.2604
14750.000000	68.775	-139.2766
15000.000000	68.497	-137.1227
15250.000000	68.275	-135.8331
15500.000000	67.754	-134.7382
15750.000000	67.200	-133.1543
16000.000000	66.095	-130.9667
16250.000000	65.795	-127.5385
16500.000000	64.826	-123.8333
16750.000000	64.816	-118.0620
17000.000000	64.519	-113.1088
17250.000000	64.960	-109.2038
17500.000000	64.783	-105.6774
17750.000000	65.447	-101.4052
18000.000000	65.704	-99.0517
18250.000000	66.821	-105.4300
18500.000000	66.947	-110.4225
18750.000000	66.239	-119.1028
19000.000000	65.286	-124.9591
19250.000000	63.670	-130.0637
19500.000000	61.907	-135.7979
19750.000000	60.444	-132.3575
