* Measurement data measured by REW V5.20.13
* Source: USB Sound Device        , MICROPHONE, R, volume: 0.697
* Format: 256k Log Swept Sine, 1 sweep at -6.0 dBFS with no timing reference
* Dated: Dec 4, 2023 3:31:57 AM
* REW Settings:
*  C-weighting compensation: Off
*  Target level: 75.0 dB
* Note: @iemworld / EPZ Q1 / XDUOO XD-05 PRO # AKM4499 - MUSES 01 / www.iem-world.com; 
* Measurement: EPZ Q1 JVC L
* Smoothing: None
* Frequency Step: 1/48 octave
* Start Frequency: 20.000 Hz
*
* Freq(Hz)	SPL(dB)	Phase(degrees)
20.000000	86.554	-148.3241
20.299999	86.631	-148.6059
20.600000	86.696	-148.8434
20.900000	86.746	-149.0787
21.200001	86.778	-149.3295
21.400000	86.787	-149.4960
21.799999	86.782	-149.8136
22.000000	86.772	-149.9686
22.400000	86.746	-150.3115
22.700001	86.723	-150.6525
23.000000	86.696	-151.1009
23.299999	86.661	-151.6427
23.600000	86.620	-152.2444
24.000000	86.566	-153.0919
24.299999	86.534	-153.7538
24.700001	86.510	-154.7019
25.000000	86.505	-155.4787
25.400000	86.508	-156.5763
25.799999	86.518	-157.6561
26.200001	86.539	-158.6367
26.500000	86.564	-159.2970
26.900000	86.612	-160.0985
27.200001	86.652	-160.6527
27.600000	86.705	-161.3209
28.000000	86.753	-161.8839
28.500000	86.806	-162.4445
29.000000	86.847	-162.9118
29.500000	86.867	-163.3223
30.000000	86.865	-163.6631
30.400000	86.856	-163.9068
30.700001	86.847	-164.1065
31.100000	86.830	-164.4362
31.500000	86.804	-164.8410
32.000000	86.759	-165.4028
32.500000	86.712	-165.9829
33.000000	86.675	-166.6054
33.500000	86.649	-167.3031
34.000000	86.628	-168.0491
34.500000	86.613	-168.7822
35.000000	86.603	-169.4609
35.500000	86.602	-170.0620
36.000000	86.610	-170.5894
36.500000	86.624	-171.0807
37.000000	86.636	-171.5670
37.500000	86.635	-172.0179
38.200001	86.618	-172.5038
38.700001	86.607	-172.7959
39.500000	86.584	-173.3597
40.000000	86.555	-173.7372
40.599998	86.518	-174.1556
41.200001	86.489	-174.6012
41.799999	86.460	-175.1153
42.500000	86.422	-175.7081
43.099998	86.393	-176.1578
43.700001	86.374	-176.5872
44.400002	86.355	-177.0900
45.000000	86.337	-177.5202
45.500000	86.317	-177.8610
46.200001	86.285	-178.2767
46.799999	86.260	-178.5993
47.500000	86.232	-179.0082
48.200001	86.198	-179.4338
48.700001	86.174	-179.7263
49.400002	86.141	179.8659
50.000000	86.113	179.5264
50.799999	86.078	179.1210
51.500000	86.053	178.7734
52.200001	86.024	178.4219
53.000000	85.983	178.0681
53.799999	85.943	177.7538
54.500000	85.908	177.4552
55.200001	85.867	177.1364
56.000000	85.819	176.8131
57.000000	85.776	176.3710
58.000000	85.725	175.8532
59.000000	85.676	175.4919
60.000000	85.641	175.1602
60.799999	85.611	174.8994
61.500000	85.580	174.6751
62.200001	85.542	174.4692
63.000000	85.498	174.2465
64.000000	85.438	173.9315
65.000000	85.379	173.6663
66.000000	85.336	173.3542
67.000000	85.291	173.0137
68.000000	85.247	172.7088
69.000000	85.202	172.4550
70.000000	85.160	172.2300
71.000000	85.109	171.9879
72.000000	85.052	171.8209
73.000000	85.011	171.6420
74.000000	84.964	171.3627
75.000000	84.908	171.1587
76.199997	84.856	170.9897
77.500000	84.804	170.7435
78.800003	84.740	170.5147
80.000000	84.681	170.3540
81.199997	84.629	170.1842
82.500000	84.568	169.9975
83.800003	84.513	169.8198
85.000000	84.444	169.7133
86.199997	84.399	169.6845
87.500000	84.342	169.4786
88.500000	84.297	169.3841
90.000000	84.236	169.1564
91.199997	84.188	169.0677
92.500000	84.137	168.9368
93.800003	84.079	168.9455
95.000000	84.036	168.9037
96.199997	83.985	168.8057
97.500000	83.921	168.6944
98.800003	83.869	168.6489
100.000000	83.825	168.5333
101.500000	83.766	168.4853
103.000000	83.708	168.4825
104.400002	83.664	168.4473
106.000000	83.589	168.3600
107.500000	83.533	168.3930
109.000000	83.479	168.3900
110.599998	83.422	168.3394
112.000000	83.373	168.3484
113.800003	83.309	168.3229
115.000000	83.266	168.3296
117.199997	83.189	168.3939
118.000000	83.162	168.4030
120.599998	83.046	168.3820
122.000000	83.006	168.5087
124.099998	82.933	168.4793
125.000000	82.902	168.5641
126.500000	82.849	168.6430
128.000000	82.803	168.7403
131.500000	82.675	168.8503
132.000000	82.659	168.9017
134.000000	82.592	168.9973
136.000000	82.526	169.2126
138.000000	82.456	169.3197
140.000000	82.386	169.5359
143.000000	82.285	169.8268
145.000000	82.221	170.1708
147.500000	82.138	170.5978
150.000000	82.060	171.1264
152.500000	81.993	171.5633
155.000000	81.968	172.1978
157.500000	81.965	172.7574
160.000000	81.967	173.2945
162.500000	81.994	173.7172
165.000000	82.010	173.8814
167.500000	82.030	173.9143
170.000000	82.033	173.9176
172.500000	82.022	173.8764
175.000000	82.003	173.7620
177.500000	81.977	173.7506
180.000000	81.948	173.7487
182.500000	81.902	173.7013
185.000000	81.862	173.7954
187.500000	81.821	173.8396
190.000000	81.776	173.8534
192.500000	81.729	173.9902
195.000000	81.687	174.1418
197.500000	81.641	174.2519
200.000000	81.613	174.4251
203.000000	81.562	174.5975
206.000000	81.508	174.7840
209.000000	81.462	175.0155
212.000000	81.414	175.2215
214.000000	81.391	175.3263
218.000000	81.332	175.6004
220.000000	81.305	175.7928
224.000000	81.251	176.0992
227.000000	81.218	176.3022
230.000000	81.191	176.5802
233.000000	81.142	176.7994
236.000000	81.107	177.0108
240.000000	81.061	177.2953
243.000000	81.028	177.6270
247.000000	80.989	177.9488
250.000000	80.954	178.1642
254.000000	80.923	178.4721
258.000000	80.871	178.8291
262.000000	80.839	179.0944
265.000000	80.813	179.3300
269.000000	80.769	179.7468
272.000000	80.757	179.8931
276.000000	80.706	-179.7081
280.000000	80.681	-179.3852
285.000000	80.639	-179.0158
290.000000	80.595	-178.5999
295.000000	80.573	-178.1360
300.000000	80.523	-177.7218
304.000000	80.487	-177.4055
307.000000	80.474	-177.0764
311.000000	80.462	-176.8335
315.000000	80.427	-176.3910
320.000000	80.391	-175.9472
325.000000	80.352	-175.5962
330.000000	80.333	-175.0083
335.000000	80.296	-174.4717
340.000000	80.281	-173.9284
345.000000	80.263	-173.3548
350.000000	80.269	-172.6913
355.000000	80.282	-172.1936
360.000000	80.300	-171.7087
365.000000	80.347	-171.2522
370.000000	80.376	-170.9923
375.000000	80.385	-170.8052
382.000000	80.404	-170.5875
387.000000	80.405	-170.4816
395.000000	80.391	-170.2659
400.000000	80.397	-170.0238
406.000000	80.361	-169.8367
412.000000	80.346	-169.6290
418.000000	80.337	-169.2878
425.000000	80.307	-169.0028
431.000000	80.276	-168.7493
437.000000	80.271	-168.3843
444.000000	80.235	-168.1276
450.000000	80.224	-167.7730
455.000000	80.207	-167.5555
462.000000	80.180	-167.0718
468.000000	80.160	-166.8163
475.000000	80.109	-166.3531
482.000000	80.077	-165.9603
487.000000	80.046	-165.5300
494.000000	80.025	-164.9267
500.000000	79.996	-164.3603
508.000000	80.004	-163.4881
515.000000	80.040	-162.7354
522.000000	80.109	-162.1926
530.000000	80.170	-161.9925
538.000000	80.176	-162.0779
545.000000	80.116	-161.9312
552.000000	80.073	-161.2569
560.000000	80.053	-160.4601
570.000000	80.122	-159.5533
580.000000	80.192	-158.8976
590.000000	80.245	-158.6114
600.000000	80.274	-158.2943
608.000000	80.328	-158.1587
615.000000	80.344	-157.8746
622.000000	80.341	-157.6684
630.000000	80.351	-157.4863
640.000000	80.376	-157.2543
650.000000	80.375	-156.9200
660.000000	80.389	-156.6248
670.000000	80.398	-156.2748
680.000000	80.406	-155.9810
690.000000	80.411	-155.7887
700.000000	80.418	-155.3646
710.000000	80.430	-155.0513
720.000000	80.441	-154.6634
730.000000	80.440	-154.3473
740.000000	80.461	-154.1034
750.000000	80.472	-153.7965
762.000000	80.482	-153.2817
775.000000	80.480	-152.9203
788.000000	80.520	-152.5323
800.000000	80.514	-152.2004
812.000000	80.529	-151.8864
825.000000	80.558	-151.5244
838.000000	80.579	-151.0792
850.000000	80.592	-150.7322
862.000000	80.617	-150.3758
875.000000	80.629	-150.0441
885.000000	80.639	-149.7952
900.000000	80.674	-149.4292
912.000000	80.696	-148.9862
925.000000	80.708	-148.7590
938.000000	80.741	-148.4888
950.000000	80.776	-148.1707
962.000000	80.788	-147.8848
975.000000	80.818	-147.6255
988.000000	80.860	-147.4043
1000.000000	80.905	-147.1376
1015.000000	80.909	-146.8750
1030.000000	80.938	-146.6355
1044.000000	80.974	-146.4103
1060.000000	81.009	-146.2167
1075.000000	81.051	-146.0445
1090.000000	81.078	-145.8298
1106.000000	81.104	-145.7235
1120.000000	81.114	-145.5673
1138.000000	81.162	-145.5991
1150.000000	81.186	-145.4271
1172.000000	81.192	-145.2253
1180.000000	81.225	-145.1899
1206.000000	81.244	-145.1691
1220.000000	81.259	-145.0883
1241.000000	81.281	-145.0523
1250.000000	81.281	-145.0722
1265.000000	81.284	-144.9014
1280.000000	81.306	-144.8564
1315.000000	81.304	-144.8841
1320.000000	81.312	-144.8832
1340.000000	81.318	-144.9183
1360.000000	81.299	-144.7536
1380.000000	81.306	-144.7051
1400.000000	81.279	-144.6954
1430.000000	81.253	-144.5491
1450.000000	81.245	-144.4944
1475.000000	81.227	-144.3484
1500.000000	81.198	-144.3355
1525.000000	81.176	-144.0718
1550.000000	81.153	-143.9191
1575.000000	81.131	-143.8386
1600.000000	81.115	-143.5290
1625.000000	81.087	-143.3638
1650.000000	81.064	-143.2797
1675.000000	81.021	-142.9947
1700.000000	81.014	-142.7648
1725.000000	80.986	-142.5242
1750.000000	80.988	-142.2932
1775.000000	80.961	-142.0706
1800.000000	80.965	-141.8537
1825.000000	80.943	-141.3954
1850.000000	80.942	-141.3060
1875.000000	80.931	-141.0998
1900.000000	80.934	-140.7106
1925.000000	80.913	-140.7066
1950.000000	80.931	-140.3389
1975.000000	80.935	-140.1922
2000.000000	80.985	-139.7546
2030.000000	80.948	-139.7273
2060.000000	80.971	-139.6413
2090.000000	80.978	-139.4199
2120.000000	80.991	-139.3668
2140.000000	81.012	-139.2411
2180.000000	81.046	-139.2190
2200.000000	81.040	-139.1875
2240.000000	81.083	-139.4621
2270.000000	81.110	-139.3737
2300.000000	81.127	-139.4878
2330.000000	81.132	-139.8035
2360.000000	81.121	-139.9369
2400.000000	81.134	-140.3268
2430.000000	81.149	-140.5404
2470.000000	81.117	-141.1323
2500.000000	81.109	-141.3123
2540.000000	81.075	-141.8126
2580.000000	81.027	-142.4738
2620.000000	80.978	-142.9929
2650.000000	80.927	-143.4145
2690.000000	80.830	-143.9130
2720.000000	80.778	-144.5269
2760.000000	80.664	-145.1119
2800.000000	80.538	-145.8466
2850.000000	80.361	-146.7379
2900.000000	79.997	-147.6578
2950.000000	79.577	-146.6826
3000.000000	79.458	-145.4822
3040.000000	79.369	-144.8006
3070.000000	79.294	-144.5716
3110.000000	79.218	-144.3505
3150.000000	79.091	-143.8042
3200.000000	78.908	-143.2594
3250.000000	78.780	-142.8590
3300.000000	78.648	-142.3617
3350.000000	78.512	-141.3399
3400.000000	78.415	-140.6391
3450.000000	78.327	-139.6811
3500.000000	78.248	-138.6886
3550.000000	78.151	-137.5649
3600.000000	78.088	-136.6843
3650.000000	78.096	-135.7655
3700.000000	78.101	-134.8154
3750.000000	78.113	-134.0437
3820.000000	78.168	-132.7931
3870.000000	78.218	-131.9507
3950.000000	78.310	-131.2070
4000.000000	78.425	-130.0100
4060.000000	78.570	-130.2181
4120.000000	78.711	-130.1180
4180.000000	78.893	-130.4464
4250.000000	79.054	-130.7536
4310.000000	79.179	-131.5812
4370.000000	79.274	-132.4759
4440.000000	79.430	-133.9704
4500.000000	79.472	-135.3768
4550.000000	79.487	-136.7969
4620.000000	79.477	-138.8456
4680.000000	79.372	-140.7854
4750.000000	79.218	-143.2754
4820.000000	79.008	-145.0433
4870.000000	78.780	-146.3891
4940.000000	78.465	-148.2030
5000.000000	78.093	-148.6984
5080.000000	77.660	-150.0438
5150.000000	77.248	-150.5185
5220.000000	76.779	-150.5916
5300.000000	76.331	-150.3425
5380.000000	75.820	-149.3208
5450.000000	75.434	-148.1955
5520.000000	75.126	-146.7067
5600.000000	74.746	-144.9413
5700.000000	74.355	-142.3194
5800.000000	74.052	-139.5221
5900.000000	73.894	-136.6825
6000.000000	73.706	-133.5664
6080.000000	73.584	-130.9802
6150.000000	73.615	-129.0286
6220.000000	73.486	-127.2539
6300.000000	73.554	-124.7145
6400.000000	73.655	-121.9765
6500.000000	73.652	-119.1177
6600.000000	73.835	-115.7462
6700.000000	74.026	-112.9987
6800.000000	74.394	-110.1819
6900.000000	74.790	-107.1527
7000.000000	75.380	-104.5048
7100.000000	75.977	-102.2332
7200.000000	76.712	-101.1334
7300.000000	77.619	-100.0885
7400.000000	78.607	-100.0851
7500.000000	79.775	-102.0347
7620.000000	81.378	-107.2200
7750.000000	82.941	-118.4918
7880.000000	83.741	-135.5156
8000.000000	83.236	-152.4486
8120.000000	81.837	-164.4850
8250.000000	80.160	-171.7359
8380.000000	78.545	-174.8733
8500.000000	77.386	-175.5951
8620.000000	76.427	-175.3308
8750.000000	75.565	-174.4108
8850.000000	75.005	-173.9232
9000.000000	74.111	-171.8011
9120.000000	73.830	-169.4809
9250.000000	73.587	-167.6261
9380.000000	73.474	-166.3785
9500.000000	73.380	-165.7980
9620.000000	73.335	-165.6399
9750.000000	73.357	-165.6055
9880.000000	73.234	-166.2837
10000.000000	73.206	-167.0286
10150.000000	73.253	-167.6069
10300.000000	73.351	-169.0220
10440.000000	73.513	-170.6766
10600.000000	73.730	-174.6974
10750.000000	73.637	179.4407
10900.000000	73.245	173.0158
11060.000000	72.406	167.6317
11200.000000	71.672	164.3354
11380.000000	70.458	162.0583
11500.000000	69.828	162.3336
11720.000000	68.669	162.3847
11800.000000	68.165	163.5576
12060.000000	67.090	163.3577
12200.000000	66.547	167.8575
12410.000000	65.402	169.0824
12500.000000	65.188	169.4227
12650.000000	64.853	172.3333
12800.000000	64.277	175.8734
13150.000000	63.733	-175.4815
13200.000000	63.922	-174.0390
13400.000000	63.652	-167.3516
13600.000000	63.883	-164.6177
13800.000000	64.019	-158.0394
14000.000000	64.409	-153.2150
14300.000000	65.536	-145.5305
14500.000000	66.784	-142.4190
14750.000000	68.630	-138.8557
15000.000000	70.787	-140.9659
15250.000000	73.049	-145.8011
15500.000000	76.814	-159.4994
15750.000000	78.168	161.4136
16000.000000	75.379	137.5638
16250.000000	72.936	130.4993
16500.000000	71.628	128.0891
16750.000000	70.721	125.6704
17000.000000	70.025	123.1273
17250.000000	69.958	123.2640
17500.000000	69.976	120.8386
17750.000000	70.282	114.1051
18000.000000	70.389	108.3036
18250.000000	70.414	98.1220
18500.000000	70.056	88.7412
18750.000000	68.818	77.6902
19000.000000	67.763	72.0902
19250.000000	66.404	67.8250
19500.000000	65.263	66.5919
19750.000000	64.214	65.3842
