* Measurement data measured by REW V5.20.13
* Source: USB Sound Device        , MICROPHONE, R, volume: 0.697
* Format: 256k Log Swept Sine, 1 sweep at -6.0 dBFS with no timing reference
* Dated: Dec 4, 2023 1:33:24 AM
* REW Settings:
*  C-weighting compensation: Off
*  Target level: 75.0 dB
* Note: @iemworld / EPZ Q5 / XDUOO XD-05 PRO # AKM4499 - MUSES 01 / www.iem-world.com; 
* Measurement: EPZ Q5 JVC L
* Smoothing: None
* Frequency Step: 1/48 octave
* Start Frequency: 20.000 Hz
*
* Freq(Hz)	SPL(dB)	Phase(degrees)
20.000000	85.302	-170.4366
20.299999	85.319	-170.4359
20.600000	85.321	-170.4045
20.900000	85.307	-170.3835
21.200001	85.276	-170.4015
21.400000	85.244	-170.4314
21.799999	85.160	-170.5196
22.000000	85.112	-170.5805
22.400000	85.017	-170.7733
22.700001	84.949	-171.0415
23.000000	84.883	-171.4621
23.299999	84.812	-172.0197
23.600000	84.738	-172.6641
24.000000	84.639	-173.5674
24.299999	84.578	-174.2374
24.700001	84.525	-175.1366
25.000000	84.507	-175.8448
25.400000	84.503	-176.8343
25.799999	84.510	-177.7946
26.200001	84.526	-178.6233
26.500000	84.545	-179.1347
26.900000	84.582	-179.6903
27.200001	84.614	179.9648
27.600000	84.652	179.5924
28.000000	84.681	179.3348
28.500000	84.705	179.1606
29.000000	84.715	179.0546
29.500000	84.700	178.9398
30.000000	84.658	178.8179
30.400000	84.609	178.7117
30.700001	84.568	178.6057
31.100000	84.506	178.4034
31.500000	84.439	178.1371
32.000000	84.352	177.7519
32.500000	84.279	177.2977
33.000000	84.221	176.7057
33.500000	84.166	176.0024
34.000000	84.109	175.3502
34.500000	84.071	174.8489
35.000000	84.062	174.4166
35.500000	84.068	173.9457
36.000000	84.065	173.4883
36.500000	84.050	173.1633
37.000000	84.038	172.9740
37.500000	84.032	172.8104
38.200001	84.010	172.5009
38.700001	83.973	172.2545
39.500000	83.889	171.8937
40.000000	83.831	171.6885
40.599998	83.766	171.4395
41.200001	83.709	171.1421
41.799999	83.657	170.8004
42.500000	83.605	170.4139
43.099998	83.575	170.0793
43.700001	83.550	169.6805
44.400002	83.505	169.1771
45.000000	83.445	168.8475
45.500000	83.392	168.7199
46.200001	83.341	168.6924
46.799999	83.323	168.5849
47.500000	83.294	168.2277
48.200001	83.234	167.8609
48.700001	83.189	167.6922
49.400002	83.142	167.4748
50.000000	83.104	167.2328
50.799999	83.042	166.9606
51.500000	82.993	166.8434
52.200001	82.958	166.7387
53.000000	82.916	166.4987
53.799999	82.848	166.2502
54.500000	82.787	166.1526
55.200001	82.745	166.0013
56.000000	82.690	165.6765
57.000000	82.612	165.3697
58.000000	82.559	165.0719
59.000000	82.502	164.7560
60.000000	82.435	164.5783
60.799999	82.383	164.5361
61.500000	82.340	164.4884
62.200001	82.287	164.4192
63.000000	82.223	164.3953
64.000000	82.163	164.2647
65.000000	82.086	163.9479
66.000000	82.007	163.7726
67.000000	81.950	163.5997
68.000000	81.888	163.4792
69.000000	81.839	163.4330
70.000000	81.780	163.3397
71.000000	81.715	163.3082
72.000000	81.644	163.2027
73.000000	81.567	163.1920
74.000000	81.513	163.1422
75.000000	81.455	163.0153
76.199997	81.387	162.9264
77.500000	81.301	162.8387
78.800003	81.230	162.9477
80.000000	81.169	162.7694
81.199997	81.074	162.7529
82.500000	81.007	162.7779
83.800003	80.933	162.8102
85.000000	80.888	162.7929
86.199997	80.801	162.6806
87.500000	80.715	162.8405
88.500000	80.663	162.8736
90.000000	80.581	162.9047
91.199997	80.521	162.9796
92.500000	80.459	163.0140
93.800003	80.382	163.0980
95.000000	80.316	163.1761
96.199997	80.237	163.2047
97.500000	80.167	163.3638
98.800003	80.107	163.3165
100.000000	80.033	163.4230
101.500000	79.967	163.5582
103.000000	79.880	163.7302
104.400002	79.801	163.9236
106.000000	79.717	164.0803
107.500000	79.629	164.3139
109.000000	79.554	164.5255
110.599998	79.475	164.7397
112.000000	79.392	164.9681
113.800003	79.299	165.2871
115.000000	79.228	165.5741
117.199997	79.094	166.0540
118.000000	79.057	166.3400
120.599998	78.888	167.1293
122.000000	78.857	167.4692
124.099998	78.754	168.3837
125.000000	78.726	168.8357
126.500000	78.681	169.5379
128.000000	78.644	170.4488
131.500000	78.667	172.1422
132.000000	78.682	172.3532
134.000000	78.769	173.1698
136.000000	78.859	173.6946
138.000000	78.957	173.9287
140.000000	79.041	173.6311
143.000000	79.093	173.1005
145.000000	79.088	172.9142
147.500000	79.045	172.5582
150.000000	78.995	172.3481
152.500000	78.927	172.2043
155.000000	78.854	172.1043
157.500000	78.779	172.0599
160.000000	78.709	172.1827
162.500000	78.639	172.2549
165.000000	78.561	172.4364
167.500000	78.488	172.7669
170.000000	78.430	172.9207
172.500000	78.366	173.1913
175.000000	78.306	173.4938
177.500000	78.244	173.7596
180.000000	78.178	173.8774
182.500000	78.123	174.2647
185.000000	78.064	174.5163
187.500000	78.003	174.7382
190.000000	77.955	175.1450
192.500000	77.905	175.4145
195.000000	77.851	175.7807
197.500000	77.804	176.1114
200.000000	77.739	176.3724
203.000000	77.691	176.8436
206.000000	77.636	177.2971
209.000000	77.583	177.6977
212.000000	77.535	178.0682
214.000000	77.516	178.4435
218.000000	77.444	178.9167
220.000000	77.409	179.2329
224.000000	77.360	179.8481
227.000000	77.322	-179.7772
230.000000	77.273	-179.3734
233.000000	77.231	-178.8869
236.000000	77.172	-178.6328
240.000000	77.156	-178.0661
243.000000	77.113	-177.5895
247.000000	77.059	-176.9945
250.000000	77.042	-176.6398
254.000000	76.984	-176.0826
258.000000	76.939	-175.5733
262.000000	76.899	-174.9237
265.000000	76.876	-174.5208
269.000000	76.800	-174.0055
272.000000	76.786	-173.8052
276.000000	76.762	-173.2144
280.000000	76.730	-172.5814
285.000000	76.677	-171.8999
290.000000	76.625	-171.1964
295.000000	76.596	-170.5555
300.000000	76.546	-169.7909
304.000000	76.500	-169.3414
307.000000	76.502	-168.8519
311.000000	76.456	-168.3359
315.000000	76.450	-167.8306
320.000000	76.433	-167.1563
325.000000	76.423	-166.3682
330.000000	76.392	-165.8412
335.000000	76.381	-165.2428
340.000000	76.372	-164.6577
345.000000	76.345	-164.0856
350.000000	76.319	-163.3684
355.000000	76.286	-163.0567
360.000000	76.253	-162.4906
365.000000	76.244	-161.7057
370.000000	76.213	-161.2248
375.000000	76.173	-160.6952
382.000000	76.165	-159.8821
387.000000	76.127	-159.1630
395.000000	76.113	-158.3473
400.000000	76.087	-157.5915
406.000000	76.092	-156.8956
412.000000	76.068	-156.2586
418.000000	76.040	-155.6834
425.000000	76.007	-154.7925
431.000000	75.985	-154.0153
437.000000	75.974	-153.3923
444.000000	75.926	-152.6941
450.000000	75.934	-151.9194
455.000000	75.943	-151.3343
462.000000	75.908	-150.6194
468.000000	75.902	-149.8002
475.000000	75.880	-149.1907
482.000000	75.879	-148.3360
487.000000	75.875	-147.8170
494.000000	75.853	-147.0360
500.000000	75.840	-146.3655
508.000000	75.824	-145.4103
515.000000	75.828	-144.6586
522.000000	75.824	-143.9005
530.000000	75.819	-143.0051
538.000000	75.785	-142.2269
545.000000	75.785	-141.4275
552.000000	75.778	-140.7430
560.000000	75.778	-139.8844
570.000000	75.763	-138.8042
580.000000	75.756	-137.7166
590.000000	75.772	-136.5757
600.000000	75.727	-135.5763
608.000000	75.761	-134.9216
615.000000	75.754	-133.9521
622.000000	75.777	-133.3424
630.000000	75.740	-132.5989
640.000000	75.741	-131.4593
650.000000	75.725	-130.4829
660.000000	75.727	-129.4103
670.000000	75.717	-128.4747
680.000000	75.659	-127.1840
690.000000	75.611	-125.9733
700.000000	75.531	-124.1144
710.000000	75.634	-121.4514
720.000000	75.847	-119.9100
730.000000	76.078	-119.1295
740.000000	76.179	-118.9191
750.000000	76.214	-118.6094
762.000000	76.225	-117.7787
775.000000	76.249	-116.7803
788.000000	76.289	-115.6521
800.000000	76.345	-114.6930
812.000000	76.379	-113.4260
825.000000	76.393	-112.1276
838.000000	76.447	-111.1422
850.000000	76.508	-109.8670
862.000000	76.560	-108.8929
875.000000	76.651	-107.4781
885.000000	76.681	-106.6563
900.000000	76.778	-105.3941
912.000000	76.856	-104.4665
925.000000	76.929	-103.1953
938.000000	77.016	-102.3329
950.000000	77.117	-101.2292
962.000000	77.192	-100.4264
975.000000	77.259	-99.3176
988.000000	77.351	-98.2977
1000.000000	77.433	-97.1704
1015.000000	77.525	-96.4276
1030.000000	77.636	-95.5254
1044.000000	77.736	-94.4468
1060.000000	77.870	-93.4985
1075.000000	77.995	-92.5897
1090.000000	78.083	-91.6534
1106.000000	78.187	-90.9000
1120.000000	78.287	-90.0684
1138.000000	78.393	-89.1217
1150.000000	78.496	-88.4784
1172.000000	78.629	-87.4247
1180.000000	78.674	-87.0553
1206.000000	78.836	-85.7217
1220.000000	78.921	-85.1905
1241.000000	79.057	-84.2095
1250.000000	79.112	-83.8805
1265.000000	79.190	-83.2329
1280.000000	79.269	-82.5731
1315.000000	79.452	-81.2156
1320.000000	79.481	-81.0405
1340.000000	79.585	-80.1572
1360.000000	79.686	-79.3665
1380.000000	79.780	-78.6499
1400.000000	79.869	-77.9476
1430.000000	80.019	-76.7521
1450.000000	80.111	-75.8836
1475.000000	80.256	-74.9104
1500.000000	80.347	-74.0946
1525.000000	80.474	-73.0984
1550.000000	80.598	-72.1494
1575.000000	80.723	-71.2290
1600.000000	80.819	-70.2733
1625.000000	80.951	-69.4372
1650.000000	81.052	-68.5322
1675.000000	81.169	-67.7898
1700.000000	81.299	-67.0804
1725.000000	81.418	-66.1419
1750.000000	81.524	-65.3399
1775.000000	81.650	-64.5521
1800.000000	81.765	-63.8848
1825.000000	81.898	-63.0239
1850.000000	82.032	-62.3445
1875.000000	82.153	-61.6051
1900.000000	82.266	-60.9485
1925.000000	82.383	-60.2533
1950.000000	82.514	-59.7053
1975.000000	82.627	-59.0855
2000.000000	82.741	-58.6675
2030.000000	82.917	-57.8239
2060.000000	83.060	-57.1989
2090.000000	83.195	-56.5854
2120.000000	83.338	-56.1100
2140.000000	83.443	-55.7161
2180.000000	83.622	-55.1079
2200.000000	83.724	-54.8053
2240.000000	83.908	-54.3124
2270.000000	84.038	-53.9317
2300.000000	84.177	-53.6413
2330.000000	84.306	-53.3881
2360.000000	84.432	-53.2234
2400.000000	84.601	-52.9370
2430.000000	84.706	-52.6779
2470.000000	84.881	-52.5479
2500.000000	84.976	-52.3863
2540.000000	85.108	-52.3066
2580.000000	85.252	-52.2584
2620.000000	85.383	-52.1720
2650.000000	85.481	-52.3411
2690.000000	85.592	-52.4309
2720.000000	85.690	-52.5790
2760.000000	85.777	-52.8091
2800.000000	85.830	-53.0788
2850.000000	85.917	-53.3454
2900.000000	85.972	-53.6371
2950.000000	86.015	-53.9818
3000.000000	86.029	-54.2726
3040.000000	86.031	-54.2705
3070.000000	86.031	-54.5480
3110.000000	86.028	-54.5608
3150.000000	86.021	-54.6189
3200.000000	85.993	-54.6424
3250.000000	85.952	-54.5569
3300.000000	85.909	-54.4501
3350.000000	85.870	-54.2875
3400.000000	85.812	-54.1179
3450.000000	85.775	-53.8201
3500.000000	85.709	-53.5139
3550.000000	85.661	-53.0716
3600.000000	85.620	-52.6520
3650.000000	85.573	-52.1914
3700.000000	85.515	-51.6638
3750.000000	85.480	-50.9971
3820.000000	85.421	-50.2470
3870.000000	85.388	-49.6428
3950.000000	85.353	-48.5773
4000.000000	85.336	-48.0038
4060.000000	85.308	-47.3098
4120.000000	85.299	-46.5083
4180.000000	85.269	-45.8138
4250.000000	85.273	-44.8091
4310.000000	85.243	-44.1570
4370.000000	85.243	-43.4202
4440.000000	85.248	-42.5743
4500.000000	85.251	-41.8902
4550.000000	85.251	-41.3539
4620.000000	85.266	-40.6758
4680.000000	85.296	-40.0365
4750.000000	85.278	-39.4851
4820.000000	85.290	-38.8176
4870.000000	85.285	-38.4615
4940.000000	85.293	-37.7806
5000.000000	85.277	-37.5107
5080.000000	85.285	-36.7568
5150.000000	85.258	-36.2264
5220.000000	85.283	-35.6603
5300.000000	85.278	-35.4335
5380.000000	85.281	-35.0929
5450.000000	85.255	-34.9578
5520.000000	85.227	-34.8569
5600.000000	85.133	-34.7575
5700.000000	84.996	-34.5274
5800.000000	84.802	-34.1024
5900.000000	84.594	-33.1335
6000.000000	84.370	-31.0796
6080.000000	84.546	-29.3495
6150.000000	84.560	-29.7031
6220.000000	84.476	-29.8095
6300.000000	84.327	-29.3675
6400.000000	84.118	-28.2677
6500.000000	83.968	-26.9729
6600.000000	83.840	-25.4865
6700.000000	83.757	-23.8151
6800.000000	83.705	-22.1700
6900.000000	83.716	-20.4796
7000.000000	83.752	-18.8744
7100.000000	83.830	-17.4458
7200.000000	83.939	-15.9938
7300.000000	84.109	-15.0504
7400.000000	84.288	-14.4346
7500.000000	84.509	-14.1660
7620.000000	84.803	-14.5574
7750.000000	85.141	-15.6497
7880.000000	85.415	-18.1041
8000.000000	85.590	-21.2409
8120.000000	85.624	-25.5304
8250.000000	85.428	-30.5416
8380.000000	84.975	-35.6271
8500.000000	84.384	-39.7815
8620.000000	83.650	-43.0185
8750.000000	82.696	-45.9044
8850.000000	81.934	-47.3627
9000.000000	80.743	-48.2723
9120.000000	79.753	-48.4041
9250.000000	78.624	-47.1078
9380.000000	77.556	-44.8466
9500.000000	76.694	-41.7680
9620.000000	75.833	-38.3190
9750.000000	75.039	-34.0847
9880.000000	74.398	-28.7838
10000.000000	73.843	-24.6029
10150.000000	73.232	-19.4321
10300.000000	72.707	-13.1753
10440.000000	72.394	-7.9840
10600.000000	72.126	-1.8581
10750.000000	71.808	4.1918
10900.000000	71.568	10.3657
11060.000000	71.462	16.3817
11200.000000	71.451	21.4714
11380.000000	71.489	28.5941
11500.000000	71.599	33.1788
11720.000000	71.800	40.4348
11800.000000	71.976	43.8450
12060.000000	72.446	53.5745
12200.000000	72.940	57.5710
12410.000000	73.645	64.0621
12500.000000	73.974	66.6566
12650.000000	74.727	71.0541
12800.000000	75.581	74.0016
13150.000000	78.103	77.7219
13200.000000	78.450	77.8132
13400.000000	80.291	75.0855
13600.000000	81.962	66.3211
13800.000000	82.964	51.3979
14000.000000	82.546	35.1602
14300.000000	80.425	21.3022
14500.000000	78.902	18.7378
14750.000000	77.543	19.5570
15000.000000	76.580	21.6420
15250.000000	75.970	24.9892
15500.000000	75.763	27.8294
15750.000000	75.943	29.3107
16000.000000	76.576	27.3809
16250.000000	77.009	19.9226
16500.000000	76.666	9.3865
16750.000000	75.575	-0.8890
17000.000000	73.734	-8.0790
17250.000000	71.542	-11.5730
17500.000000	69.513	-11.7900
17750.000000	67.407	-6.6901
18000.000000	65.811	-1.2331
18250.000000	64.405	6.1551
18500.000000	62.683	15.0519
18750.000000	61.980	25.0915
19000.000000	61.616	35.3482
19250.000000	61.170	43.4166
19500.000000	60.937	52.9665
19750.000000	60.611	62.5273
