* Measurement data measured by REW V5.20.13
* Source: USB Sound Device        , MICROPHONE, R, volume: 0.697
* Format: 256k Log Swept Sine, 1 sweep at -6.0 dBFS with no timing reference
* Dated: Dec 4, 2023 3:47:38 AM
* REW Settings:
*  C-weighting compensation: Off
*  Target level: 75.0 dB
* Note: @iemworld / EPZ Q1 / XDUOO XD-05 PRO # AKM4499 - MUSES 01 / www.iem-world.com; 
* Measurement: EPZ Q1 FOAM L
* Smoothing: None
* Frequency Step: 1/48 octave
* Start Frequency: 20.000 Hz
*
* Freq(Hz)	SPL(dB)	Phase(degrees)
20.000000	85.084	-144.4436
20.299999	85.181	-144.6698
20.600000	85.264	-144.8491
20.900000	85.328	-145.0261
21.200001	85.369	-145.2111
21.400000	85.382	-145.3226
21.799999	85.381	-145.5023
22.000000	85.373	-145.5790
22.400000	85.352	-145.7701
22.700001	85.335	-146.0241
23.000000	85.311	-146.4195
23.299999	85.275	-146.9336
23.600000	85.229	-147.5187
24.000000	85.165	-148.3421
24.299999	85.126	-148.9815
24.700001	85.098	-149.9076
25.000000	85.094	-150.6874
25.400000	85.102	-151.8221
25.799999	85.119	-152.9678
26.200001	85.148	-154.0255
26.500000	85.180	-154.7415
26.900000	85.238	-155.6047
27.200001	85.286	-156.1899
27.600000	85.351	-156.8734
28.000000	85.414	-157.4243
28.500000	85.488	-157.9517
29.000000	85.550	-158.3883
29.500000	85.588	-158.7673
30.000000	85.599	-159.0605
30.400000	85.599	-159.2569
30.700001	85.596	-159.4222
31.100000	85.585	-159.7104
31.500000	85.562	-160.0739
32.000000	85.521	-160.5785
32.500000	85.480	-161.1131
33.000000	85.451	-161.7320
33.500000	85.429	-162.4590
34.000000	85.410	-163.2203
34.500000	85.400	-163.9407
35.000000	85.406	-164.6264
35.500000	85.421	-165.2989
36.000000	85.434	-165.9190
36.500000	85.444	-166.4299
37.000000	85.455	-166.8281
37.500000	85.468	-167.1578
38.200001	85.482	-167.5867
38.700001	85.484	-167.9034
39.500000	85.465	-168.4289
40.000000	85.443	-168.7490
40.599998	85.418	-169.1475
41.200001	85.393	-169.6033
41.799999	85.367	-170.0901
42.500000	85.343	-170.6556
43.099998	85.330	-171.1682
43.700001	85.315	-171.6815
44.400002	85.296	-172.1934
45.000000	85.287	-172.5756
45.500000	85.282	-172.8998
46.200001	85.268	-173.3575
46.799999	85.249	-173.7290
47.500000	85.221	-174.1219
48.200001	85.194	-174.4554
48.700001	85.181	-174.6927
49.400002	85.168	-175.0926
50.000000	85.150	-175.4643
50.799999	85.121	-175.9052
51.500000	85.099	-176.2507
52.200001	85.077	-176.5815
53.000000	85.048	-176.9538
53.799999	85.011	-177.2925
54.500000	84.981	-177.5414
55.200001	84.958	-177.8407
56.000000	84.925	-178.2537
57.000000	84.882	-178.7191
58.000000	84.848	-179.2112
59.000000	84.812	-179.6063
60.000000	84.793	-179.9279
60.799999	84.776	179.7789
61.500000	84.751	179.5238
62.200001	84.716	179.3067
63.000000	84.675	179.1113
64.000000	84.632	178.8382
65.000000	84.584	178.4940
66.000000	84.539	178.2151
67.000000	84.516	177.8848
68.000000	84.477	177.5110
69.000000	84.438	177.3073
70.000000	84.410	177.0928
71.000000	84.371	176.8518
72.000000	84.327	176.6483
73.000000	84.288	176.4403
74.000000	84.248	176.1960
75.000000	84.207	175.9638
76.199997	84.161	175.7349
77.500000	84.118	175.4906
78.800003	84.068	175.2875
80.000000	84.027	175.0517
81.199997	83.975	174.8575
82.500000	83.930	174.6333
83.800003	83.881	174.4944
85.000000	83.845	174.2580
86.199997	83.780	174.1421
87.500000	83.742	174.0450
88.500000	83.703	173.9099
90.000000	83.658	173.6987
91.199997	83.614	173.5539
92.500000	83.569	173.4182
93.800003	83.521	173.3817
95.000000	83.483	173.2971
96.199997	83.436	173.2163
97.500000	83.393	173.1042
98.800003	83.349	173.0181
100.000000	83.317	172.9261
101.500000	83.270	172.8391
103.000000	83.217	172.7669
104.400002	83.175	172.7183
106.000000	83.118	172.6642
107.500000	83.074	172.5483
109.000000	83.025	172.5670
110.599998	82.973	172.4973
112.000000	82.939	172.4951
113.800003	82.873	172.3970
115.000000	82.844	172.3950
117.199997	82.782	172.3726
118.000000	82.755	172.3696
120.599998	82.692	172.4188
122.000000	82.644	172.4360
124.099998	82.586	172.4330
125.000000	82.567	172.4157
126.500000	82.519	172.4230
128.000000	82.488	172.4332
131.500000	82.394	172.5867
132.000000	82.385	172.5981
134.000000	82.331	172.6425
136.000000	82.287	172.7347
138.000000	82.231	172.7148
140.000000	82.181	172.8215
143.000000	82.114	172.9835
145.000000	82.071	173.0090
147.500000	82.015	173.1406
150.000000	81.967	173.2853
152.500000	81.918	173.3846
155.000000	81.857	173.5328
157.500000	81.818	173.6869
160.000000	81.767	173.8300
162.500000	81.713	173.9086
165.000000	81.664	174.1141
167.500000	81.616	174.1774
170.000000	81.575	174.3912
172.500000	81.531	174.6574
175.000000	81.495	174.7792
177.500000	81.451	174.9167
180.000000	81.418	175.0313
182.500000	81.372	175.3163
185.000000	81.334	175.4422
187.500000	81.287	175.6301
190.000000	81.258	175.7812
192.500000	81.226	175.9439
195.000000	81.184	176.1157
197.500000	81.157	176.3232
200.000000	81.118	176.5645
203.000000	81.085	176.7956
206.000000	81.050	176.9863
209.000000	81.006	177.2333
212.000000	80.970	177.4846
214.000000	80.943	177.6042
218.000000	80.907	177.9241
220.000000	80.886	178.0614
224.000000	80.840	178.3638
227.000000	80.801	178.6357
230.000000	80.779	178.9098
233.000000	80.742	179.1753
236.000000	80.709	179.3236
240.000000	80.694	179.6501
243.000000	80.657	179.9190
247.000000	80.623	-179.8196
250.000000	80.606	-179.5591
254.000000	80.577	-179.2154
258.000000	80.531	-178.8819
262.000000	80.508	-178.6770
265.000000	80.489	-178.3989
269.000000	80.460	-178.0665
272.000000	80.444	-177.7896
276.000000	80.427	-177.5260
280.000000	80.395	-177.2567
285.000000	80.360	-176.8240
290.000000	80.335	-176.4489
295.000000	80.300	-176.1303
300.000000	80.280	-175.7385
304.000000	80.259	-175.4867
307.000000	80.255	-175.2578
311.000000	80.237	-174.8655
315.000000	80.231	-174.6845
320.000000	80.197	-174.3187
325.000000	80.180	-173.8963
330.000000	80.165	-173.5437
335.000000	80.132	-173.2113
340.000000	80.126	-172.9219
345.000000	80.122	-172.4448
350.000000	80.094	-172.2735
355.000000	80.084	-171.8931
360.000000	80.075	-171.5163
365.000000	80.058	-171.2025
370.000000	80.033	-170.9342
375.000000	80.038	-170.6237
382.000000	80.015	-170.1666
387.000000	80.002	-169.8143
395.000000	79.978	-169.3477
400.000000	79.972	-169.1167
406.000000	79.969	-168.7896
412.000000	79.957	-168.2829
418.000000	79.942	-168.0443
425.000000	79.919	-167.6539
431.000000	79.922	-167.3904
437.000000	79.892	-166.9885
444.000000	79.887	-166.6711
450.000000	79.866	-166.2916
455.000000	79.860	-166.0851
462.000000	79.825	-165.6865
468.000000	79.814	-165.2540
475.000000	79.784	-164.8340
482.000000	79.749	-164.3334
487.000000	79.715	-163.9161
494.000000	79.709	-163.2805
500.000000	79.702	-162.7218
508.000000	79.739	-161.7981
515.000000	79.801	-161.0840
522.000000	79.872	-160.7725
530.000000	79.926	-160.8995
538.000000	79.865	-160.7560
545.000000	79.817	-160.4118
552.000000	79.796	-159.5586
560.000000	79.819	-158.7631
570.000000	79.901	-158.1548
580.000000	79.991	-157.5198
590.000000	80.043	-157.3201
600.000000	80.082	-156.9383
608.000000	80.108	-156.8951
615.000000	80.119	-156.5691
622.000000	80.136	-156.4924
630.000000	80.147	-156.3787
640.000000	80.169	-156.0883
650.000000	80.171	-155.8275
660.000000	80.189	-155.5564
670.000000	80.208	-155.2328
680.000000	80.215	-154.9095
690.000000	80.217	-154.6234
700.000000	80.244	-154.2926
710.000000	80.247	-153.9704
720.000000	80.271	-153.6445
730.000000	80.271	-153.5398
740.000000	80.284	-153.1522
750.000000	80.302	-152.7439
762.000000	80.311	-152.5188
775.000000	80.331	-152.1635
788.000000	80.345	-151.7892
800.000000	80.364	-151.4597
812.000000	80.396	-151.0823
825.000000	80.419	-150.7204
838.000000	80.423	-150.4070
850.000000	80.444	-150.1312
862.000000	80.461	-149.7994
875.000000	80.481	-149.5193
885.000000	80.506	-149.2850
900.000000	80.529	-149.0207
912.000000	80.561	-148.5661
925.000000	80.580	-148.3763
938.000000	80.632	-148.1488
950.000000	80.635	-147.8004
962.000000	80.675	-147.4961
975.000000	80.702	-147.2644
988.000000	80.712	-147.0473
1000.000000	80.746	-147.0238
1015.000000	80.781	-146.7470
1030.000000	80.807	-146.4487
1044.000000	80.849	-146.3036
1060.000000	80.880	-146.0570
1075.000000	80.901	-145.9012
1090.000000	80.936	-145.7199
1106.000000	80.963	-145.5819
1120.000000	81.008	-145.4919
1138.000000	81.021	-145.4578
1150.000000	81.034	-145.3467
1172.000000	81.093	-145.2533
1180.000000	81.080	-145.1112
1206.000000	81.107	-145.1844
1220.000000	81.122	-145.1544
1241.000000	81.163	-144.9961
1250.000000	81.172	-145.0819
1265.000000	81.170	-144.9916
1280.000000	81.188	-145.0773
1315.000000	81.190	-144.9766
1320.000000	81.196	-145.0211
1340.000000	81.212	-145.0378
1360.000000	81.190	-145.0062
1380.000000	81.177	-145.0179
1400.000000	81.193	-144.9610
1430.000000	81.171	-144.8514
1450.000000	81.163	-144.7495
1475.000000	81.142	-144.8516
1500.000000	81.117	-144.7772
1525.000000	81.107	-144.6570
1550.000000	81.087	-144.6509
1575.000000	81.063	-144.4606
1600.000000	81.049	-144.4552
1625.000000	81.050	-144.2980
1650.000000	81.016	-144.1215
1675.000000	81.007	-144.0716
1700.000000	80.978	-143.9541
1725.000000	80.974	-143.8592
1750.000000	80.955	-143.5916
1775.000000	80.945	-143.4187
1800.000000	80.948	-143.2472
1825.000000	80.913	-143.1779
1850.000000	80.916	-143.1102
1875.000000	80.930	-143.0113
1900.000000	80.915	-142.8796
1925.000000	80.933	-142.7672
1950.000000	80.913	-142.7605
1975.000000	80.916	-142.7004
2000.000000	80.883	-142.7743
2030.000000	80.915	-142.6589
2060.000000	80.920	-142.7496
2090.000000	80.935	-142.6821
2120.000000	80.928	-142.8557
2140.000000	80.927	-142.8220
2180.000000	80.938	-143.1339
2200.000000	80.924	-143.1744
2240.000000	80.908	-143.5495
2270.000000	80.901	-143.8269
2300.000000	80.878	-144.2060
2330.000000	80.861	-144.5214
2360.000000	80.814	-144.8811
2400.000000	80.789	-145.3326
2430.000000	80.726	-145.7838
2470.000000	80.674	-146.2918
2500.000000	80.592	-146.6290
2540.000000	80.478	-147.2144
2580.000000	80.362	-147.6801
2620.000000	80.258	-148.2895
2650.000000	80.161	-148.6654
2690.000000	79.997	-148.9199
2720.000000	79.887	-149.4444
2760.000000	79.749	-149.7994
2800.000000	79.564	-150.2971
2850.000000	79.253	-151.0410
2900.000000	78.792	-151.2705
2950.000000	78.392	-149.1235
3000.000000	78.329	-146.9888
3040.000000	78.210	-146.4754
3070.000000	78.075	-145.9817
3110.000000	78.029	-145.3621
3150.000000	77.933	-144.8432
3200.000000	77.772	-143.8866
3250.000000	77.663	-142.7997
3300.000000	77.525	-141.9387
3350.000000	77.383	-141.1403
3400.000000	77.329	-139.6366
3450.000000	77.241	-138.8294
3500.000000	77.223	-137.7179
3550.000000	77.165	-136.3984
3600.000000	77.175	-135.3885
3650.000000	77.183	-134.2876
3700.000000	77.190	-133.0758
3750.000000	77.207	-132.2622
3820.000000	77.341	-130.6245
3870.000000	77.413	-129.9253
3950.000000	77.559	-128.9106
4000.000000	77.697	-128.5018
4060.000000	77.795	-128.2271
4120.000000	77.977	-128.1089
4180.000000	78.149	-128.3766
4250.000000	78.332	-128.7653
4310.000000	78.492	-129.6868
4370.000000	78.600	-130.6490
4440.000000	78.723	-131.9979
4500.000000	78.772	-133.4906
4550.000000	78.810	-134.7193
4620.000000	78.710	-136.8424
4680.000000	78.644	-138.6324
4750.000000	78.474	-140.7600
4820.000000	78.242	-142.4982
4870.000000	78.028	-143.4338
4940.000000	77.681	-145.2775
5000.000000	77.408	-145.5367
5080.000000	76.934	-146.1958
5150.000000	76.543	-146.4702
5220.000000	76.139	-146.8606
5300.000000	75.709	-145.7170
5380.000000	75.311	-144.6724
5450.000000	74.993	-143.5633
5520.000000	74.716	-142.3405
5600.000000	74.345	-140.0602
5700.000000	74.022	-137.6036
5800.000000	73.809	-134.4194
5900.000000	73.647	-132.1298
6000.000000	73.537	-128.6825
6080.000000	73.496	-126.9095
6150.000000	73.525	-125.3737
6220.000000	73.568	-123.0749
6300.000000	73.531	-121.1745
6400.000000	73.645	-118.2945
6500.000000	73.773	-115.9976
6600.000000	74.022	-113.4164
6700.000000	74.268	-110.8612
6800.000000	74.637	-109.2458
6900.000000	75.008	-107.2389
7000.000000	75.477	-105.9113
7100.000000	76.035	-104.8783
7200.000000	76.595	-104.5020
7300.000000	77.251	-104.6777
7400.000000	77.931	-106.0546
7500.000000	78.653	-108.2719
7620.000000	79.387	-113.1422
7750.000000	79.967	-119.7528
7880.000000	80.173	-127.3664
8000.000000	80.034	-134.6048
8120.000000	79.618	-140.5708
8250.000000	79.070	-145.3054
8380.000000	78.417	-148.3748
8500.000000	77.926	-149.5807
8620.000000	77.421	-150.5216
8750.000000	77.077	-151.3396
8850.000000	76.851	-151.9084
9000.000000	76.486	-151.8999
9120.000000	76.324	-150.6049
9250.000000	76.428	-150.4308
9380.000000	76.573	-151.3694
9500.000000	76.750	-152.4462
9620.000000	76.911	-154.2351
9750.000000	76.999	-156.1610
9880.000000	77.201	-158.8606
10000.000000	77.289	-161.3447
10150.000000	77.386	-165.5425
10300.000000	77.548	-170.3969
10440.000000	77.555	-175.7439
10600.000000	77.255	176.9908
10750.000000	76.627	170.5646
10900.000000	75.829	166.3961
11060.000000	74.869	163.5472
11200.000000	74.066	162.4766
11380.000000	73.324	161.9391
11500.000000	73.000	162.3863
11720.000000	72.466	163.4257
11800.000000	72.204	163.5348
12060.000000	71.830	164.5107
12200.000000	71.752	165.0873
12410.000000	71.786	166.4590
12500.000000	71.817	166.3070
12650.000000	71.999	165.7305
12800.000000	72.473	165.8687
13150.000000	73.842	157.9369
13200.000000	73.851	156.0735
13400.000000	74.492	144.9043
13600.000000	74.296	130.6441
13800.000000	73.047	117.7381
14000.000000	71.249	109.0962
14300.000000	68.724	104.1352
14500.000000	67.117	103.2802
14750.000000	65.938	103.8709
15000.000000	64.605	103.9728
15250.000000	62.894	106.4910
15500.000000	61.904	114.0429
15750.000000	61.352	117.8100
16000.000000	61.525	129.0448
16250.000000	61.925	133.9384
16500.000000	62.349	131.8955
16750.000000	63.165	135.4326
17000.000000	63.864	137.4711
17250.000000	64.989	135.5015
17500.000000	66.223	133.2457
17750.000000	67.392	127.5717
18000.000000	68.473	120.1363
18250.000000	69.837	109.8035
18500.000000	70.493	94.8326
18750.000000	70.707	82.2221
19000.000000	70.542	67.5193
19250.000000	70.262	51.4162
19500.000000	69.653	34.8110
19750.000000	68.559	18.7245
