* Measurement data measured by REW V5.20.13
* Source: USB Sound Device        , MICROPHONE, R, volume: 0.697
* Format: 256k Log Swept Sine, 1 sweep at -6.0 dBFS with no timing reference
* Dated: Dec 4, 2023 1:38:50 AM
* REW Settings:
*  C-weighting compensation: Off
*  Target level: 75.0 dB
* Note: @iemworld / EPZ Q5 / XDUOO XD-05 PRO # AKM4499 - MUSES 01 / www.iem-world.com; 
* Measurement: EPZ Q5 WIZ R
* Smoothing: None
* Frequency Step: 1/48 octave
* Start Frequency: 20.000 Hz
*
* Freq(Hz)	SPL(dB)	Phase(degrees)
20.000000	85.024	14.4591
20.299999	84.986	13.3891
20.600000	84.964	12.2948
20.900000	84.956	11.2318
21.200001	84.967	10.2416
21.400000	84.987	9.6208
21.799999	85.047	8.4544
22.000000	85.083	7.9074
22.400000	85.155	6.9117
22.700001	85.202	6.3050
23.000000	85.245	5.8620
23.299999	85.287	5.5695
23.600000	85.332	5.3773
24.000000	85.390	5.1823
24.299999	85.422	5.0352
24.700001	85.437	4.8466
25.000000	85.426	4.7412
25.400000	85.392	4.6619
25.799999	85.346	4.5975
26.200001	85.290	4.4651
26.500000	85.240	4.2972
26.900000	85.164	3.9895
27.200001	85.104	3.7056
27.600000	85.026	3.2512
28.000000	84.954	2.6904
28.500000	84.874	1.8556
29.000000	84.808	0.9664
29.500000	84.766	0.0876
30.000000	84.751	-0.7884
30.400000	84.748	-1.4702
30.700001	84.748	-1.9357
31.100000	84.751	-2.4521
31.500000	84.761	-2.8527
32.000000	84.783	-3.2641
32.500000	84.798	-3.6369
33.000000	84.793	-3.9352
33.500000	84.772	-4.1203
34.000000	84.743	-4.2497
34.500000	84.707	-4.4103
35.000000	84.659	-4.6241
35.500000	84.603	-4.8876
36.000000	84.544	-5.2219
36.500000	84.481	-5.6292
37.000000	84.417	-6.0603
37.500000	84.361	-6.4841
38.200001	84.306	-7.1223
38.700001	84.272	-7.6126
39.500000	84.221	-8.2746
40.000000	84.199	-8.5954
40.599998	84.180	-8.9604
41.200001	84.155	-9.3043
41.799999	84.121	-9.5878
42.500000	84.076	-9.8748
43.099998	84.032	-10.1223
43.700001	83.983	-10.3693
44.400002	83.924	-10.6564
45.000000	83.878	-10.9140
45.500000	83.845	-11.1647
46.200001	83.795	-11.5868
46.799999	83.740	-11.9224
47.500000	83.679	-12.1661
48.200001	83.638	-12.3671
48.700001	83.611	-12.5587
49.400002	83.565	-12.8543
50.000000	83.519	-13.0989
50.799999	83.450	-13.4159
51.500000	83.388	-13.6441
52.200001	83.337	-13.8659
53.000000	83.284	-14.1857
53.799999	83.228	-14.4956
54.500000	83.182	-14.7291
55.200001	83.136	-14.9279
56.000000	83.084	-15.0813
57.000000	83.024	-15.2485
58.000000	82.952	-15.5100
59.000000	82.857	-15.7019
60.000000	82.787	-15.8677
60.799999	82.734	-16.1581
61.500000	82.680	-16.3904
62.200001	82.632	-16.5577
63.000000	82.587	-16.7147
64.000000	82.544	-16.8587
65.000000	82.498	-17.0950
66.000000	82.422	-17.2389
67.000000	82.352	-17.2928
68.000000	82.279	-17.4030
69.000000	82.209	-17.5212
70.000000	82.145	-17.6817
71.000000	82.085	-17.8558
72.000000	82.024	-18.0328
73.000000	81.958	-18.1225
74.000000	81.903	-18.2079
75.000000	81.829	-18.3021
76.199997	81.761	-18.2708
77.500000	81.678	-18.4672
78.800003	81.601	-18.4694
80.000000	81.530	-18.6196
81.199997	81.448	-18.6301
82.500000	81.373	-18.6533
83.800003	81.300	-18.7422
85.000000	81.227	-18.8443
86.199997	81.153	-18.8576
87.500000	81.089	-18.7847
88.500000	81.041	-18.7845
90.000000	80.954	-18.7425
91.199997	80.880	-18.7485
92.500000	80.804	-18.7164
93.800003	80.737	-18.7861
95.000000	80.673	-18.7728
96.199997	80.619	-18.7237
97.500000	80.562	-18.6448
98.800003	80.483	-18.6275
100.000000	80.412	-18.4310
101.500000	80.335	-18.3865
103.000000	80.268	-18.3381
104.400002	80.195	-18.3528
106.000000	80.123	-18.2014
107.500000	80.055	-18.1534
109.000000	79.973	-17.9941
110.599998	79.898	-17.8545
112.000000	79.827	-17.7907
113.800003	79.729	-17.6196
115.000000	79.671	-17.5083
117.199997	79.579	-17.3228
118.000000	79.544	-17.2731
120.599998	79.431	-17.0825
122.000000	79.348	-16.7918
124.099998	79.262	-16.7113
125.000000	79.205	-16.5691
126.500000	79.134	-16.3767
128.000000	79.064	-16.1214
131.500000	78.896	-15.6049
132.000000	78.871	-15.5131
134.000000	78.787	-15.1728
136.000000	78.672	-14.8259
138.000000	78.570	-14.4506
140.000000	78.462	-13.9646
143.000000	78.335	-13.1311
145.000000	78.219	-12.4109
147.500000	78.123	-11.4083
150.000000	78.032	-10.4232
152.500000	77.984	-9.1198
155.000000	78.005	-7.8669
157.500000	78.047	-6.7006
160.000000	78.144	-5.9705
162.500000	78.269	-5.5860
165.000000	78.366	-5.5267
167.500000	78.418	-5.6099
170.000000	78.432	-6.0695
172.500000	78.429	-6.3098
175.000000	78.386	-6.5018
177.500000	78.326	-6.6852
180.000000	78.277	-6.6789
182.500000	78.207	-6.8175
185.000000	78.131	-6.5684
187.500000	78.076	-6.4810
190.000000	77.988	-6.2540
192.500000	77.927	-6.0671
195.000000	77.852	-5.8374
197.500000	77.787	-5.5941
200.000000	77.716	-5.4898
203.000000	77.643	-4.9960
206.000000	77.583	-4.6217
209.000000	77.502	-4.2899
212.000000	77.448	-3.8031
214.000000	77.395	-3.4653
218.000000	77.299	-2.9194
220.000000	77.269	-2.5938
224.000000	77.188	-1.8853
227.000000	77.131	-1.2251
230.000000	77.086	-0.5792
233.000000	77.049	-0.0402
236.000000	77.028	0.5507
240.000000	77.012	1.3157
243.000000	77.032	1.7907
247.000000	77.026	2.1569
250.000000	77.017	2.4187
254.000000	76.966	2.5560
258.000000	76.902	2.9720
262.000000	76.864	3.2842
265.000000	76.826	3.7172
269.000000	76.769	4.2195
272.000000	76.746	4.6189
276.000000	76.684	5.1598
280.000000	76.630	5.6873
285.000000	76.573	6.2700
290.000000	76.539	6.7853
295.000000	76.487	7.5686
300.000000	76.448	8.4339
304.000000	76.409	8.8505
307.000000	76.401	9.0768
311.000000	76.343	9.6954
315.000000	76.313	10.1558
320.000000	76.269	10.7509
325.000000	76.225	11.5497
330.000000	76.179	12.0275
335.000000	76.147	12.8021
340.000000	76.097	13.2748
345.000000	76.077	14.0447
350.000000	76.045	14.7010
355.000000	76.026	15.2147
360.000000	76.017	15.9815
365.000000	75.951	16.5798
370.000000	75.930	17.2326
375.000000	75.917	17.8395
382.000000	75.862	18.8145
387.000000	75.857	19.2802
395.000000	75.815	20.2263
400.000000	75.799	20.9958
406.000000	75.754	21.6307
412.000000	75.751	22.4719
418.000000	75.738	23.2348
425.000000	75.694	23.9866
431.000000	75.649	24.6547
437.000000	75.650	25.5568
444.000000	75.656	26.1984
450.000000	75.611	27.1234
455.000000	75.596	27.6815
462.000000	75.580	28.4523
468.000000	75.571	29.0989
475.000000	75.558	30.0396
482.000000	75.530	30.8850
487.000000	75.541	31.4367
494.000000	75.506	32.2108
500.000000	75.509	32.8365
508.000000	75.499	33.7357
515.000000	75.491	34.7033
522.000000	75.492	35.4575
530.000000	75.467	36.3954
538.000000	75.461	37.1303
545.000000	75.457	38.1134
552.000000	75.442	38.8150
560.000000	75.455	39.7455
570.000000	75.437	40.8150
580.000000	75.424	41.8760
590.000000	75.454	42.9580
600.000000	75.436	44.0524
608.000000	75.427	44.7774
615.000000	75.437	45.5822
622.000000	75.425	46.5396
630.000000	75.440	47.1401
640.000000	75.482	48.2884
650.000000	75.457	49.3313
660.000000	75.464	50.4319
670.000000	75.488	51.4126
680.000000	75.491	52.3243
690.000000	75.521	53.4431
700.000000	75.527	54.2579
710.000000	75.511	54.9952
720.000000	75.470	55.9301
730.000000	75.425	56.8425
740.000000	75.306	57.8586
750.000000	75.138	60.0568
762.000000	75.289	63.9355
775.000000	75.591	65.2324
788.000000	75.779	65.9773
800.000000	75.854	66.9134
812.000000	75.916	68.0145
825.000000	76.004	69.0489
838.000000	76.037	70.3229
850.000000	76.117	71.1934
862.000000	76.186	72.2420
875.000000	76.259	73.5751
885.000000	76.304	74.4239
900.000000	76.383	75.7380
912.000000	76.445	76.8488
925.000000	76.558	78.0412
938.000000	76.648	78.9816
950.000000	76.722	80.0775
962.000000	76.804	81.0755
975.000000	76.887	81.9453
988.000000	76.982	82.8441
1000.000000	77.104	83.8461
1015.000000	77.186	84.9362
1030.000000	77.301	85.9729
1044.000000	77.375	86.9587
1060.000000	77.518	88.0584
1075.000000	77.603	88.9307
1090.000000	77.724	89.8603
1106.000000	77.823	90.7631
1120.000000	77.945	91.3750
1138.000000	78.058	92.5928
1150.000000	78.149	93.2093
1172.000000	78.306	94.2484
1180.000000	78.360	94.6861
1206.000000	78.534	95.9660
1220.000000	78.612	96.7120
1241.000000	78.728	97.5363
1250.000000	78.788	97.9381
1265.000000	78.882	98.6310
1280.000000	78.956	99.4265
1315.000000	79.182	100.9415
1320.000000	79.189	101.1459
1340.000000	79.306	101.9247
1360.000000	79.418	102.7367
1380.000000	79.523	103.6136
1400.000000	79.643	104.3821
1430.000000	79.826	105.4900
1450.000000	79.907	106.5335
1475.000000	80.023	107.4699
1500.000000	80.180	108.2456
1525.000000	80.296	109.2360
1550.000000	80.415	110.2584
1575.000000	80.547	111.0538
1600.000000	80.692	111.9042
1625.000000	80.806	112.8227
1650.000000	80.919	113.7918
1675.000000	81.074	114.5446
1700.000000	81.195	115.4280
1725.000000	81.312	116.2002
1750.000000	81.455	116.8352
1775.000000	81.595	117.8769
1800.000000	81.709	118.3629
1825.000000	81.850	119.0473
1850.000000	81.975	119.8304
1875.000000	82.101	120.3536
1900.000000	82.247	120.9083
1925.000000	82.369	121.5996
1950.000000	82.501	122.0896
1975.000000	82.617	122.6733
2000.000000	82.726	123.1143
2030.000000	82.916	123.5961
2060.000000	83.061	124.2203
2090.000000	83.210	124.6029
2120.000000	83.364	125.1294
2140.000000	83.447	125.2997
2180.000000	83.636	125.7362
2200.000000	83.727	125.9805
2240.000000	83.905	126.2183
2270.000000	84.011	126.4683
2300.000000	84.149	126.6639
2330.000000	84.272	126.8508
2360.000000	84.384	126.9952
2400.000000	84.516	127.1858
2430.000000	84.612	127.1873
2470.000000	84.751	127.2950
2500.000000	84.839	127.3395
2540.000000	84.960	127.2484
2580.000000	85.074	127.1263
2620.000000	85.149	126.9075
2650.000000	85.210	126.6522
2690.000000	85.235	126.4719
2720.000000	85.258	126.3311
2760.000000	85.259	126.3771
2800.000000	85.265	126.2872
2850.000000	85.260	126.5097
2900.000000	85.251	127.0351
2950.000000	85.293	127.4836
3000.000000	85.346	127.6061
3040.000000	85.356	127.9377
3070.000000	85.358	128.0402
3110.000000	85.383	128.1654
3150.000000	85.404	128.3728
3200.000000	85.418	128.6375
3250.000000	85.429	128.7479
3300.000000	85.406	128.8462
3350.000000	85.378	128.9694
3400.000000	85.344	129.2459
3450.000000	85.290	129.5684
3500.000000	85.235	130.0285
3550.000000	85.180	130.5452
3600.000000	85.125	131.1268
3650.000000	85.075	131.8126
3700.000000	85.049	132.4371
3750.000000	85.003	133.2657
3820.000000	84.969	134.3502
3870.000000	84.985	135.1226
3950.000000	84.970	136.4267
4000.000000	84.978	137.3559
4060.000000	84.995	138.1001
4120.000000	85.019	138.9088
4180.000000	85.065	139.7810
4250.000000	85.114	140.7389
4310.000000	85.163	141.4061
4370.000000	85.218	142.0434
4440.000000	85.271	142.6733
4500.000000	85.340	143.1590
4550.000000	85.395	143.5685
4620.000000	85.469	143.8836
4680.000000	85.518	144.0841
4750.000000	85.570	144.1139
4820.000000	85.625	144.1855
4870.000000	85.627	144.0573
4940.000000	85.636	143.8075
5000.000000	85.619	143.5131
5080.000000	85.595	143.1732
5150.000000	85.521	142.8887
5220.000000	85.429	142.5154
5300.000000	85.304	142.2126
5380.000000	85.128	141.9822
5450.000000	84.951	141.9177
5520.000000	84.766	141.9234
5600.000000	84.551	142.1049
5700.000000	84.242	142.6551
5800.000000	83.927	143.2878
5900.000000	83.605	144.3617
6000.000000	83.297	145.6261
6080.000000	83.050	146.8323
6150.000000	82.785	148.0743
6220.000000	82.544	149.7404
6300.000000	82.255	152.5782
6400.000000	82.202	156.6475
6500.000000	82.362	158.3837
6600.000000	82.283	159.4125
6700.000000	82.182	161.4892
6800.000000	82.073	163.4353
6900.000000	82.085	165.7567
7000.000000	82.075	167.7060
7100.000000	82.175	170.1951
7200.000000	82.297	172.0735
7300.000000	82.486	173.7652
7400.000000	82.736	174.9744
7500.000000	83.002	175.7595
7620.000000	83.374	175.8754
7750.000000	83.762	174.9622
7880.000000	84.134	172.5583
8000.000000	84.349	169.2190
8120.000000	84.371	164.6725
8250.000000	84.090	159.4160
8380.000000	83.551	154.3141
8500.000000	82.812	150.5947
8620.000000	81.939	148.2560
8750.000000	80.921	146.7979
8850.000000	80.063	147.0198
9000.000000	78.938	147.9716
9120.000000	78.035	150.2508
9250.000000	77.187	152.6461
9380.000000	76.371	155.8092
9500.000000	75.690	159.4068
9620.000000	75.058	162.5371
9750.000000	74.469	166.7881
9880.000000	73.979	170.4495
10000.000000	73.483	174.7500
10150.000000	72.929	-179.6191
10300.000000	72.503	-174.1293
10440.000000	72.212	-169.2887
10600.000000	71.813	-161.9845
10750.000000	71.586	-155.2829
10900.000000	71.574	-149.3099
11060.000000	71.579	-142.3459
11200.000000	71.698	-136.5208
11380.000000	71.916	-129.2196
11500.000000	72.027	-123.8142
11720.000000	72.795	-116.1405
11800.000000	73.092	-112.3099
12060.000000	74.241	-102.7420
12200.000000	75.177	-97.8483
12410.000000	76.799	-91.9332
12500.000000	77.643	-90.2331
12650.000000	79.376	-87.9582
12800.000000	81.544	-88.1200
13150.000000	87.613	-121.6768
13200.000000	87.830	-132.5476
13400.000000	85.214	-167.0506
13600.000000	81.500	-177.6363
13800.000000	78.819	-178.0952
14000.000000	76.717	-175.0641
14300.000000	74.595	-167.5093
14500.000000	73.723	-161.7993
14750.000000	72.882	-154.9497
15000.000000	72.727	-147.1077
15250.000000	72.733	-140.7499
15500.000000	73.375	-135.8857
15750.000000	74.370	-134.7048
16000.000000	75.756	-139.1038
16250.000000	76.907	-152.1723
16500.000000	76.463	-170.7231
16750.000000	74.427	176.2860
17000.000000	72.363	172.2155
17250.000000	70.711	170.1476
17500.000000	69.192	167.0346
17750.000000	67.594	167.7899
18000.000000	66.312	168.8891
18250.000000	65.120	166.5267
18500.000000	63.300	166.3882
18750.000000	62.133	163.2540
19000.000000	60.655	162.0506
19250.000000	58.002	157.2416
19500.000000	55.546	159.7670
19750.000000	53.265	164.2468
