* Measurement data measured by REW V5.20.13
* Source: USB Sound Device        , MICROPHONE, R, volume: 0.697
* Format: 256k Log Swept Sine, 1 sweep at -6.0 dBFS with no timing reference
* Dated: Dec 4, 2023 3:27:06 AM
* REW Settings:
*  C-weighting compensation: Off
*  Target level: 75.0 dB
* Note: @iemworld / EPZ Q1 / XDUOO XD-05 PRO # AKM4499 - MUSES 01 / www.iem-world.com; 
* Measurement: EPZ Q1 OR-S-DUBL 75 OHM L
* Smoothing: None
* Frequency Step: 1/48 octave
* Start Frequency: 20.000 Hz
*
* Freq(Hz)	SPL(dB)	Phase(degrees)
20.000000	86.109	-147.8304
20.299999	86.188	-148.0990
20.600000	86.254	-148.3159
20.900000	86.306	-148.5261
21.200001	86.339	-148.7498
21.400000	86.348	-148.8979
21.799999	86.345	-149.1806
22.000000	86.336	-149.3213
22.400000	86.311	-149.6479
22.700001	86.289	-149.9908
23.000000	86.261	-150.4527
23.299999	86.223	-151.0135
23.600000	86.178	-151.6335
24.000000	86.117	-152.4969
24.299999	86.080	-153.1643
24.700001	86.052	-154.1182
25.000000	86.046	-154.9032
25.400000	86.048	-156.0176
25.799999	86.057	-157.1128
26.200001	86.077	-158.0990
26.500000	86.105	-158.7573
26.900000	86.156	-159.5545
27.200001	86.201	-160.1090
27.600000	86.259	-160.7834
28.000000	86.312	-161.3516
28.500000	86.368	-161.9023
29.000000	86.413	-162.3406
29.500000	86.441	-162.7239
30.000000	86.447	-163.0636
30.400000	86.442	-163.3267
30.700001	86.434	-163.5460
31.100000	86.415	-163.8958
31.500000	86.386	-164.3058
32.000000	86.336	-164.8547
32.500000	86.288	-165.4163
33.000000	86.251	-166.0289
33.500000	86.227	-166.7253
34.000000	86.209	-167.4752
34.500000	86.196	-168.2221
35.000000	86.189	-168.9255
35.500000	86.188	-169.5470
36.000000	86.194	-170.0681
36.500000	86.210	-170.5260
37.000000	86.229	-170.9813
37.500000	86.237	-171.4352
38.200001	86.228	-171.9859
38.700001	86.214	-172.3278
39.500000	86.179	-172.8929
40.000000	86.146	-173.2288
40.599998	86.111	-173.6057
41.200001	86.085	-174.0476
41.799999	86.056	-174.5642
42.500000	86.019	-175.1408
43.099998	85.997	-175.6101
43.700001	85.978	-176.0993
44.400002	85.950	-176.6157
45.000000	85.931	-176.9764
45.500000	85.921	-177.2837
46.200001	85.903	-177.7730
46.799999	85.874	-178.1852
47.500000	85.834	-178.5932
48.200001	85.801	-178.9738
48.700001	85.780	-179.2638
49.400002	85.747	-179.6770
50.000000	85.721	179.9979
50.799999	85.692	179.5757
51.500000	85.664	179.1964
52.200001	85.632	178.8691
53.000000	85.598	178.5330
53.799999	85.558	178.1761
54.500000	85.518	177.8961
55.200001	85.484	177.6149
56.000000	85.445	177.2318
57.000000	85.393	176.7287
58.000000	85.341	176.2684
59.000000	85.300	175.9149
60.000000	85.269	175.5572
60.799999	85.237	175.2932
61.500000	85.206	175.0957
62.200001	85.173	174.8949
63.000000	85.131	174.6521
64.000000	85.073	174.3429
65.000000	85.018	174.0172
66.000000	84.970	173.6924
67.000000	84.930	173.3211
68.000000	84.875	172.9962
69.000000	84.831	172.8434
70.000000	84.796	172.6160
71.000000	84.746	172.3955
72.000000	84.696	172.1795
73.000000	84.638	171.9559
74.000000	84.590	171.7835
75.000000	84.551	171.5286
76.199997	84.490	171.2624
77.500000	84.441	171.0798
78.800003	84.389	170.8196
80.000000	84.328	170.6304
81.199997	84.280	170.4908
82.500000	84.217	170.2611
83.800003	84.168	170.1279
85.000000	84.103	169.9113
86.199997	84.050	169.9165
87.500000	84.004	169.6794
88.500000	83.951	169.5771
90.000000	83.896	169.4051
91.199997	83.838	169.2841
92.500000	83.788	169.2622
93.800003	83.743	169.1453
95.000000	83.684	169.0545
96.199997	83.634	169.0134
97.500000	83.584	168.9073
98.800003	83.537	168.7939
100.000000	83.488	168.7147
101.500000	83.436	168.6969
103.000000	83.385	168.6327
104.400002	83.320	168.5995
106.000000	83.270	168.5885
107.500000	83.215	168.5428
109.000000	83.156	168.4998
110.599998	83.108	168.4594
112.000000	83.046	168.4041
113.800003	82.985	168.4097
115.000000	82.946	168.3943
117.199997	82.880	168.4074
118.000000	82.841	168.4499
120.599998	82.769	168.4415
122.000000	82.718	168.4648
124.099998	82.649	168.5700
125.000000	82.622	168.5160
126.500000	82.563	168.6489
128.000000	82.526	168.6888
131.500000	82.415	168.7302
132.000000	82.397	168.7716
134.000000	82.345	168.8755
136.000000	82.284	168.9071
138.000000	82.233	169.1058
140.000000	82.166	169.1255
143.000000	82.082	169.3104
145.000000	82.027	169.4323
147.500000	81.959	169.5299
150.000000	81.889	169.6841
152.500000	81.823	169.8340
155.000000	81.756	170.0474
157.500000	81.689	170.2327
160.000000	81.618	170.3837
162.500000	81.549	170.6269
165.000000	81.477	170.8486
167.500000	81.406	171.0566
170.000000	81.331	171.3560
172.500000	81.256	171.7161
175.000000	81.193	172.1421
177.500000	81.112	172.7109
180.000000	81.060	173.2759
182.500000	81.019	174.1045
185.000000	81.017	174.8883
187.500000	81.061	175.4994
190.000000	81.123	175.8288
192.500000	81.170	175.9626
195.000000	81.200	175.9052
197.500000	81.221	175.7704
200.000000	81.219	175.7125
203.000000	81.189	175.7249
206.000000	81.151	175.6916
209.000000	81.116	175.6866
212.000000	81.061	175.8401
214.000000	81.040	175.8877
218.000000	80.980	175.9965
220.000000	80.955	176.1117
224.000000	80.903	176.3754
227.000000	80.861	176.5306
230.000000	80.836	176.7146
233.000000	80.779	177.0172
236.000000	80.758	177.1841
240.000000	80.709	177.3935
243.000000	80.670	177.6326
247.000000	80.636	177.9297
250.000000	80.598	178.1775
254.000000	80.564	178.5700
258.000000	80.525	178.8315
262.000000	80.486	179.0934
265.000000	80.469	179.3983
269.000000	80.431	179.6245
272.000000	80.412	179.9131
276.000000	80.371	-179.7335
280.000000	80.350	-179.3693
285.000000	80.307	-179.0543
290.000000	80.272	-178.6955
295.000000	80.247	-178.2773
300.000000	80.211	-177.9043
304.000000	80.196	-177.5906
307.000000	80.180	-177.3681
311.000000	80.150	-177.0984
315.000000	80.129	-176.7834
320.000000	80.123	-176.4086
325.000000	80.075	-176.1027
330.000000	80.059	-175.6523
335.000000	80.033	-175.4363
340.000000	80.014	-175.0524
345.000000	79.995	-174.7068
350.000000	79.960	-174.3448
355.000000	79.942	-173.9862
360.000000	79.919	-173.7481
365.000000	79.908	-173.2375
370.000000	79.880	-172.9958
375.000000	79.853	-172.6151
382.000000	79.834	-172.1145
387.000000	79.800	-171.7936
395.000000	79.764	-171.1779
400.000000	79.756	-170.6104
406.000000	79.721	-170.1314
412.000000	79.720	-169.5544
418.000000	79.744	-168.9075
425.000000	79.788	-168.3983
431.000000	79.818	-168.1404
437.000000	79.826	-168.0096
444.000000	79.817	-167.8933
450.000000	79.802	-167.6517
455.000000	79.777	-167.3986
462.000000	79.761	-167.1191
468.000000	79.745	-166.7983
475.000000	79.705	-166.4942
482.000000	79.671	-166.0071
487.000000	79.641	-165.7505
494.000000	79.614	-165.1714
500.000000	79.588	-164.6319
508.000000	79.585	-163.8631
515.000000	79.599	-162.9996
522.000000	79.669	-162.3931
530.000000	79.750	-162.2126
538.000000	79.775	-162.2673
545.000000	79.731	-162.2817
552.000000	79.681	-161.9098
560.000000	79.640	-161.0872
570.000000	79.669	-159.9770
580.000000	79.728	-159.2547
590.000000	79.806	-158.9203
600.000000	79.867	-158.5326
608.000000	79.890	-158.4121
615.000000	79.912	-158.1724
622.000000	79.939	-157.8936
630.000000	79.947	-157.7619
640.000000	79.958	-157.5159
650.000000	79.985	-157.2453
660.000000	79.971	-156.8399
670.000000	79.988	-156.6334
680.000000	79.998	-156.3147
690.000000	80.010	-155.9499
700.000000	80.031	-155.7572
710.000000	80.056	-155.4162
720.000000	80.051	-155.1381
730.000000	80.056	-154.8238
740.000000	80.073	-154.5058
750.000000	80.070	-154.2006
762.000000	80.086	-153.8934
775.000000	80.108	-153.3988
788.000000	80.125	-153.0504
800.000000	80.128	-152.6420
812.000000	80.158	-152.2804
825.000000	80.170	-152.0354
838.000000	80.180	-151.6151
850.000000	80.198	-151.3880
862.000000	80.230	-151.0516
875.000000	80.244	-150.6515
885.000000	80.256	-150.4474
900.000000	80.283	-149.9889
912.000000	80.294	-149.7456
925.000000	80.325	-149.4773
938.000000	80.371	-149.1510
950.000000	80.385	-148.8248
962.000000	80.426	-148.6190
975.000000	80.439	-148.3342
988.000000	80.481	-148.1262
1000.000000	80.461	-148.0114
1015.000000	80.527	-147.7260
1030.000000	80.546	-147.5591
1044.000000	80.601	-147.2938
1060.000000	80.625	-147.1281
1075.000000	80.641	-147.0195
1090.000000	80.689	-146.9157
1106.000000	80.706	-146.6703
1120.000000	80.739	-146.6723
1138.000000	80.763	-146.5751
1150.000000	80.774	-146.6686
1172.000000	80.807	-146.3227
1180.000000	80.833	-146.3423
1206.000000	80.862	-146.3593
1220.000000	80.861	-146.2881
1241.000000	80.875	-146.3790
1250.000000	80.876	-146.2687
1265.000000	80.895	-146.3790
1280.000000	80.883	-146.2966
1315.000000	80.897	-146.2174
1320.000000	80.880	-146.3291
1340.000000	80.879	-146.2558
1360.000000	80.870	-146.2564
1380.000000	80.870	-146.2417
1400.000000	80.852	-146.2339
1430.000000	80.829	-146.3039
1450.000000	80.798	-146.2327
1475.000000	80.784	-146.1544
1500.000000	80.732	-145.9205
1525.000000	80.717	-145.9001
1550.000000	80.684	-145.7951
1575.000000	80.657	-145.6293
1600.000000	80.620	-145.6389
1625.000000	80.575	-145.3224
1650.000000	80.565	-145.1512
1675.000000	80.531	-144.9145
1700.000000	80.522	-144.7643
1725.000000	80.486	-144.5138
1750.000000	80.465	-144.3797
1775.000000	80.429	-144.1000
1800.000000	80.401	-143.9242
1825.000000	80.388	-143.6953
1850.000000	80.381	-143.3540
1875.000000	80.346	-143.3220
1900.000000	80.343	-143.0123
1925.000000	80.336	-142.9324
1950.000000	80.319	-142.7177
1975.000000	80.324	-142.6762
2000.000000	80.311	-142.2094
2030.000000	80.279	-142.3656
2060.000000	80.240	-142.2748
2090.000000	80.256	-142.0402
2120.000000	80.216	-141.8810
2140.000000	80.189	-141.7199
2180.000000	80.162	-141.4416
2200.000000	80.121	-141.2110
2240.000000	80.102	-140.7719
2270.000000	80.105	-140.3538
2300.000000	80.156	-139.7881
2330.000000	80.271	-139.5783
2360.000000	80.353	-139.8221
2400.000000	80.416	-140.4244
2430.000000	80.434	-140.8862
2470.000000	80.400	-141.6097
2500.000000	80.345	-142.1737
2540.000000	80.271	-142.6120
2580.000000	80.189	-142.6222
2620.000000	80.142	-142.8414
2650.000000	80.108	-142.9944
2690.000000	80.106	-143.3002
2720.000000	80.092	-143.7411
2760.000000	80.076	-144.5398
2800.000000	79.953	-145.4939
2850.000000	79.788	-146.8061
2900.000000	79.444	-147.9311
2950.000000	78.979	-147.5724
3000.000000	78.792	-145.5850
3040.000000	78.733	-145.1819
3070.000000	78.655	-145.0903
3110.000000	78.577	-144.7145
3150.000000	78.456	-144.3818
3200.000000	78.321	-143.8473
3250.000000	78.165	-143.2749
3300.000000	78.020	-142.9663
3350.000000	77.881	-141.9830
3400.000000	77.776	-141.3154
3450.000000	77.649	-140.3113
3500.000000	77.573	-139.3807
3550.000000	77.459	-138.3387
3600.000000	77.434	-137.3346
3650.000000	77.392	-136.0995
3700.000000	77.442	-135.1586
3750.000000	77.459	-134.0150
3820.000000	77.483	-132.9396
3870.000000	77.582	-132.1369
3950.000000	77.670	-131.2368
4000.000000	77.788	-130.7518
4060.000000	77.928	-130.5473
4120.000000	78.107	-130.5731
4180.000000	78.246	-130.5746
4250.000000	78.426	-131.0710
4310.000000	78.569	-131.7049
4370.000000	78.704	-132.5556
4440.000000	78.818	-134.0512
4500.000000	78.884	-135.5208
4550.000000	78.920	-137.0708
4620.000000	78.891	-139.0669
4680.000000	78.837	-141.3486
4750.000000	78.666	-143.4800
4820.000000	78.421	-145.9510
4870.000000	78.184	-147.1405
4940.000000	77.856	-148.6804
5000.000000	77.536	-150.2554
5080.000000	77.048	-150.9263
5150.000000	76.618	-151.5639
5220.000000	76.137	-151.4104
5300.000000	75.701	-150.9773
5380.000000	75.167	-150.1682
5450.000000	74.750	-149.0741
5520.000000	74.435	-147.3637
5600.000000	74.064	-145.7197
5700.000000	73.649	-143.1220
5800.000000	73.372	-140.1294
5900.000000	73.094	-137.1216
6000.000000	72.935	-134.1276
6080.000000	72.823	-132.0212
6150.000000	72.805	-129.4980
6220.000000	72.752	-127.2615
6300.000000	72.752	-125.0785
6400.000000	72.773	-121.5829
6500.000000	72.895	-119.0396
6600.000000	72.982	-115.9494
6700.000000	73.282	-112.9673
6800.000000	73.560	-109.9277
6900.000000	73.976	-107.1800
7000.000000	74.441	-104.6057
7100.000000	75.047	-101.9986
7200.000000	75.796	-100.3659
7300.000000	76.610	-98.9997
7400.000000	77.551	-98.7517
7500.000000	78.620	-100.0349
7620.000000	80.135	-103.7190
7750.000000	81.690	-112.2899
7880.000000	82.854	-126.9100
8000.000000	82.825	-142.9222
8120.000000	81.903	-156.3551
8250.000000	80.368	-165.5072
8380.000000	78.905	-170.2082
8500.000000	77.738	-172.0686
8620.000000	76.789	-172.8505
8750.000000	75.886	-172.7961
8850.000000	75.295	-172.3421
9000.000000	74.567	-170.5422
9120.000000	74.152	-168.3188
9250.000000	73.975	-166.5891
9380.000000	73.880	-165.6071
9500.000000	73.922	-165.5389
9620.000000	73.842	-166.4328
9750.000000	73.905	-167.7675
9880.000000	73.917	-169.0054
10000.000000	73.824	-170.5183
10150.000000	73.824	-172.5610
10300.000000	73.814	-175.0574
10440.000000	73.892	-178.1193
10600.000000	73.822	175.4549
10750.000000	73.452	170.4954
10900.000000	72.737	163.8548
11060.000000	71.791	159.5936
11200.000000	70.816	156.6436
11380.000000	69.549	157.2051
11500.000000	69.029	157.6093
11720.000000	67.716	159.6468
11800.000000	67.407	159.8668
12060.000000	66.302	161.8798
12200.000000	65.814	163.5348
12410.000000	65.108	167.2986
12500.000000	64.887	168.2661
12650.000000	64.388	171.1964
12800.000000	64.159	176.0381
13150.000000	63.457	-176.4438
13200.000000	63.300	-175.5124
13400.000000	63.739	-171.1590
13600.000000	63.707	-165.7053
13800.000000	63.976	-159.9731
14000.000000	64.101	-155.1900
14300.000000	65.618	-149.0647
14500.000000	66.731	-144.5411
14750.000000	68.624	-143.5423
15000.000000	70.891	-145.6122
15250.000000	73.231	-152.1747
15500.000000	76.495	-167.5602
15750.000000	77.422	157.5344
16000.000000	75.038	135.6978
16250.000000	73.097	129.0597
16500.000000	72.025	125.8224
16750.000000	71.492	123.7161
17000.000000	71.274	120.1587
17250.000000	71.189	115.3167
17500.000000	71.607	109.0323
17750.000000	71.782	99.4669
18000.000000	71.452	89.9944
18250.000000	71.187	79.1700
18500.000000	70.183	68.8875
18750.000000	68.822	60.9069
19000.000000	67.667	57.3994
19250.000000	66.860	54.2634
19500.000000	65.631	52.2003
19750.000000	65.328	53.2585
