* Measurement data measured by REW V5.20.13
* Source: USB Sound Device        , MICROPHONE, R, volume: 0.582
* Format: 256k Log Swept Sine, 1 sweep at -6.0 dBFS with no timing reference
* Dated: Oct 1, 2023 4:15:40 PM
* REW Settings:
*  C-weighting compensation: Off
*  Target level: 75.0 dB
* Note: ; 
* Measurement: Fiio FA9 123 L
* Smoothing: None
* Frequency Step: 1/48 octave
* Start Frequency: 20.000 Hz
*
* Freq(Hz)	SPL(dB)	Phase(degrees)
20.000000	86.202	-150.2162
20.299999	86.281	-150.4032
20.600000	86.350	-150.5598
20.900000	86.406	-150.7136
21.200001	86.448	-150.8762
21.400000	86.467	-150.9837
21.799999	86.490	-151.1903
22.000000	86.496	-151.2944
22.400000	86.504	-151.5384
22.700001	86.509	-151.7938
23.000000	86.510	-152.1364
23.299999	86.506	-152.5532
23.600000	86.497	-153.0169
24.000000	86.483	-153.6689
24.299999	86.480	-154.1743
24.700001	86.489	-154.8897
25.000000	86.505	-155.4693
25.400000	86.535	-156.2833
25.799999	86.571	-157.0864
26.200001	86.615	-157.8248
26.500000	86.655	-158.3289
26.900000	86.716	-158.9459
27.200001	86.765	-159.3726
27.600000	86.830	-159.8859
28.000000	86.892	-160.3222
28.500000	86.964	-160.7717
29.000000	87.027	-161.1611
29.500000	87.073	-161.5071
30.000000	87.105	-161.8005
30.400000	87.125	-162.0219
30.700001	87.137	-162.2076
31.100000	87.149	-162.5049
31.500000	87.152	-162.8497
32.000000	87.147	-163.2997
32.500000	87.142	-163.7514
33.000000	87.148	-164.2503
33.500000	87.159	-164.8273
34.000000	87.172	-165.4417
34.500000	87.186	-166.0312
35.000000	87.208	-166.5772
35.500000	87.236	-167.0885
36.000000	87.269	-167.5688
36.500000	87.303	-168.0188
37.000000	87.335	-168.4424
37.500000	87.360	-168.8315
38.200001	87.388	-169.2980
38.700001	87.407	-169.6030
39.500000	87.433	-170.1426
40.000000	87.441	-170.5069
40.599998	87.446	-170.9420
41.200001	87.451	-171.3822
41.799999	87.458	-171.8387
42.500000	87.469	-172.3833
43.099998	87.480	-172.8542
43.700001	87.491	-173.3127
44.400002	87.505	-173.8176
45.000000	87.518	-174.2396
45.500000	87.526	-174.5806
46.200001	87.536	-175.0181
46.799999	87.547	-175.3840
47.500000	87.558	-175.8507
48.200001	87.561	-176.3103
48.700001	87.563	-176.6117
49.400002	87.571	-177.0354
50.000000	87.578	-177.4101
50.799999	87.586	-177.8813
51.500000	87.597	-178.2822
52.200001	87.606	-178.6963
53.000000	87.610	-179.1575
53.799999	87.609	-179.5867
54.500000	87.608	-179.9424
55.200001	87.610	179.6918
56.000000	87.612	179.2319
57.000000	87.609	178.6297
58.000000	87.606	178.0735
59.000000	87.610	177.5505
60.000000	87.615	177.0412
60.799999	87.621	176.6660
61.500000	87.626	176.3145
62.200001	87.624	175.9411
63.000000	87.614	175.5520
64.000000	87.607	175.1120
65.000000	87.606	174.6172
66.000000	87.601	174.1065
67.000000	87.600	173.6227
68.000000	87.599	173.1470
69.000000	87.597	172.7065
70.000000	87.594	172.2714
71.000000	87.587	171.8533
72.000000	87.581	171.4291
73.000000	87.572	170.9943
74.000000	87.566	170.5818
75.000000	87.567	170.1248
76.199997	87.550	169.5746
77.500000	87.548	169.1056
78.800003	87.534	168.5313
80.000000	87.524	168.1122
81.199997	87.519	167.5924
82.500000	87.500	167.0644
83.800003	87.489	166.5970
85.000000	87.479	166.1288
86.199997	87.464	165.6906
87.500000	87.450	165.2161
88.500000	87.437	164.8576
90.000000	87.423	164.3273
91.199997	87.416	163.8899
92.500000	87.403	163.4038
93.800003	87.385	162.9595
95.000000	87.373	162.5868
96.199997	87.359	162.1581
97.500000	87.344	161.7317
98.800003	87.324	161.2631
100.000000	87.313	160.9206
101.500000	87.295	160.3775
103.000000	87.278	159.9327
104.400002	87.258	159.4592
106.000000	87.241	158.9793
107.500000	87.220	158.4998
109.000000	87.201	158.0830
110.599998	87.183	157.5986
112.000000	87.165	157.1813
113.800003	87.137	156.6499
115.000000	87.123	156.3028
117.199997	87.089	155.7435
118.000000	87.084	155.5060
120.599998	87.044	154.7491
122.000000	87.026	154.3371
124.099998	87.000	153.7827
125.000000	86.982	153.5372
126.500000	86.965	153.1989
128.000000	86.942	152.7687
131.500000	86.894	151.8535
132.000000	86.887	151.7148
134.000000	86.858	151.2119
136.000000	86.831	150.7489
138.000000	86.800	150.2347
140.000000	86.774	149.7988
143.000000	86.734	149.0977
145.000000	86.707	148.5942
147.500000	86.672	148.0324
150.000000	86.635	147.4787
152.500000	86.600	146.8874
155.000000	86.568	146.3391
157.500000	86.531	145.8007
160.000000	86.499	145.2884
162.500000	86.465	144.7696
165.000000	86.431	144.2671
167.500000	86.394	143.7438
170.000000	86.368	143.2098
172.500000	86.334	142.7614
175.000000	86.305	142.2776
177.500000	86.267	141.8166
180.000000	86.234	141.3191
182.500000	86.204	140.8683
185.000000	86.170	140.4404
187.500000	86.141	139.9774
190.000000	86.113	139.5111
192.500000	86.080	139.1101
195.000000	86.051	138.6929
197.500000	86.021	138.2644
200.000000	85.992	137.8306
203.000000	85.956	137.3680
206.000000	85.923	136.8857
209.000000	85.886	136.4499
212.000000	85.847	135.9684
214.000000	85.832	135.6442
218.000000	85.792	135.0362
220.000000	85.767	134.7328
224.000000	85.723	134.2409
227.000000	85.691	133.7871
230.000000	85.664	133.3437
233.000000	85.635	132.9437
236.000000	85.605	132.5317
240.000000	85.561	132.0203
243.000000	85.537	131.6264
247.000000	85.496	131.1164
250.000000	85.469	130.7240
254.000000	85.435	130.2671
258.000000	85.406	129.7544
262.000000	85.366	129.2747
265.000000	85.341	128.9530
269.000000	85.316	128.4637
272.000000	85.291	128.1862
276.000000	85.261	127.7508
280.000000	85.236	127.3250
285.000000	85.202	126.7718
290.000000	85.166	126.2763
295.000000	85.127	125.7620
300.000000	85.100	125.2544
304.000000	85.070	124.9058
307.000000	85.057	124.6252
311.000000	85.034	124.2103
315.000000	85.010	123.8836
320.000000	84.981	123.3903
325.000000	84.957	123.0027
330.000000	84.928	122.5821
335.000000	84.901	122.2233
340.000000	84.878	121.7705
345.000000	84.856	121.3774
350.000000	84.838	121.0383
355.000000	84.816	120.6836
360.000000	84.795	120.2897
365.000000	84.783	119.9950
370.000000	84.762	119.6380
375.000000	84.746	119.3549
382.000000	84.725	118.8421
387.000000	84.708	118.5765
395.000000	84.681	118.0504
400.000000	84.668	117.8311
406.000000	84.665	117.4538
412.000000	84.644	117.1919
418.000000	84.640	116.9025
425.000000	84.622	116.4986
431.000000	84.621	116.2983
437.000000	84.609	116.0312
444.000000	84.599	115.7057
450.000000	84.599	115.4154
455.000000	84.601	115.2783
462.000000	84.586	115.0721
468.000000	84.594	114.7924
475.000000	84.591	114.4984
482.000000	84.595	114.2982
487.000000	84.594	114.1530
494.000000	84.597	113.9048
500.000000	84.602	113.7624
508.000000	84.620	113.5318
515.000000	84.619	113.3363
522.000000	84.629	113.2073
530.000000	84.640	112.9980
538.000000	84.661	112.7939
545.000000	84.668	112.6647
552.000000	84.686	112.5363
560.000000	84.693	112.3516
570.000000	84.731	112.1578
580.000000	84.754	112.0037
590.000000	84.787	111.7980
600.000000	84.808	111.6679
608.000000	84.840	111.5922
615.000000	84.863	111.5097
622.000000	84.893	111.4537
630.000000	84.925	111.3472
640.000000	84.959	111.2145
650.000000	84.996	111.1622
660.000000	85.050	111.0713
670.000000	85.087	110.9777
680.000000	85.125	110.9122
690.000000	85.179	110.8406
700.000000	85.227	110.8304
710.000000	85.288	110.7230
720.000000	85.343	110.7108
730.000000	85.392	110.6332
740.000000	85.455	110.5991
750.000000	85.512	110.5826
762.000000	85.582	110.5031
775.000000	85.669	110.4569
788.000000	85.751	110.3783
800.000000	85.832	110.3761
812.000000	85.910	110.2656
825.000000	86.001	110.2165
838.000000	86.100	110.1243
850.000000	86.189	110.0323
862.000000	86.284	109.9757
875.000000	86.382	109.8457
885.000000	86.457	109.7481
900.000000	86.577	109.5961
912.000000	86.678	109.4706
925.000000	86.777	109.2514
938.000000	86.882	109.0634
950.000000	86.981	108.8502
962.000000	87.078	108.6424
975.000000	87.191	108.3665
988.000000	87.298	108.0924
1000.000000	87.384	107.8880
1015.000000	87.510	107.4739
1030.000000	87.631	107.0573
1044.000000	87.735	106.6356
1060.000000	87.857	106.1766
1075.000000	87.958	105.6490
1090.000000	88.070	105.1484
1106.000000	88.173	104.5915
1120.000000	88.260	104.0866
1138.000000	88.368	103.4117
1150.000000	88.439	102.9571
1172.000000	88.559	102.0602
1180.000000	88.600	101.7660
1206.000000	88.722	100.6884
1220.000000	88.782	100.1366
1241.000000	88.858	99.2003
1250.000000	88.901	98.8780
1265.000000	88.940	98.2578
1280.000000	88.990	97.6768
1315.000000	89.081	96.3041
1320.000000	89.089	96.1107
1340.000000	89.133	95.3350
1360.000000	89.169	94.6041
1380.000000	89.193	93.8647
1400.000000	89.216	93.1909
1430.000000	89.233	92.1689
1450.000000	89.239	91.5075
1475.000000	89.252	90.7344
1500.000000	89.246	89.9992
1525.000000	89.243	89.3058
1550.000000	89.233	88.6636
1575.000000	89.219	88.0448
1600.000000	89.211	87.5046
1625.000000	89.188	87.0098
1650.000000	89.168	86.5103
1675.000000	89.147	86.0348
1700.000000	89.122	85.6053
1725.000000	89.098	85.2068
1750.000000	89.079	84.8763
1775.000000	89.058	84.5079
1800.000000	89.032	84.1563
1825.000000	89.017	83.8613
1850.000000	88.992	83.5786
1875.000000	88.972	83.2645
1900.000000	88.952	83.0227
1925.000000	88.930	82.7059
1950.000000	88.912	82.4315
1975.000000	88.888	82.1583
2000.000000	88.856	81.9168
2030.000000	88.847	81.6101
2060.000000	88.818	81.3100
2090.000000	88.794	81.0479
2120.000000	88.760	80.7382
2140.000000	88.748	80.5588
2180.000000	88.711	80.1785
2200.000000	88.690	79.9853
2240.000000	88.648	79.6608
2270.000000	88.610	79.4505
2300.000000	88.582	79.1252
2330.000000	88.549	78.8816
2360.000000	88.516	78.6144
2400.000000	88.466	78.2779
2430.000000	88.424	78.0417
2470.000000	88.362	77.6584
2500.000000	88.324	77.4373
2540.000000	88.248	77.1019
2580.000000	88.185	76.8333
2620.000000	88.109	76.5070
2650.000000	88.047	76.4002
2690.000000	87.964	76.2169
2720.000000	87.901	76.0984
2760.000000	87.797	76.0152
2800.000000	87.690	75.9618
2850.000000	87.581	76.0977
2900.000000	87.440	76.4762
2950.000000	87.326	77.0452
3000.000000	87.224	77.8067
3040.000000	87.181	78.5379
3070.000000	87.142	79.1493
3110.000000	87.131	80.0627
3150.000000	87.151	81.0069
3200.000000	87.210	82.2609
3250.000000	87.322	83.4821
3300.000000	87.498	84.7341
3350.000000	87.719	85.7424
3400.000000	87.994	86.5487
3450.000000	88.304	87.0826
3500.000000	88.657	87.3409
3550.000000	89.035	87.2973
3600.000000	89.430	86.8567
3650.000000	89.846	85.9889
3700.000000	90.264	84.8458
3750.000000	90.679	83.3369
3820.000000	91.251	80.7108
3870.000000	91.659	78.4675
3950.000000	92.314	74.2080
4000.000000	92.744	70.8956
4060.000000	93.210	65.9440
4120.000000	93.582	59.8578
4180.000000	93.738	52.8900
4250.000000	93.611	44.5473
4310.000000	93.270	38.0089
4370.000000	92.783	32.4373
4440.000000	92.145	27.3756
4500.000000	91.565	24.1388
4550.000000	91.104	22.0927
4620.000000	90.477	20.1218
4680.000000	89.995	19.1149
4750.000000	89.483	18.5064
4820.000000	89.058	18.4627
4870.000000	88.818	18.7066
4940.000000	88.532	19.4563
5000.000000	88.369	20.1829
5080.000000	88.250	21.4081
5150.000000	88.232	22.5642
5220.000000	88.313	23.6547
5300.000000	88.497	24.8831
5380.000000	88.800	25.7799
5450.000000	89.149	26.3328
5520.000000	89.568	26.5927
5600.000000	90.142	26.2816
5700.000000	90.945	24.7206
5800.000000	91.792	21.7522
5900.000000	92.633	17.2723
6000.000000	93.348	10.9855
6080.000000	93.757	4.8663
6150.000000	93.955	-0.9258
6220.000000	93.996	-6.8671
6300.000000	93.840	-13.3195
6400.000000	93.421	-20.4045
6500.000000	92.856	-25.9970
6600.000000	92.233	-30.1637
6700.000000	91.611	-33.0972
6800.000000	91.050	-35.1146
6900.000000	90.551	-36.3192
7000.000000	90.123	-37.1830
7100.000000	89.760	-37.6831
7200.000000	89.460	-37.8999
7300.000000	89.215	-38.1633
7400.000000	89.023	-38.4059
7500.000000	88.884	-38.7285
7620.000000	88.736	-39.7977
7750.000000	88.516	-41.3137
7880.000000	88.244	-42.6759
8000.000000	87.995	-44.0381
8120.000000	87.689	-45.3083
8250.000000	87.278	-46.8729
8380.000000	86.769	-48.1887
8500.000000	86.217	-48.8132
8620.000000	85.635	-48.7415
8750.000000	85.013	-47.9656
8850.000000	84.519	-46.7756
9000.000000	83.858	-44.3411
9120.000000	83.440	-41.8025
9250.000000	83.125	-38.4832
9380.000000	82.704	-37.6807
9500.000000	82.274	-33.6693
9620.000000	82.027	-29.9197
9750.000000	81.872	-26.0331
9880.000000	81.778	-21.8737
10000.000000	81.754	-18.5989
10150.000000	81.846	-14.3102
10300.000000	82.010	-10.2164
10440.000000	82.276	-6.9428
10600.000000	82.683	-3.4141
10750.000000	83.129	-1.2370
10900.000000	83.617	0.3433
11060.000000	84.181	0.9100
11200.000000	84.586	0.5770
11380.000000	85.054	-0.8385
11500.000000	85.287	-1.7992
11720.000000	85.754	-4.1613
11800.000000	85.935	-5.2729
12060.000000	86.318	-10.9368
12200.000000	86.430	-14.2510
12410.000000	86.523	-21.0237
12500.000000	86.473	-24.3622
12650.000000	86.211	-30.5165
12800.000000	85.769	-37.6036
13150.000000	83.558	-55.4107
13200.000000	83.067	-57.8585
13400.000000	80.661	-65.0222
13600.000000	77.873	-67.6217
13800.000000	75.011	-67.3937
14000.000000	71.589	-66.4402
14300.000000	62.520	-47.9763
14500.000000	60.232	39.3568
14750.000000	68.908	67.8416
15000.000000	73.284	63.9662
15250.000000	75.018	53.6672
15500.000000	75.318	49.0338
15750.000000	75.244	49.7102
16000.000000	75.697	54.0117
16250.000000	76.697	56.3000
16500.000000	77.915	52.5815
16750.000000	77.896	44.7708
17000.000000	77.203	44.1564
17250.000000	77.039	48.1754
17500.000000	77.557	51.8297
17750.000000	78.636	53.3397
18000.000000	79.890	51.2009
18250.000000	81.043	43.9736
18500.000000	81.734	33.1860
18750.000000	81.585	21.2247
19000.000000	81.031	10.6677
19250.000000	80.182	2.1385
19500.000000	79.235	-5.6179
19750.000000	78.199	-14.6613
