* Measurement data measured by REW V5.20.5
* Source: Microphone (3- USB Sound Device        ), MICROPHONE (Master Volume), L, volume: 0.560
* Format: 256k Log Swept Sine, 1 sweep at 6.0- dBFS with no timing reference
* Dated: 10/07/2023 11:07:47 ã
* REW Settings:
*  C-weighting compensation: Off
*  Target level: 75.0 dB
* Note: ; 
* Measurement: JUZEAR FLAME MOON R
* Smoothing: None
* Frequency Step: 1/48 octave
* Start Frequency: 20.000 Hz
*
* Freq(Hz)	SPL(dB)	Phase(degrees)
20.000000	89.337	163.2605
20.299999	89.321	162.9337
20.600000	89.295	162.5890
20.900000	89.262	162.2274
21.200001	89.222	161.8484
21.400000	89.192	161.5861
21.799999	89.129	161.0364
22.000000	89.096	160.7461
22.400000	89.031	160.1238
22.700001	88.983	159.6136
23.000000	88.935	159.0704
23.299999	88.886	158.5150
23.600000	88.838	157.9694
24.000000	88.782	157.2765
24.299999	88.751	156.7705
24.700001	88.723	156.0715
25.000000	88.706	155.5113
25.400000	88.677	154.7488
25.799999	88.633	154.0802
26.200001	88.586	153.6164
26.500000	88.560	153.4063
26.900000	88.549	153.2240
27.200001	88.558	153.0689
27.600000	88.577	152.7507
28.000000	88.586	152.3056
28.500000	88.564	151.6951
29.000000	88.515	151.1555
29.500000	88.453	150.6923
30.000000	88.388	150.2428
30.400000	88.333	149.8689
30.700001	88.292	149.5771
31.100000	88.237	149.1655
31.500000	88.183	148.7192
32.000000	88.115	148.1165
32.500000	88.046	147.5040
33.000000	87.980	146.9265
33.500000	87.925	146.3856
34.000000	87.880	145.8562
34.500000	87.842	145.3302
35.000000	87.806	144.8271
35.500000	87.771	144.3688
36.000000	87.739	143.9544
36.500000	87.709	143.5628
37.000000	87.679	143.1735
37.500000	87.643	142.7862
38.200001	87.586	142.2689
38.700001	87.542	141.9098
39.500000	87.464	141.3007
40.000000	87.409	140.9159
40.599998	87.340	140.4890
41.200001	87.279	140.0670
41.799999	87.224	139.5827
42.500000	87.155	138.9519
43.099998	87.091	138.4259
43.700001	87.031	137.9293
44.400002	86.968	137.3658
45.000000	86.920	136.8829
45.500000	86.881	136.4783
46.200001	86.822	135.9694
46.799999	86.777	135.6452
47.500000	86.743	135.2589
48.200001	86.691	134.7738
48.700001	86.634	134.5328
49.400002	86.571	134.3900
50.000000	86.534	134.0788
50.799999	86.413	133.4953
51.500000	86.304	133.3943
52.200001	86.268	132.9302
53.000000	86.124	131.8232
53.799999	85.996	131.7909
54.500000	86.093	130.9884
55.200001	85.987	129.0183
56.000000	85.750	129.9355
57.000000	86.516	129.8495
58.000000	86.407	121.8865
59.000000	85.210	123.7503
60.000000	85.589	128.5090
60.799999	85.673	127.3421
61.500000	85.486	127.8760
62.200001	85.497	128.7916
63.000000	85.494	128.4678
64.000000	85.382	128.2834
65.000000	85.348	127.6006
66.000000	85.265	126.7966
67.000000	85.236	126.0606
68.000000	85.184	125.3638
69.000000	85.147	124.9572
70.000000	85.092	124.5663
71.000000	85.031	124.3446
72.000000	84.967	123.8539
73.000000	84.845	123.3756
74.000000	84.765	123.0960
75.000000	84.700	122.4141
76.199997	84.586	121.8527
77.500000	84.509	121.4256
78.800003	84.446	121.0113
80.000000	84.340	120.5309
81.199997	84.238	120.3890
82.500000	84.134	119.9094
83.800003	84.008	119.6543
85.000000	83.921	119.3361
86.199997	83.821	119.2475
87.500000	83.763	118.9675
88.500000	83.642	118.7619
90.000000	83.527	119.1517
91.199997	83.435	119.0885
92.500000	83.316	119.4042
93.800003	83.245	120.0701
95.000000	83.273	120.4467
96.199997	83.230	120.7615
97.500000	83.309	121.6004
98.800003	83.343	121.7705
100.000000	83.481	122.8607
101.500000	83.761	121.8217
103.000000	83.820	121.0884
104.400002	83.924	119.9703
106.000000	83.964	118.6732
107.500000	83.969	117.6019
109.000000	83.979	116.4585
110.599998	83.946	115.3458
112.000000	83.899	114.4401
113.800003	83.837	113.4181
115.000000	83.782	112.6949
117.199997	83.701	111.7543
118.000000	83.672	111.3156
120.599998	83.558	110.1642
122.000000	83.501	109.6613
124.099998	83.419	108.8686
125.000000	83.381	108.5293
126.500000	83.319	108.0373
128.000000	83.267	107.5099
131.500000	83.133	106.4865
132.000000	83.121	106.3276
134.000000	83.037	105.6957
136.000000	82.968	105.1812
138.000000	82.894	104.6251
140.000000	82.820	104.0892
143.000000	82.695	103.4395
145.000000	82.627	103.1313
147.500000	82.542	102.6280
150.000000	82.464	102.2757
152.500000	82.369	102.1572
155.000000	82.298	102.1044
157.500000	82.257	102.2060
160.000000	82.273	102.3330
162.500000	82.342	102.5170
165.000000	82.464	102.4102
167.500000	82.590	101.8437
170.000000	82.702	100.7493
172.500000	82.795	99.4893
175.000000	82.817	98.5056
177.500000	82.755	97.1417
180.000000	82.777	95.8740
182.500000	82.745	94.6780
185.000000	82.706	93.7056
187.500000	82.645	92.8309
190.000000	82.593	91.9347
192.500000	82.529	91.1288
195.000000	82.477	90.3175
197.500000	82.422	89.5634
200.000000	82.375	88.8698
203.000000	82.319	88.1373
206.000000	82.271	87.3415
209.000000	82.221	86.5508
212.000000	82.180	85.8869
214.000000	82.152	85.4513
218.000000	82.071	84.3796
220.000000	82.045	83.9554
224.000000	81.989	83.1026
227.000000	81.951	82.4171
230.000000	81.917	81.6464
233.000000	81.888	80.8381
236.000000	81.827	80.3547
240.000000	81.787	79.6185
243.000000	81.748	78.9060
247.000000	81.713	78.0924
250.000000	81.674	77.5463
254.000000	81.628	76.6810
258.000000	81.585	75.7747
262.000000	81.550	75.1616
265.000000	81.513	74.5846
269.000000	81.468	73.8136
272.000000	81.444	73.2621
276.000000	81.408	72.4691
280.000000	81.370	71.7945
285.000000	81.323	70.9254
290.000000	81.274	70.0359
295.000000	81.220	69.2098
300.000000	81.196	68.4420
304.000000	81.160	67.7842
307.000000	81.136	67.2855
311.000000	81.089	66.6120
315.000000	81.066	66.0442
320.000000	81.027	65.2828
325.000000	81.002	64.4835
330.000000	80.938	63.7865
335.000000	80.916	63.0667
340.000000	80.889	62.3611
345.000000	80.845	61.7203
350.000000	80.819	61.0372
355.000000	80.789	60.4041
360.000000	80.759	59.8451
365.000000	80.729	59.2347
370.000000	80.698	58.5243
375.000000	80.677	57.9909
382.000000	80.633	57.2366
387.000000	80.592	56.6449
395.000000	80.573	55.7970
400.000000	80.541	55.1923
406.000000	80.526	54.6123
412.000000	80.500	54.0080
418.000000	80.462	53.4672
425.000000	80.437	52.7638
431.000000	80.419	52.1762
437.000000	80.387	51.6872
444.000000	80.364	51.0973
450.000000	80.349	50.7110
455.000000	80.333	50.2556
462.000000	80.312	49.6250
468.000000	80.280	49.2201
475.000000	80.272	48.7348
482.000000	80.252	48.2550
487.000000	80.241	47.9264
494.000000	80.230	47.4379
500.000000	80.217	47.1280
508.000000	80.199	46.6965
515.000000	80.187	46.2529
522.000000	80.173	45.8737
530.000000	80.159	45.5172
538.000000	80.155	45.0915
545.000000	80.149	44.8287
552.000000	80.157	44.5494
560.000000	80.147	44.2534
570.000000	80.160	43.7434
580.000000	80.163	43.4206
590.000000	80.158	43.1744
600.000000	80.176	42.8130
608.000000	80.187	42.6115
615.000000	80.222	42.4004
622.000000	80.213	42.1352
630.000000	80.233	41.9766
640.000000	80.262	41.7211
650.000000	80.283	41.6015
660.000000	80.311	41.3753
670.000000	80.353	41.1411
680.000000	80.389	41.0594
690.000000	80.439	40.8512
700.000000	80.485	40.7119
710.000000	80.517	40.6342
720.000000	80.575	40.4593
730.000000	80.628	40.3496
740.000000	80.686	40.2061
750.000000	80.758	40.1124
762.000000	80.827	40.0816
775.000000	80.926	39.8048
788.000000	81.019	39.7593
800.000000	81.121	39.6069
812.000000	81.200	39.5260
825.000000	81.327	39.3270
838.000000	81.439	39.0783
850.000000	81.556	38.9589
862.000000	81.662	38.7906
875.000000	81.796	38.5456
885.000000	81.887	38.2452
900.000000	82.037	37.9809
912.000000	82.172	37.7484
925.000000	82.312	37.3624
938.000000	82.440	36.9881
950.000000	82.572	36.5538
962.000000	82.701	36.2470
975.000000	82.837	35.7103
988.000000	82.972	35.1919
1000.000000	83.128	34.7423
1015.000000	83.254	34.0877
1030.000000	83.397	33.4193
1044.000000	83.538	32.7166
1060.000000	83.682	31.8919
1075.000000	83.816	31.1463
1090.000000	83.953	30.3491
1106.000000	84.083	29.4823
1120.000000	84.180	28.6622
1138.000000	84.321	27.7403
1150.000000	84.394	27.0353
1172.000000	84.546	25.8335
1180.000000	84.594	25.3838
1206.000000	84.741	23.9777
1220.000000	84.808	23.1795
1241.000000	84.925	22.1756
1250.000000	84.951	21.7473
1265.000000	85.022	20.9873
1280.000000	85.090	20.2734
1315.000000	85.212	18.7150
1320.000000	85.236	18.4448
1340.000000	85.303	17.7174
1360.000000	85.371	16.8687
1380.000000	85.431	16.1602
1400.000000	85.493	15.4137
1430.000000	85.594	14.5067
1450.000000	85.653	13.8718
1475.000000	85.751	13.1848
1500.000000	85.831	12.4721
1525.000000	85.920	11.7973
1550.000000	86.005	11.1978
1575.000000	86.089	10.6384
1600.000000	86.181	10.0818
1625.000000	86.277	9.6017
1650.000000	86.380	9.1463
1675.000000	86.493	8.6838
1700.000000	86.625	8.2865
1725.000000	86.758	7.7884
1750.000000	86.889	7.2176
1775.000000	87.022	6.6617
1800.000000	87.153	6.0473
1825.000000	87.288	5.4701
1850.000000	87.423	4.9095
1875.000000	87.565	4.2453
1900.000000	87.695	3.6251
1925.000000	87.838	2.9440
1950.000000	87.975	2.2795
1975.000000	88.136	1.5972
2000.000000	88.291	0.6610
2030.000000	88.461	-0.1681
2060.000000	88.640	-1.1449
2090.000000	88.816	-2.2399
2120.000000	89.003	-3.4123
2140.000000	89.116	-4.2707
2180.000000	89.341	-5.9539
2200.000000	89.452	-6.9388
2240.000000	89.658	-8.8849
2270.000000	89.794	-10.4311
2300.000000	89.928	-12.0702
2330.000000	90.040	-13.7703
2360.000000	90.143	-15.5026
2400.000000	90.246	-17.8117
2430.000000	90.300	-19.6684
2470.000000	90.341	-21.9957
2500.000000	90.356	-23.7428
2540.000000	90.346	-25.9434
2580.000000	90.310	-28.0271
2620.000000	90.276	-29.9552
2650.000000	90.261	-31.3818
2690.000000	90.237	-33.2793
2720.000000	90.208	-34.8575
2760.000000	90.137	-37.0330
2800.000000	90.019	-39.1481
2850.000000	89.823	-41.5795
2900.000000	89.584	-43.5871
2950.000000	89.332	-45.1996
3000.000000	89.083	-46.4431
3040.000000	88.889	-47.3081
3070.000000	88.762	-47.8963
3110.000000	88.577	-48.4579
3150.000000	88.413	-49.0300
3200.000000	88.211	-49.5261
3250.000000	88.023	-49.9261
3300.000000	87.851	-50.2097
3350.000000	87.709	-50.5320
3400.000000	87.564	-50.8755
3450.000000	87.416	-51.2368
3500.000000	87.256	-51.6079
3550.000000	87.090	-51.9710
3600.000000	86.915	-52.3430
3650.000000	86.719	-52.6587
3700.000000	86.490	-52.8190
3750.000000	86.221	-52.7738
3820.000000	85.792	-52.2271
3870.000000	85.455	-51.2034
3950.000000	85.008	-47.9961
4000.000000	84.812	-45.1932
4060.000000	84.828	-41.9881
4120.000000	84.945	-39.1979
4180.000000	85.095	-36.8823
4250.000000	85.334	-34.5331
4310.000000	85.580	-32.7186
4370.000000	85.898	-31.2862
4440.000000	86.329	-30.0632
4500.000000	86.760	-29.7575
4550.000000	87.121	-30.0996
4620.000000	87.596	-31.6846
4680.000000	87.931	-33.9139
4750.000000	88.179	-37.3198
4820.000000	88.230	-41.2603
4870.000000	88.140	-43.9993
4940.000000	87.846	-47.4932
5000.000000	87.497	-49.8690
5080.000000	86.894	-52.2398
5150.000000	86.332	-53.3241
5220.000000	85.729	-53.7056
5300.000000	85.042	-53.2710
5380.000000	84.371	-51.7969
5450.000000	83.820	-50.0560
5520.000000	83.333	-47.7236
5600.000000	82.819	-44.9229
5700.000000	82.227	-40.4618
5800.000000	81.768	-35.5306
5900.000000	81.393	-30.3256
6000.000000	81.080	-24.7391
6080.000000	80.992	-20.0627
6150.000000	80.916	-15.8978
6220.000000	80.907	-11.8410
6300.000000	80.978	-6.8918
6400.000000	81.165	-1.0481
6500.000000	81.473	4.6617
6600.000000	81.919	9.6509
6700.000000	82.524	14.0155
6800.000000	83.123	17.0053
6900.000000	83.803	18.8892
7000.000000	84.332	19.7947
7100.000000	84.775	19.8849
7200.000000	85.088	19.6838
7300.000000	85.318	19.7051
7400.000000	85.496	19.9856
7500.000000	85.688	20.3571
7620.000000	85.971	20.5422
7750.000000	86.289	20.0737
7880.000000	86.572	18.1501
8000.000000	86.674	14.8984
8120.000000	86.455	10.9290
8250.000000	85.852	7.2568
8380.000000	84.933	4.9165
8500.000000	83.955	4.7920
8620.000000	82.984	6.3587
8750.000000	81.948	9.2016
8850.000000	81.213	12.7399
9000.000000	80.336	18.0867
9120.000000	79.704	23.5786
9250.000000	79.147	29.2166
9380.000000	78.659	35.2765
9500.000000	78.316	41.1250
9620.000000	78.039	46.7638
9750.000000	77.885	52.2682
9880.000000	77.769	57.7678
10000.000000	77.627	61.5522
10150.000000	77.555	66.4481
10300.000000	77.434	69.9454
10440.000000	77.144	72.7066
10600.000000	76.533	75.6826
10750.000000	75.835	78.4258
10900.000000	74.876	82.4499
11060.000000	73.786	88.9472
11200.000000	72.910	94.8650
11380.000000	71.729	104.1810
11500.000000	70.906	110.6720
11720.000000	69.424	125.8789
11800.000000	68.971	132.1693
12060.000000	67.439	154.5352
12200.000000	67.042	168.8393
12410.000000	66.738	-169.3196
12500.000000	66.529	-161.7528
12650.000000	66.563	-146.8304
12800.000000	63.636	-126.6629
13150.000000	72.324	-76.2953
13200.000000	72.879	-74.5167
13400.000000	74.969	-71.5063
13600.000000	76.408	-69.2083
13800.000000	77.318	-66.4987
14000.000000	77.954	-62.2195
14300.000000	78.755	-53.3776
14500.000000	79.347	-46.2726
14750.000000	80.450	-36.2718
15000.000000	81.892	-28.7504
15250.000000	83.086	-23.2021
15500.000000	87.752	-21.4504
15750.000000	87.562	-43.9768
16000.000000	85.402	-50.3893
16250.000000	83.705	-44.9969
16500.000000	82.662	-37.6789
16750.000000	81.852	-28.7743
17000.000000	81.374	-18.5873
17250.000000	81.260	-7.5100
17500.000000	81.498	2.4714
17750.000000	82.069	10.5605
18000.000000	82.630	15.5039
18250.000000	83.078	17.8470
18500.000000	82.911	17.9983
18750.000000	82.316	19.4521
19000.000000	81.423	22.7160
19250.000000	80.458	28.4655
19500.000000	79.690	35.4581
19750.000000	78.918	42.2659
