* Measurement data measured by REW V5.20.5
* Source: Microphone (3- USB Sound Device        ), MICROPHONE (Master Volume), L, volume: 0.560
* Format: 256k Log Swept Sine, 1 sweep at 6.0- dBFS with no timing reference
* Dated: 10/07/2023 11:15:51 ã
* REW Settings:
*  C-weighting compensation: Off
*  Target level: 75.0 dB
* Note: ; 
* Measurement: JUZEAR FLAME SOFT R
* Smoothing: None
* Frequency Step: 1/48 octave
* Start Frequency: 20.000 Hz
*
* Freq(Hz)	SPL(dB)	Phase(degrees)
20.000000	89.654	164.1171
20.299999	89.631	163.7706
20.600000	89.605	163.4273
20.900000	89.577	163.0711
21.200001	89.546	162.6876
21.400000	89.522	162.4176
21.799999	89.468	161.8600
22.000000	89.439	161.5812
22.400000	89.380	161.0361
22.700001	89.341	160.6280
23.000000	89.306	160.1972
23.299999	89.276	159.7261
23.600000	89.246	159.2163
24.000000	89.203	158.5077
24.299999	89.167	157.9961
24.700001	89.122	157.3856
25.000000	89.094	156.9859
25.400000	89.073	156.4960
25.799999	89.067	155.9887
26.200001	89.066	155.4183
26.500000	89.061	154.9566
26.900000	89.042	154.3417
27.200001	89.018	153.9231
27.600000	88.978	153.4589
28.000000	88.940	153.0934
28.500000	88.902	152.6827
29.000000	88.867	152.2126
29.500000	88.820	151.6778
30.000000	88.758	151.1608
30.400000	88.706	150.7898
30.700001	88.670	150.5219
31.100000	88.628	150.1422
31.500000	88.587	149.7179
32.000000	88.535	149.1461
32.500000	88.481	148.5806
33.000000	88.431	148.0410
33.500000	88.389	147.5073
34.000000	88.350	146.9716
34.500000	88.313	146.4528
35.000000	88.276	145.9642
35.500000	88.240	145.5019
36.000000	88.203	145.0611
36.500000	88.165	144.6427
37.000000	88.124	144.2427
37.500000	88.082	143.8515
38.200001	88.019	143.3095
38.700001	87.972	142.9244
39.500000	87.896	142.2980
40.000000	87.848	141.8990
40.599998	87.791	141.4187
41.200001	87.736	140.9394
41.799999	87.684	140.4652
42.500000	87.627	139.9237
43.099998	87.579	139.4659
43.700001	87.531	139.0239
44.400002	87.475	138.5472
45.000000	87.431	138.1551
45.500000	87.393	137.8190
46.200001	87.338	137.3397
46.799999	87.286	136.9408
47.500000	87.227	136.4890
48.200001	87.169	136.0244
48.700001	87.126	135.6798
49.400002	87.062	135.2256
50.000000	87.012	134.8895
50.799999	86.961	134.3973
51.500000	86.907	133.9092
52.200001	86.851	133.5359
53.000000	86.811	133.0986
53.799999	86.751	132.5330
54.500000	86.688	132.2928
55.200001	86.672	132.0492
56.000000	86.623	131.3798
57.000000	86.498	131.3220
58.000000	86.567	131.1131
59.000000	86.490	129.6341
60.000000	86.308	129.3678
60.799999	86.267	129.1693
61.500000	86.209	128.7085
62.200001	86.139	128.3990
63.000000	86.087	128.0260
64.000000	86.010	127.4477
65.000000	85.947	127.0122
66.000000	85.891	126.4965
67.000000	85.830	126.0863
68.000000	85.775	125.6811
69.000000	85.715	125.3052
70.000000	85.658	124.9104
71.000000	85.595	124.4915
72.000000	85.537	124.0843
73.000000	85.483	123.6249
74.000000	85.423	123.1695
75.000000	85.367	122.7915
76.199997	85.308	122.3215
77.500000	85.238	121.8085
78.800003	85.166	121.3214
80.000000	85.100	120.8800
81.199997	85.041	120.4422
82.500000	84.975	119.9514
83.800003	84.914	119.4848
85.000000	84.854	119.0640
86.199997	84.800	118.6481
87.500000	84.735	118.1872
88.500000	84.692	117.8674
90.000000	84.627	117.2918
91.199997	84.571	116.9121
92.500000	84.512	116.4637
93.800003	84.451	116.1045
95.000000	84.404	115.7200
96.199997	84.353	115.3294
97.500000	84.297	114.9207
98.800003	84.253	114.5286
100.000000	84.206	114.1006
101.500000	84.140	113.6679
103.000000	84.091	113.2198
104.400002	84.035	112.7573
106.000000	83.978	112.2359
107.500000	83.925	111.8418
109.000000	83.874	111.3572
110.599998	83.819	110.9622
112.000000	83.774	110.5484
113.800003	83.713	109.9722
115.000000	83.670	109.6258
117.199997	83.600	109.0087
118.000000	83.575	108.7916
120.599998	83.500	108.0413
122.000000	83.454	107.7377
124.099998	83.389	107.1488
125.000000	83.370	106.9391
126.500000	83.324	106.4342
128.000000	83.279	106.1173
131.500000	83.194	105.1568
132.000000	83.179	105.0322
134.000000	83.134	104.5106
136.000000	83.078	103.9489
138.000000	83.025	103.4378
140.000000	82.978	102.9814
143.000000	82.909	102.2077
145.000000	82.859	101.6710
147.500000	82.805	101.0342
150.000000	82.744	100.5213
152.500000	82.697	99.9658
155.000000	82.634	99.3574
157.500000	82.566	98.7291
160.000000	82.520	98.2956
162.500000	82.485	97.7980
165.000000	82.436	97.2081
167.500000	82.390	96.7408
170.000000	82.347	96.2965
172.500000	82.333	95.7480
175.000000	82.310	95.4182
177.500000	82.245	94.8528
180.000000	82.260	94.3176
182.500000	82.231	93.5727
185.000000	82.215	93.1547
187.500000	82.197	92.5909
190.000000	82.172	92.0304
192.500000	82.148	91.3970
195.000000	82.133	90.8641
197.500000	82.104	90.2988
200.000000	82.088	89.7668
203.000000	82.058	89.0713
206.000000	82.034	88.4010
209.000000	82.004	87.7989
212.000000	81.985	87.1296
214.000000	81.974	86.6729
218.000000	81.946	85.7738
220.000000	81.933	85.1837
224.000000	81.891	84.0038
227.000000	81.880	83.4830
230.000000	81.862	82.7420
233.000000	81.829	82.3892
236.000000	81.791	81.4184
240.000000	81.744	80.5936
243.000000	81.717	79.9426
247.000000	81.665	79.1503
250.000000	81.636	78.5128
254.000000	81.593	77.7031
258.000000	81.553	76.8401
262.000000	81.502	76.1142
265.000000	81.458	75.5469
269.000000	81.427	74.8474
272.000000	81.404	74.2815
276.000000	81.351	73.6262
280.000000	81.319	72.8578
285.000000	81.265	71.9987
290.000000	81.229	71.1697
295.000000	81.181	70.4433
300.000000	81.136	69.6784
304.000000	81.099	68.9861
307.000000	81.077	68.6166
311.000000	81.032	67.9807
315.000000	81.010	67.4090
320.000000	80.956	66.7123
325.000000	80.911	66.0466
330.000000	80.866	65.4231
335.000000	80.826	64.7692
340.000000	80.788	64.1795
345.000000	80.755	63.6683
350.000000	80.715	63.2132
355.000000	80.675	62.7382
360.000000	80.669	62.3896
365.000000	80.671	62.0276
370.000000	80.687	61.5523
375.000000	80.704	60.9345
382.000000	80.723	60.0355
387.000000	80.713	59.3661
395.000000	80.696	58.3525
400.000000	80.678	57.6533
406.000000	80.648	56.9406
412.000000	80.617	56.2717
418.000000	80.580	55.5960
425.000000	80.567	54.9117
431.000000	80.530	54.3509
437.000000	80.518	53.7506
444.000000	80.481	53.1899
450.000000	80.470	52.6449
455.000000	80.450	52.3059
462.000000	80.418	51.7377
468.000000	80.412	51.2314
475.000000	80.394	50.7781
482.000000	80.362	50.2926
487.000000	80.345	50.0440
494.000000	80.335	49.5130
500.000000	80.312	49.2289
508.000000	80.302	48.7747
515.000000	80.290	48.3598
522.000000	80.284	48.0551
530.000000	80.267	47.6839
538.000000	80.266	47.2743
545.000000	80.248	47.0434
552.000000	80.256	46.7246
560.000000	80.251	46.5120
570.000000	80.251	46.1857
580.000000	80.260	45.7807
590.000000	80.277	45.3917
600.000000	80.282	45.2144
608.000000	80.294	44.8975
615.000000	80.304	44.8156
622.000000	80.325	44.6257
630.000000	80.352	44.4059
640.000000	80.370	44.1763
650.000000	80.401	44.1102
660.000000	80.422	43.8954
670.000000	80.459	43.7285
680.000000	80.505	43.6791
690.000000	80.547	43.5041
700.000000	80.582	43.3634
710.000000	80.642	43.3326
720.000000	80.687	43.2092
730.000000	80.751	43.1361
740.000000	80.813	43.0145
750.000000	80.868	42.9256
762.000000	80.953	42.9115
775.000000	81.044	42.8351
788.000000	81.158	42.7525
800.000000	81.253	42.6526
812.000000	81.335	42.6286
825.000000	81.448	42.3985
838.000000	81.571	42.3246
850.000000	81.689	42.1608
862.000000	81.802	42.0068
875.000000	81.921	41.7326
885.000000	82.028	41.5753
900.000000	82.177	41.2912
912.000000	82.301	41.0943
925.000000	82.453	40.7257
938.000000	82.583	40.4401
950.000000	82.713	40.0265
962.000000	82.841	39.6725
975.000000	82.987	39.1967
988.000000	83.118	38.8061
1000.000000	83.253	38.1716
1015.000000	83.409	37.7989
1030.000000	83.557	37.1700
1044.000000	83.685	36.5276
1060.000000	83.834	35.7841
1075.000000	83.978	34.9791
1090.000000	84.111	34.2568
1106.000000	84.236	33.4248
1120.000000	84.339	32.7670
1138.000000	84.483	31.8063
1150.000000	84.561	31.2077
1172.000000	84.702	30.0163
1180.000000	84.762	29.5940
1206.000000	84.915	28.3062
1220.000000	84.997	27.5904
1241.000000	85.093	26.6637
1250.000000	85.138	26.2192
1265.000000	85.204	25.5811
1280.000000	85.271	24.8764
1315.000000	85.419	23.4312
1320.000000	85.434	23.2205
1340.000000	85.504	22.4785
1360.000000	85.589	21.8160
1380.000000	85.649	21.0761
1400.000000	85.725	20.4660
1430.000000	85.834	19.5798
1450.000000	85.898	19.0331
1475.000000	85.989	18.4292
1500.000000	86.082	17.7938
1525.000000	86.175	17.2958
1550.000000	86.277	16.6723
1575.000000	86.378	16.1710
1600.000000	86.474	15.7345
1625.000000	86.594	15.2470
1650.000000	86.703	14.8008
1675.000000	86.826	14.3525
1700.000000	86.944	13.9267
1725.000000	87.063	13.5513
1750.000000	87.188	13.0735
1775.000000	87.329	12.6083
1800.000000	87.468	12.1552
1825.000000	87.614	11.6802
1850.000000	87.758	11.1538
1875.000000	87.912	10.6756
1900.000000	88.062	10.1081
1925.000000	88.213	9.5297
1950.000000	88.370	8.9163
1975.000000	88.535	8.2473
2000.000000	88.686	7.7422
2030.000000	88.889	6.6747
2060.000000	89.090	5.6563
2090.000000	89.284	4.6629
2120.000000	89.482	3.5685
2140.000000	89.609	2.7396
2180.000000	89.857	1.0863
2200.000000	89.972	0.2005
2240.000000	90.203	-1.7820
2270.000000	90.365	-3.3338
2300.000000	90.509	-5.0229
2330.000000	90.638	-6.6847
2360.000000	90.749	-8.4480
2400.000000	90.873	-10.8475
2430.000000	90.942	-12.6748
2470.000000	91.008	-15.1282
2500.000000	91.036	-16.9645
2540.000000	91.042	-19.3981
2580.000000	91.016	-21.7701
2620.000000	90.965	-24.0709
2650.000000	90.908	-25.7403
2690.000000	90.810	-27.8234
2720.000000	90.712	-29.2876
2760.000000	90.579	-31.1033
2800.000000	90.430	-32.7201
2850.000000	90.227	-34.6139
2900.000000	90.013	-36.1275
2950.000000	89.791	-37.4603
3000.000000	89.565	-38.5479
3040.000000	89.410	-39.2243
3070.000000	89.290	-39.7485
3110.000000	89.126	-40.2141
3150.000000	88.984	-40.6209
3200.000000	88.803	-41.0705
3250.000000	88.640	-41.3683
3300.000000	88.487	-41.6055
3350.000000	88.345	-41.7983
3400.000000	88.223	-41.9617
3450.000000	88.099	-42.1200
3500.000000	87.988	-42.3823
3550.000000	87.868	-42.6146
3600.000000	87.748	-43.0862
3650.000000	87.589	-43.4339
3700.000000	87.387	-43.8156
3750.000000	87.159	-44.0741
3820.000000	86.743	-43.9185
3870.000000	86.397	-43.1148
3950.000000	85.891	-40.3017
4000.000000	85.680	-37.6843
4060.000000	85.609	-34.4984
4120.000000	85.653	-31.3942
4180.000000	85.776	-28.7073
4250.000000	85.983	-25.8705
4310.000000	86.239	-23.8178
4370.000000	86.546	-21.9668
4440.000000	87.006	-20.4569
4500.000000	87.461	-19.9249
4550.000000	87.847	-20.2484
4620.000000	88.348	-21.7991
4680.000000	88.677	-24.0014
4750.000000	88.910	-27.4498
4820.000000	88.910	-31.2815
4870.000000	88.785	-33.8232
4940.000000	88.441	-36.8024
5000.000000	88.073	-38.7506
5080.000000	87.480	-40.2162
5150.000000	86.934	-40.5422
5220.000000	86.391	-40.1718
5300.000000	85.792	-38.9332
5380.000000	85.214	-36.8750
5450.000000	84.773	-34.6606
5520.000000	84.360	-32.0794
5600.000000	83.969	-28.6773
5700.000000	83.578	-23.8215
5800.000000	83.300	-18.8741
5900.000000	83.134	-13.4914
6000.000000	83.105	-8.2688
6080.000000	83.113	-3.6399
6150.000000	83.193	-0.1786
6220.000000	83.354	3.5443
6300.000000	83.636	7.5131
6400.000000	84.057	11.8445
6500.000000	84.619	15.5723
6600.000000	85.237	17.8029
6700.000000	85.911	18.6193
6800.000000	86.399	17.7338
6900.000000	86.674	15.8509
7000.000000	86.655	14.1685
7100.000000	86.484	13.4741
7200.000000	86.266	13.9027
7300.000000	86.060	15.0066
7400.000000	85.938	16.4726
7500.000000	85.894	17.9195
7620.000000	85.889	19.1606
7750.000000	85.867	19.6110
7880.000000	85.703	19.1936
8000.000000	85.367	18.8383
8120.000000	84.845	18.8163
8250.000000	84.151	19.7778
8380.000000	83.394	22.1854
8500.000000	82.695	25.5052
8620.000000	82.079	29.6330
8750.000000	81.481	34.8511
8850.000000	81.073	39.3429
9000.000000	80.608	46.4460
9120.000000	80.363	52.0685
9250.000000	80.179	58.3807
9380.000000	80.074	64.2503
9500.000000	80.020	69.7291
9620.000000	80.094	74.6539
9750.000000	80.235	79.4377
9880.000000	80.357	83.6581
10000.000000	80.446	86.5791
10150.000000	80.531	88.9687
10300.000000	80.382	90.6949
10440.000000	80.037	92.5880
10600.000000	79.462	95.2863
10750.000000	78.700	98.6098
10900.000000	77.841	103.4159
11060.000000	76.927	110.7712
11200.000000	76.269	117.2354
11380.000000	75.421	126.8084
11500.000000	74.879	134.2255
11720.000000	73.974	148.7373
11800.000000	73.736	155.0791
12060.000000	73.383	175.4372
12200.000000	73.417	-173.4650
12410.000000	73.899	-157.6547
12500.000000	74.256	-151.9723
12650.000000	74.638	-145.8764
12800.000000	71.769	-130.2178
13150.000000	79.538	-103.0751
13200.000000	79.864	-104.2694
13400.000000	80.352	-106.9326
13600.000000	80.460	-105.3160
13800.000000	80.548	-101.8856
14000.000000	80.736	-98.3136
14300.000000	80.862	-95.6606
14500.000000	80.464	-94.7940
14750.000000	79.358	-91.2813
15000.000000	78.012	-83.6848
15250.000000	76.110	-68.2763
15500.000000	78.582	-47.5454
15750.000000	77.893	-45.5653
16000.000000	76.906	-32.6156
16250.000000	76.593	-14.9412
16500.000000	77.418	2.9601
16750.000000	78.767	18.2505
17000.000000	80.674	30.3393
17250.000000	83.167	37.9630
17500.000000	85.996	36.9661
17750.000000	88.179	23.0968
18000.000000	87.861	5.3573
18250.000000	86.180	-3.3112
18500.000000	84.534	-5.4059
18750.000000	83.116	-4.6223
19000.000000	81.611	-4.3947
19250.000000	79.863	-3.3801
19500.000000	77.975	-0.3323
19750.000000	75.986	4.4518
