* Measurement data measured by REW V5.20.5
* Source: Microphone (3- USB Sound Device        ), MICROPHONE (Master Volume), L, volume: 0.560
* Format: 256k Log Swept Sine, 1 sweep at 6.0- dBFS with no timing reference
* Dated: 10/07/2023 10:56:04 ã
* REW Settings:
*  C-weighting compensation: Off
*  Target level: 75.0 dB
* Note: ; 
* Measurement: JUZEAR FLAME OR S L
* Smoothing: None
* Frequency Step: 1/48 octave
* Start Frequency: 20.000 Hz
*
* Freq(Hz)	SPL(dB)	Phase(degrees)
20.000000	88.878	163.6676
20.299999	88.854	163.3120
20.600000	88.827	162.9595
20.900000	88.797	162.5981
21.200001	88.765	162.2157
21.400000	88.741	161.9471
21.799999	88.692	161.3800
22.000000	88.666	161.0832
22.400000	88.614	160.4646
22.700001	88.577	159.9746
23.000000	88.542	159.4586
23.299999	88.507	158.9214
23.600000	88.474	158.3743
24.000000	88.433	157.6499
24.299999	88.407	157.1198
24.700001	88.380	156.4264
25.000000	88.364	155.9081
25.400000	88.347	155.2174
25.799999	88.329	154.5486
26.200001	88.308	153.9349
26.500000	88.293	153.5210
26.900000	88.273	153.0248
27.200001	88.258	152.6815
27.600000	88.239	152.2480
28.000000	88.216	151.8375
28.500000	88.182	151.3537
29.000000	88.145	150.8801
29.500000	88.103	150.3853
30.000000	88.054	149.8596
30.400000	88.010	149.4230
30.700001	87.976	149.0876
31.100000	87.931	148.6269
31.500000	87.885	148.1512
32.000000	87.829	147.5476
32.500000	87.776	146.9499
33.000000	87.731	146.3548
33.500000	87.692	145.7508
34.000000	87.655	145.1480
34.500000	87.618	144.5752
35.000000	87.584	144.0469
35.500000	87.552	143.5530
36.000000	87.520	143.0779
36.500000	87.487	142.6164
37.000000	87.449	142.1706
37.500000	87.408	141.7425
38.200001	87.347	141.1661
38.700001	87.303	140.7556
39.500000	87.232	140.0687
40.000000	87.188	139.6174
40.599998	87.135	139.0509
41.200001	87.081	138.4604
41.799999	87.023	137.8905
42.500000	86.960	137.3069
43.099998	86.918	136.8328
43.700001	86.880	136.3232
44.400002	86.829	135.7278
45.000000	86.783	135.2776
45.500000	86.748	134.9241
46.200001	86.700	134.4032
46.799999	86.653	133.9493
47.500000	86.595	133.4654
48.200001	86.542	132.9800
48.700001	86.504	132.6024
49.400002	86.444	132.0882
50.000000	86.398	131.6814
50.799999	86.343	131.0637
51.500000	86.282	130.5251
52.200001	86.232	130.1152
53.000000	86.199	129.5058
53.799999	86.128	128.8701
54.500000	86.085	128.6491
55.200001	86.095	128.1385
56.000000	86.003	127.2059
57.000000	85.870	127.7024
58.000000	86.052	127.2591
59.000000	85.926	125.2126
60.000000	85.717	125.2454
60.799999	85.703	124.9540
61.500000	85.629	124.3237
62.200001	85.542	124.0404
63.000000	85.500	123.6637
64.000000	85.428	122.9495
65.000000	85.374	122.4157
66.000000	85.326	121.7517
67.000000	85.268	121.2325
68.000000	85.216	120.7374
69.000000	85.156	120.2709
70.000000	85.094	119.8078
71.000000	85.035	119.3433
72.000000	84.978	118.7737
73.000000	84.911	118.2343
74.000000	84.857	117.7472
75.000000	84.808	117.2505
76.199997	84.752	116.6843
77.500000	84.686	116.0870
78.800003	84.617	115.5004
80.000000	84.551	115.0048
81.199997	84.497	114.4199
82.500000	84.422	113.8233
83.800003	84.365	113.2466
85.000000	84.306	112.7194
86.199997	84.253	112.1946
87.500000	84.192	111.6392
88.500000	84.145	111.2226
90.000000	84.079	110.5992
91.199997	84.025	110.1338
92.500000	83.977	109.5675
93.800003	83.910	109.0307
95.000000	83.868	108.5914
96.199997	83.826	108.0050
97.500000	83.764	107.4652
98.800003	83.723	106.9421
100.000000	83.666	106.4378
101.500000	83.613	105.9470
103.000000	83.554	105.3481
104.400002	83.501	104.8224
106.000000	83.439	104.2527
107.500000	83.393	103.6983
109.000000	83.347	103.1242
110.599998	83.280	102.4704
112.000000	83.237	101.9989
113.800003	83.173	101.3528
115.000000	83.136	100.8302
117.199997	83.067	100.1367
118.000000	83.030	99.7710
120.599998	82.937	98.9752
122.000000	82.889	98.4418
124.099998	82.812	97.7825
125.000000	82.789	97.4181
126.500000	82.728	96.9026
128.000000	82.674	96.4565
131.500000	82.541	95.4541
132.000000	82.529	95.3465
134.000000	82.448	94.7368
136.000000	82.372	94.2192
138.000000	82.302	93.9659
140.000000	82.222	93.7961
143.000000	82.145	93.7940
145.000000	82.150	94.0879
147.500000	82.247	94.2823
150.000000	82.471	93.4906
152.500000	82.573	91.9719
155.000000	82.619	90.2201
157.500000	82.592	88.7391
160.000000	82.517	87.4058
162.500000	82.453	86.2015
165.000000	82.390	85.1851
167.500000	82.340	84.2248
170.000000	82.282	83.3397
172.500000	82.233	82.4641
175.000000	82.167	81.5792
177.500000	82.132	80.8176
180.000000	82.084	79.8368
182.500000	82.033	79.0634
185.000000	81.991	78.3086
187.500000	81.954	77.5509
190.000000	81.907	76.8006
192.500000	81.864	76.0421
195.000000	81.823	75.2057
197.500000	81.792	74.5382
200.000000	81.760	73.7498
203.000000	81.710	72.8806
206.000000	81.671	72.0159
209.000000	81.626	71.1172
212.000000	81.597	70.3095
214.000000	81.562	69.7539
218.000000	81.517	68.6414
220.000000	81.500	68.1295
224.000000	81.428	67.1004
227.000000	81.398	66.2565
230.000000	81.379	65.4207
233.000000	81.351	64.6282
236.000000	81.301	63.8254
240.000000	81.255	62.7793
243.000000	81.231	62.0217
247.000000	81.189	61.0361
250.000000	81.153	60.3052
254.000000	81.120	59.2544
258.000000	81.077	58.3054
262.000000	81.040	57.2673
265.000000	81.004	56.5724
269.000000	80.963	55.6482
272.000000	80.938	54.9133
276.000000	80.894	53.9941
280.000000	80.855	53.0928
285.000000	80.811	51.9493
290.000000	80.759	50.9706
295.000000	80.711	49.9246
300.000000	80.655	48.9346
304.000000	80.621	48.1593
307.000000	80.599	47.6788
311.000000	80.566	47.0162
315.000000	80.555	46.4356
320.000000	80.579	45.5684
325.000000	80.590	44.5247
330.000000	80.583	43.3346
335.000000	80.553	42.2730
340.000000	80.534	41.2367
345.000000	80.502	40.1954
350.000000	80.464	39.2025
355.000000	80.431	38.2977
360.000000	80.398	37.3153
365.000000	80.378	36.4541
370.000000	80.344	35.6497
375.000000	80.321	34.7987
382.000000	80.276	33.5878
387.000000	80.260	32.9281
395.000000	80.212	31.5669
400.000000	80.198	30.8033
406.000000	80.169	29.9568
412.000000	80.140	29.0537
418.000000	80.113	28.1629
425.000000	80.087	27.2393
431.000000	80.067	26.3538
437.000000	80.052	25.6153
444.000000	80.035	24.6644
450.000000	80.007	23.9449
455.000000	79.989	23.2905
462.000000	79.969	22.4238
468.000000	79.953	21.7561
475.000000	79.952	20.8693
482.000000	79.927	20.0560
487.000000	79.930	19.6111
494.000000	79.916	18.8324
500.000000	79.896	18.0658
508.000000	79.880	17.3348
515.000000	79.866	16.7274
522.000000	79.855	16.0221
530.000000	79.866	15.2584
538.000000	79.847	14.5352
545.000000	79.853	13.9825
552.000000	79.855	13.3538
560.000000	79.858	12.7935
570.000000	79.859	12.0997
580.000000	79.867	11.2691
590.000000	79.881	10.4602
600.000000	79.907	9.9418
608.000000	79.918	9.3407
615.000000	79.941	8.8627
622.000000	79.962	8.4154
630.000000	79.990	7.8843
640.000000	80.024	7.3230
650.000000	80.061	6.7488
660.000000	80.108	6.1633
670.000000	80.156	5.6709
680.000000	80.209	5.1985
690.000000	80.266	4.7094
700.000000	80.308	4.0385
710.000000	80.394	3.6002
720.000000	80.460	3.1387
730.000000	80.554	2.6187
740.000000	80.598	2.1322
750.000000	80.677	1.7407
762.000000	80.792	1.1275
775.000000	80.919	0.4542
788.000000	81.047	-0.1789
800.000000	81.170	-0.8403
812.000000	81.309	-1.4040
825.000000	81.439	-2.2965
838.000000	81.589	-2.8742
850.000000	81.713	-3.7207
862.000000	81.867	-4.4238
875.000000	82.015	-5.2883
885.000000	82.135	-5.9744
900.000000	82.311	-7.0139
912.000000	82.459	-7.8700
925.000000	82.620	-9.0372
938.000000	82.770	-9.9156
950.000000	82.918	-10.9937
962.000000	83.044	-12.0898
975.000000	83.201	-13.1953
988.000000	83.340	-14.3616
1000.000000	83.458	-15.4506
1015.000000	83.631	-16.8486
1030.000000	83.777	-18.3228
1044.000000	83.900	-19.7385
1060.000000	84.044	-21.2975
1075.000000	84.171	-22.7681
1090.000000	84.284	-24.2372
1106.000000	84.406	-25.7979
1120.000000	84.494	-27.1758
1138.000000	84.614	-28.9940
1150.000000	84.693	-30.0743
1172.000000	84.808	-32.1373
1180.000000	84.844	-32.9070
1206.000000	84.964	-35.2613
1220.000000	85.029	-36.5818
1241.000000	85.120	-38.2691
1250.000000	85.151	-39.0710
1265.000000	85.212	-40.2952
1280.000000	85.271	-41.4866
1315.000000	85.387	-44.1827
1320.000000	85.398	-44.5825
1340.000000	85.468	-46.0270
1360.000000	85.533	-47.4585
1380.000000	85.595	-48.8147
1400.000000	85.660	-50.1348
1430.000000	85.761	-52.1104
1450.000000	85.819	-53.3262
1475.000000	85.898	-54.7681
1500.000000	85.992	-56.3480
1525.000000	86.078	-57.7194
1550.000000	86.178	-59.1780
1575.000000	86.281	-60.5051
1600.000000	86.374	-61.8616
1625.000000	86.467	-63.1370
1650.000000	86.580	-64.5153
1675.000000	86.695	-65.8230
1700.000000	86.810	-67.0546
1725.000000	86.940	-68.3535
1750.000000	87.057	-69.6341
1775.000000	87.181	-70.9053
1800.000000	87.305	-72.2025
1825.000000	87.446	-73.5794
1850.000000	87.581	-74.8513
1875.000000	87.728	-76.2149
1900.000000	87.859	-77.6154
1925.000000	88.016	-78.9780
1950.000000	88.169	-80.4127
1975.000000	88.308	-81.9035
2000.000000	88.458	-83.5614
2030.000000	88.640	-85.2697
2060.000000	88.816	-87.1787
2090.000000	88.993	-89.1316
2120.000000	89.167	-91.1743
2140.000000	89.274	-92.6378
2180.000000	89.490	-95.4901
2200.000000	89.594	-97.0066
2240.000000	89.790	-99.9910
2270.000000	89.922	-102.3608
2300.000000	90.047	-104.8210
2330.000000	90.160	-107.3059
2360.000000	90.257	-109.8613
2400.000000	90.355	-113.4013
2430.000000	90.403	-116.0046
2470.000000	90.438	-119.5294
2500.000000	90.435	-122.1244
2540.000000	90.412	-125.5499
2580.000000	90.359	-128.8613
2620.000000	90.274	-132.0042
2650.000000	90.204	-134.3536
2690.000000	90.078	-137.2771
2720.000000	89.972	-139.3571
2760.000000	89.826	-141.9781
2800.000000	89.662	-144.4955
2850.000000	89.450	-147.2625
2900.000000	89.232	-149.8796
2950.000000	89.008	-152.2338
3000.000000	88.798	-154.5527
3040.000000	88.634	-155.9174
3070.000000	88.506	-156.9586
3110.000000	88.355	-158.4231
3150.000000	88.204	-159.6868
3200.000000	88.022	-161.1710
3250.000000	87.855	-162.5765
3300.000000	87.699	-164.0046
3350.000000	87.543	-165.2087
3400.000000	87.404	-166.5929
3450.000000	87.245	-167.8463
3500.000000	87.084	-169.0587
3550.000000	86.928	-170.3351
3600.000000	86.744	-171.4388
3650.000000	86.525	-172.5520
3700.000000	86.302	-173.4648
3750.000000	86.037	-173.9593
3820.000000	85.628	-173.8475
3870.000000	85.403	-173.1508
3950.000000	85.196	-171.2536
4000.000000	85.184	-170.1586
4060.000000	85.257	-169.3292
4120.000000	85.335	-168.7629
4180.000000	85.402	-168.3336
4250.000000	85.496	-167.9232
4310.000000	85.617	-167.3639
4370.000000	85.790	-166.8304
4440.000000	86.057	-166.4034
4500.000000	86.361	-166.5496
4550.000000	86.648	-167.0874
4620.000000	87.062	-168.6690
4680.000000	87.395	-170.7781
4750.000000	87.683	-174.2453
4820.000000	87.811	-178.3866
4870.000000	87.796	178.5848
4940.000000	87.615	174.4714
5000.000000	87.330	171.3471
5080.000000	86.840	167.8859
5150.000000	86.344	165.8955
5220.000000	85.787	164.5721
5300.000000	85.176	164.0908
5380.000000	84.597	164.2039
5450.000000	84.076	164.9178
5520.000000	83.620	166.1515
5600.000000	83.133	168.1358
5700.000000	82.572	171.3279
5800.000000	82.164	175.2015
5900.000000	81.870	179.4601
6000.000000	81.750	-175.8178
6080.000000	81.739	-172.2743
6150.000000	81.791	-168.9150
6220.000000	81.911	-165.7811
6300.000000	82.151	-162.6637
6400.000000	82.536	-158.7911
6500.000000	83.040	-156.3256
6600.000000	83.590	-154.5724
6700.000000	84.144	-154.1889
6800.000000	84.608	-155.0706
6900.000000	84.890	-156.6597
7000.000000	84.956	-158.5389
7100.000000	84.828	-159.6859
7200.000000	84.661	-159.6294
7300.000000	84.484	-159.2072
7400.000000	84.349	-157.7689
7500.000000	84.289	-156.2442
7620.000000	84.354	-154.3801
7750.000000	84.498	-152.8695
7880.000000	84.654	-152.2558
8000.000000	84.808	-152.5205
8120.000000	84.788	-153.3633
8250.000000	84.616	-154.5551
8380.000000	84.274	-155.2205
8500.000000	83.855	-154.9978
8620.000000	83.410	-154.1636
8750.000000	82.896	-152.4132
8850.000000	82.524	-150.4022
9000.000000	82.022	-146.7918
9120.000000	81.690	-143.3128
9250.000000	81.430	-139.5474
9380.000000	81.229	-135.3666
9500.000000	81.184	-132.1177
9620.000000	81.137	-128.7397
9750.000000	81.157	-125.5906
9880.000000	81.194	-123.4653
10000.000000	81.227	-122.0214
10150.000000	81.115	-120.8562
10300.000000	80.789	-120.4830
10440.000000	80.382	-120.1401
10600.000000	79.600	-119.1322
10750.000000	78.760	-117.1905
10900.000000	77.766	-113.5713
11060.000000	76.689	-108.2698
11200.000000	75.675	-102.7499
11380.000000	74.555	-94.0673
11500.000000	73.788	-87.6799
11720.000000	72.444	-73.9410
11800.000000	71.890	-68.3554
12060.000000	70.281	-45.5981
12200.000000	71.321	-24.2972
12410.000000	72.193	-4.9860
12500.000000	72.679	1.9425
12650.000000	73.497	13.3636
12800.000000	74.578	21.4397
13150.000000	76.885	31.5785
13200.000000	77.022	32.3079
13400.000000	77.481	36.8508
13600.000000	77.775	42.1712
13800.000000	78.194	48.2085
14000.000000	78.564	54.0294
14300.000000	79.475	59.4112
14500.000000	79.696	60.2824
14750.000000	79.202	60.7021
15000.000000	78.090	65.5215
15250.000000	76.845	75.0793
15500.000000	75.918	89.2504
15750.000000	75.730	105.5531
16000.000000	76.133	118.5271
16250.000000	76.166	130.1241
16500.000000	76.345	144.9162
16750.000000	77.084	161.2013
17000.000000	78.516	175.8271
17250.000000	80.530	-172.6620
17500.000000	83.057	-165.4307
17750.000000	86.056	-168.2467
18000.000000	87.838	175.1177
18250.000000	86.961	157.9692
18500.000000	85.056	150.9664
18750.000000	83.345	150.6253
19000.000000	81.680	151.6004
19250.000000	79.903	152.4747
19500.000000	78.087	156.0486
19750.000000	76.053	161.5291
