* Measurement data measured by REW V5.20.5
* Source: Microphone (2- USB Sound Device        ), MICROPHONE (Master Volume), L, volume: 0.570
* Format: 256k Log Swept Sine, 1 sweep at 6.0- dBFS with no timing reference
* Dated: 21/07/2023 03:03:43 ã
* REW Settings:
*  C-weighting compensation: Off
*  Target level: 75.0 dB
* Note: ; 
* Measurement: MoonDrop CHU 2 FOAM L
* Smoothing: None
* Frequency Step: 1/48 octave
* Start Frequency: 20.000 Hz
*
* Freq(Hz)	SPL(dB)	Phase(degrees)
20.000000	88.611	-174.0652
20.299999	88.623	-174.3840
20.600000	88.628	-174.6835
20.900000	88.630	-174.9793
21.200001	88.626	-175.2867
21.400000	88.620	-175.5003
21.799999	88.602	-175.9442
22.000000	88.590	-176.1738
22.400000	88.565	-176.6522
22.700001	88.548	-177.0405
23.000000	88.530	-177.4651
23.299999	88.512	-177.9232
23.600000	88.494	-178.4020
24.000000	88.470	-179.0483
24.299999	88.456	-179.5265
24.700001	88.445	179.8419
25.000000	88.444	179.3651
25.400000	88.447	178.7240
25.799999	88.452	178.0966
26.200001	88.460	177.5103
26.500000	88.467	177.1049
26.900000	88.480	176.6056
27.200001	88.489	176.2562
27.600000	88.501	175.8203
28.000000	88.510	175.4193
28.500000	88.516	174.9581
29.000000	88.515	174.5187
29.500000	88.503	174.0951
30.000000	88.483	173.6992
30.400000	88.466	173.3923
30.700001	88.453	173.1506
31.100000	88.436	172.7927
31.500000	88.416	172.3962
32.000000	88.386	171.8819
32.500000	88.356	171.3778
33.000000	88.334	170.8636
33.500000	88.316	170.3132
34.000000	88.296	169.7560
34.500000	88.277	169.2492
35.000000	88.264	168.8024
35.500000	88.260	168.3742
36.000000	88.259	167.9353
36.500000	88.254	167.4993
37.000000	88.245	167.0910
37.500000	88.233	166.7115
38.200001	88.215	166.1944
38.700001	88.197	165.8185
39.500000	88.160	165.2257
40.000000	88.134	164.8802
40.599998	88.107	164.4763
41.200001	88.086	164.0350
41.799999	88.062	163.5521
42.500000	88.027	163.0109
43.099998	88.001	162.5923
43.700001	87.980	162.1628
44.400002	87.949	161.6382
45.000000	87.913	161.2539
45.500000	87.888	161.0095
46.200001	87.873	160.6696
46.799999	87.866	160.2568
47.500000	87.839	159.6901
48.200001	87.797	159.2095
48.700001	87.771	158.9243
49.400002	87.746	158.5045
50.000000	87.724	158.1036
50.799999	87.686	157.5873
51.500000	87.653	157.1950
52.200001	87.626	156.8344
53.000000	87.601	156.3763
53.799999	87.563	155.8879
54.500000	87.524	155.5425
55.200001	87.492	155.2441
56.000000	87.460	154.9059
57.000000	87.440	154.5253
58.000000	87.434	153.8453
59.000000	87.357	153.1042
60.000000	87.278	152.8702
60.799999	87.262	152.6284
61.500000	87.240	152.2147
62.200001	87.196	151.8087
63.000000	87.144	151.4611
64.000000	87.097	150.9969
65.000000	87.043	150.4982
66.000000	86.997	150.0882
67.000000	86.964	149.6282
68.000000	86.915	149.1638
69.000000	86.869	148.8288
70.000000	86.834	148.4363
71.000000	86.787	147.9995
72.000000	86.731	147.5923
73.000000	86.678	147.2634
74.000000	86.638	146.8959
75.000000	86.589	146.5266
76.199997	86.548	146.1389
77.500000	86.485	145.5940
78.800003	86.431	145.2151
80.000000	86.372	144.7541
81.199997	86.323	144.4264
82.500000	86.266	143.9519
83.800003	86.213	143.5927
85.000000	86.159	143.2061
86.199997	86.103	142.8617
87.500000	86.046	142.5009
88.500000	86.001	142.1458
90.000000	85.929	141.7675
91.199997	85.879	141.3311
92.500000	85.815	141.0764
93.800003	85.771	140.7011
95.000000	85.719	140.4323
96.199997	85.674	140.0832
97.500000	85.611	139.8015
98.800003	85.568	139.4867
100.000000	85.511	139.1716
101.500000	85.455	138.9043
103.000000	85.393	138.5112
104.400002	85.339	138.2350
106.000000	85.269	137.8025
107.500000	85.201	137.5301
109.000000	85.148	137.2951
110.599998	85.083	136.8992
112.000000	85.032	136.6717
113.800003	84.961	136.3072
115.000000	84.912	136.0593
117.199997	84.834	135.7099
118.000000	84.801	135.5519
120.599998	84.704	134.9984
122.000000	84.649	134.7748
124.099998	84.583	134.5529
125.000000	84.553	134.3482
126.500000	84.497	134.1789
128.000000	84.444	133.9183
131.500000	84.318	133.4413
132.000000	84.305	133.3515
134.000000	84.234	133.0900
136.000000	84.163	132.7720
138.000000	84.109	132.5074
140.000000	84.028	132.2889
143.000000	83.939	131.9097
145.000000	83.863	131.5680
147.500000	83.793	131.3448
150.000000	83.723	131.0819
152.500000	83.636	130.7657
155.000000	83.566	130.4434
157.500000	83.496	130.2186
160.000000	83.425	129.9928
162.500000	83.351	129.8096
165.000000	83.279	129.5573
167.500000	83.214	129.3890
170.000000	83.147	129.1168
172.500000	83.079	128.9694
175.000000	83.012	128.6972
177.500000	82.949	128.5938
180.000000	82.884	128.4001
182.500000	82.810	128.1857
185.000000	82.753	127.9141
187.500000	82.694	127.8137
190.000000	82.633	127.5637
192.500000	82.577	127.4648
195.000000	82.516	127.3380
197.500000	82.462	127.1922
200.000000	82.406	127.0563
203.000000	82.334	126.8936
206.000000	82.268	126.7148
209.000000	82.217	126.4917
212.000000	82.161	126.3213
214.000000	82.104	126.2941
218.000000	82.030	126.0827
220.000000	81.989	125.9671
224.000000	81.909	125.8008
227.000000	81.855	125.6590
230.000000	81.792	125.5376
233.000000	81.752	125.4690
236.000000	81.695	125.3454
240.000000	81.633	125.1900
243.000000	81.579	125.0087
247.000000	81.510	124.8541
250.000000	81.474	124.8563
254.000000	81.389	124.6759
258.000000	81.352	124.5705
262.000000	81.300	124.3960
265.000000	81.237	124.3230
269.000000	81.174	124.1717
272.000000	81.144	124.0557
276.000000	81.094	123.9885
280.000000	81.039	123.8825
285.000000	80.983	123.7025
290.000000	80.910	123.5165
295.000000	80.859	123.4722
300.000000	80.799	123.3324
304.000000	80.757	123.3004
307.000000	80.731	123.2483
311.000000	80.701	123.0600
315.000000	80.653	123.0142
320.000000	80.600	122.8571
325.000000	80.545	122.6628
330.000000	80.496	122.5789
335.000000	80.454	122.4731
340.000000	80.418	122.3476
345.000000	80.367	122.2544
350.000000	80.334	122.1753
355.000000	80.279	122.0355
360.000000	80.243	121.9474
365.000000	80.196	121.8201
370.000000	80.157	121.7489
375.000000	80.103	121.5356
382.000000	80.074	121.5174
387.000000	80.036	121.3979
395.000000	79.990	121.2263
400.000000	79.953	121.1646
406.000000	79.926	121.0187
412.000000	79.883	120.9807
418.000000	79.851	120.8335
425.000000	79.831	120.7396
431.000000	79.776	120.5518
437.000000	79.740	120.5164
444.000000	79.722	120.3958
450.000000	79.686	120.3192
455.000000	79.657	120.2682
462.000000	79.628	120.1829
468.000000	79.607	120.0332
475.000000	79.577	119.9284
482.000000	79.541	119.8326
487.000000	79.532	119.7777
494.000000	79.513	119.6581
500.000000	79.468	119.7174
508.000000	79.453	119.5610
515.000000	79.436	119.4796
522.000000	79.409	119.3979
530.000000	79.392	119.2424
538.000000	79.386	119.2051
545.000000	79.346	119.2070
552.000000	79.353	119.0370
560.000000	79.336	119.0343
570.000000	79.314	118.8282
580.000000	79.298	118.7736
590.000000	79.274	118.7686
600.000000	79.279	118.5778
608.000000	79.266	118.5688
615.000000	79.260	118.4524
622.000000	79.242	118.4027
630.000000	79.236	118.4450
640.000000	79.225	118.4312
650.000000	79.237	118.3100
660.000000	79.232	118.1641
670.000000	79.241	118.1517
680.000000	79.249	118.2354
690.000000	79.257	118.0603
700.000000	79.273	118.0606
710.000000	79.277	117.9857
720.000000	79.296	117.8499
730.000000	79.293	117.9545
740.000000	79.335	118.0833
750.000000	79.332	118.0568
762.000000	79.372	117.8213
775.000000	79.413	117.8867
788.000000	79.429	117.8259
800.000000	79.487	117.8315
812.000000	79.518	117.8168
825.000000	79.572	117.7704
838.000000	79.636	117.6746
850.000000	79.687	117.6425
862.000000	79.744	117.6016
875.000000	79.816	117.4824
885.000000	79.859	117.5205
900.000000	79.938	117.3936
912.000000	80.016	117.2274
925.000000	80.084	117.0882
938.000000	80.176	116.9367
950.000000	80.256	116.7864
962.000000	80.345	116.5411
975.000000	80.423	116.4756
988.000000	80.506	116.1091
1000.000000	80.565	115.9500
1015.000000	80.703	115.6721
1030.000000	80.798	115.2705
1044.000000	80.898	114.9742
1060.000000	81.037	114.4890
1075.000000	81.129	114.1344
1090.000000	81.239	113.7351
1106.000000	81.359	113.1733
1120.000000	81.452	112.6723
1138.000000	81.569	112.0924
1150.000000	81.668	111.6452
1172.000000	81.802	110.8632
1180.000000	81.865	110.4831
1206.000000	82.038	109.4770
1220.000000	82.115	109.0166
1241.000000	82.250	108.0917
1250.000000	82.291	107.8102
1265.000000	82.390	107.1676
1280.000000	82.464	106.5883
1315.000000	82.683	105.1624
1320.000000	82.718	105.0168
1340.000000	82.824	104.1440
1360.000000	82.934	103.3529
1380.000000	83.025	102.5200
1400.000000	83.142	101.7289
1430.000000	83.287	100.5179
1450.000000	83.399	99.7867
1475.000000	83.547	98.7244
1500.000000	83.663	97.8643
1525.000000	83.779	96.7921
1550.000000	83.924	95.8411
1575.000000	84.047	94.7577
1600.000000	84.181	93.8827
1625.000000	84.308	92.9254
1650.000000	84.447	91.8638
1675.000000	84.581	90.9215
1700.000000	84.707	89.9493
1725.000000	84.842	89.0136
1750.000000	84.973	87.9566
1775.000000	85.113	86.9993
1800.000000	85.246	85.9572
1825.000000	85.387	84.9550
1850.000000	85.526	83.9300
1875.000000	85.653	82.8875
1900.000000	85.801	81.9157
1925.000000	85.933	80.8037
1950.000000	86.077	79.7479
1975.000000	86.214	78.6962
2000.000000	86.367	77.5726
2030.000000	86.520	76.2566
2060.000000	86.691	74.9074
2090.000000	86.860	73.5208
2120.000000	87.022	72.1439
2140.000000	87.136	71.2015
2180.000000	87.349	69.3078
2200.000000	87.456	68.3250
2240.000000	87.683	66.3492
2270.000000	87.839	64.7902
2300.000000	87.996	63.2575
2330.000000	88.160	61.7150
2360.000000	88.313	60.1065
2400.000000	88.527	57.8878
2430.000000	88.672	56.2476
2470.000000	88.864	53.9554
2500.000000	88.997	52.2293
2540.000000	89.177	49.9102
2580.000000	89.345	47.4518
2620.000000	89.503	45.0380
2650.000000	89.619	43.2116
2690.000000	89.755	40.7019
2720.000000	89.855	38.7961
2760.000000	89.976	36.2499
2800.000000	90.079	33.7372
2850.000000	90.201	30.4911
2900.000000	90.292	27.3168
2950.000000	90.368	24.1506
3000.000000	90.405	21.0687
3040.000000	90.453	18.4940
3070.000000	90.473	16.6331
3110.000000	90.483	14.2083
3150.000000	90.483	11.7747
3200.000000	90.470	8.8403
3250.000000	90.439	6.0148
3300.000000	90.402	3.1947
3350.000000	90.345	0.4872
3400.000000	90.284	-2.1431
3450.000000	90.222	-4.6848
3500.000000	90.140	-7.1664
3550.000000	90.047	-9.5138
3600.000000	89.961	-11.7921
3650.000000	89.857	-14.0303
3700.000000	89.761	-16.1553
3750.000000	89.648	-18.2443
3820.000000	89.496	-21.0060
3870.000000	89.371	-22.9402
3950.000000	89.177	-25.9252
4000.000000	89.048	-27.6123
4060.000000	88.905	-29.6901
4120.000000	88.737	-31.6071
4180.000000	88.573	-33.4913
4250.000000	88.378	-35.5103
4310.000000	88.206	-37.1636
4370.000000	88.022	-38.7697
4440.000000	87.801	-40.5483
4500.000000	87.602	-41.9520
4550.000000	87.448	-43.0186
4620.000000	87.222	-44.3685
4680.000000	87.021	-45.4017
4750.000000	86.785	-46.7045
4820.000000	86.538	-47.6941
4870.000000	86.386	-48.2715
4940.000000	86.143	-49.0110
5000.000000	85.973	-49.5703
5080.000000	85.679	-50.2567
5150.000000	85.463	-50.6927
5220.000000	85.246	-51.0094
5300.000000	85.002	-51.2203
5380.000000	84.766	-51.4050
5450.000000	84.542	-51.1598
5520.000000	84.342	-51.0217
5600.000000	84.157	-50.6899
5700.000000	83.889	-50.1069
5800.000000	83.659	-49.3296
5900.000000	83.457	-48.2750
6000.000000	83.282	-47.2117
6080.000000	83.146	-46.5084
6150.000000	83.069	-45.4104
6220.000000	82.989	-44.5089
6300.000000	82.893	-43.4147
6400.000000	82.838	-42.0546
6500.000000	82.789	-40.4448
6600.000000	82.793	-39.0881
6700.000000	82.811	-37.6431
6800.000000	82.855	-35.9635
6900.000000	82.933	-34.7957
7000.000000	83.037	-33.5250
7100.000000	83.154	-32.2302
7200.000000	83.308	-31.4208
7300.000000	83.521	-30.6481
7400.000000	83.733	-30.2374
7500.000000	83.932	-30.2123
7620.000000	84.172	-30.6021
7750.000000	84.387	-31.7234
7880.000000	84.545	-33.2278
8000.000000	84.578	-35.2252
8120.000000	84.529	-37.5634
8250.000000	84.301	-39.7120
8380.000000	83.962	-41.8705
8500.000000	83.527	-43.1806
8620.000000	83.039	-44.1187
8750.000000	82.460	-43.8743
8850.000000	81.995	-43.6967
9000.000000	81.269	-41.8522
9120.000000	80.735	-39.8746
9250.000000	80.218	-37.4126
9380.000000	79.703	-34.0615
9500.000000	79.281	-30.8257
9620.000000	78.931	-26.7100
9750.000000	78.579	-22.7247
9880.000000	78.333	-18.2859
10000.000000	78.107	-14.0604
10150.000000	77.911	-8.4207
10300.000000	77.837	-2.4636
10440.000000	77.840	2.7902
10600.000000	77.921	8.9961
10750.000000	78.190	14.7070
10900.000000	78.451	19.9772
11060.000000	78.943	25.8190
11200.000000	79.424	29.9839
11380.000000	80.258	34.5974
11500.000000	80.851	37.2320
11720.000000	82.236	38.8612
11800.000000	82.743	38.0197
12060.000000	84.188	27.6196
12200.000000	84.053	15.7651
12410.000000	79.692	3.1061
12500.000000	77.855	22.1968
12650.000000	80.152	33.8948
12800.000000	80.493	29.0809
13150.000000	78.730	28.0977
13200.000000	78.439	29.0777
13400.000000	77.424	34.6317
13600.000000	76.507	40.4004
13800.000000	75.743	47.2858
14000.000000	75.113	54.7054
14300.000000	74.444	65.7305
14500.000000	73.922	73.0276
14750.000000	73.502	81.9488
15000.000000	73.061	91.2520
15250.000000	72.678	101.1897
15500.000000	72.408	110.6044
15750.000000	72.209	120.4286
16000.000000	72.297	129.7564
16250.000000	72.324	138.3913
16500.000000	72.504	147.3077
16750.000000	72.663	154.5807
17000.000000	72.706	161.6790
17250.000000	72.883	168.0977
17500.000000	72.783	174.6771
17750.000000	72.990	179.6653
18000.000000	73.047	-175.0748
18250.000000	73.263	-171.4584
18500.000000	73.216	-169.9782
18750.000000	72.910	-171.0870
19000.000000	71.985	-171.7553
19250.000000	70.275	-173.3746
19500.000000	68.391	-169.9077
19750.000000	66.302	-164.9418
