* Measurement data measured by REW V5.20.5
* Source: Microphone (3- USB Sound Device        ), MICROPHONE (Master Volume), L, volume: 0.560
* Format: 256k Log Swept Sine, 1 sweep at 6.0- dBFS with no timing reference
* Dated: 11/07/2023 12:01:56 Õ
* REW Settings:
*  C-weighting compensation: Off
*  Target level: 75.0 dB
* Note: ; 
* Measurement: SoftEars RSV OR S L
* Smoothing: None
* Frequency Step: 1/48 octave
* Start Frequency: 20.000 Hz
*
* Freq(Hz)	SPL(dB)	Phase(degrees)
20.000000	89.275	-156.0880
20.299999	89.320	-156.5832
20.600000	89.360	-157.0602
20.900000	89.394	-157.5281
21.200001	89.422	-157.9926
21.400000	89.437	-158.3001
21.799999	89.461	-158.9117
22.000000	89.470	-159.2187
22.400000	89.487	-159.8474
22.700001	89.497	-160.3441
23.000000	89.506	-160.8684
23.299999	89.513	-161.4152
23.600000	89.518	-161.9761
24.000000	89.524	-162.7349
24.299999	89.530	-163.3098
24.700001	89.540	-164.0848
25.000000	89.549	-164.6663
25.400000	89.561	-165.4205
25.799999	89.575	-166.1222
26.200001	89.598	-166.7677
26.500000	89.621	-167.2334
26.900000	89.657	-167.8587
27.200001	89.684	-168.3388
27.600000	89.713	-168.9783
28.000000	89.734	-169.5792
28.500000	89.753	-170.2434
29.000000	89.770	-170.8422
29.500000	89.785	-171.4332
30.000000	89.791	-172.0370
30.400000	89.790	-172.5191
30.700001	89.787	-172.8769
31.100000	89.781	-173.3534
31.500000	89.774	-173.8377
32.000000	89.766	-174.4628
32.500000	89.757	-175.1090
33.000000	89.747	-175.7663
33.500000	89.738	-176.4180
34.000000	89.732	-177.0490
34.500000	89.729	-177.6590
35.000000	89.728	-178.2560
35.500000	89.727	-178.8374
36.000000	89.724	-179.3898
36.500000	89.720	-179.9095
37.000000	89.713	179.5933
37.500000	89.703	179.1125
38.200001	89.684	178.4654
38.700001	89.668	178.0064
39.500000	89.637	177.2447
40.000000	89.614	176.7661
40.599998	89.587	176.2010
41.200001	89.563	175.6296
41.799999	89.542	175.0493
42.500000	89.519	174.3794
43.099998	89.500	173.8163
43.700001	89.479	173.2893
44.400002	89.454	172.7513
45.000000	89.438	172.3076
45.500000	89.421	171.9111
46.200001	89.382	171.3586
46.799999	89.340	170.9429
47.500000	89.292	170.4924
48.200001	89.248	170.0099
48.700001	89.218	169.6253
49.400002	89.175	169.0383
50.000000	89.138	168.5429
50.799999	89.104	167.9021
51.500000	89.081	167.2939
52.200001	89.050	166.7766
53.000000	89.033	166.3700
53.799999	89.019	165.9208
54.500000	88.975	165.7234
55.200001	88.949	165.8073
56.000000	88.928	165.8240
57.000000	88.899	166.2984
58.000000	89.067	165.8639
59.000000	88.951	163.3641
60.000000	88.603	162.9531
60.799999	88.543	162.9521
61.500000	88.488	162.2398
62.200001	88.395	161.7511
63.000000	88.352	161.3212
64.000000	88.291	160.5367
65.000000	88.245	160.1689
66.000000	88.213	159.5869
67.000000	88.129	159.2779
68.000000	88.069	159.0465
69.000000	87.983	158.7066
70.000000	87.895	158.4124
71.000000	87.811	158.0206
72.000000	87.729	157.6437
73.000000	87.668	157.2588
74.000000	87.600	156.8016
75.000000	87.524	156.5268
76.199997	87.446	156.2508
77.500000	87.347	155.9298
78.800003	87.236	155.6464
80.000000	87.140	155.3019
81.199997	87.030	155.0063
82.500000	86.936	154.7298
83.800003	86.842	154.5209
85.000000	86.759	154.2656
86.199997	86.647	154.1421
87.500000	86.554	154.0365
88.500000	86.465	153.8347
90.000000	86.335	153.7314
91.199997	86.242	153.5240
92.500000	86.113	153.4799
93.800003	86.019	153.5557
95.000000	85.923	153.4962
96.199997	85.806	153.4699
97.500000	85.679	153.6739
98.800003	85.574	153.6888
100.000000	85.448	153.8472
101.500000	85.302	154.0526
103.000000	85.148	154.6207
104.400002	84.998	155.2215
106.000000	84.861	156.2611
107.500000	84.719	157.5166
109.000000	84.655	159.1414
110.599998	84.717	161.0873
112.000000	84.876	162.4092
113.800003	85.200	163.6320
115.000000	85.455	163.5364
117.199997	85.784	161.9847
118.000000	85.835	160.9754
120.599998	85.749	158.8439
122.000000	85.672	157.5026
124.099998	85.550	156.3918
125.000000	85.466	156.1402
126.500000	85.374	155.7626
128.000000	85.254	155.4993
131.500000	85.006	155.1437
132.000000	84.968	155.1088
134.000000	84.851	155.1099
136.000000	84.726	155.2627
138.000000	84.614	155.4117
140.000000	84.534	155.6342
143.000000	84.395	156.0515
145.000000	84.304	156.2429
147.500000	84.216	156.5617
150.000000	84.124	156.6914
152.500000	84.041	157.0094
155.000000	83.975	157.2708
157.500000	83.883	157.6458
160.000000	83.796	157.9035
162.500000	83.742	158.2921
165.000000	83.687	158.5496
167.500000	83.627	158.9846
170.000000	83.569	159.2875
172.500000	83.509	159.6878
175.000000	83.488	160.0482
177.500000	83.405	160.3627
180.000000	83.381	160.6104
182.500000	83.324	160.9185
185.000000	83.285	161.2991
187.500000	83.258	161.6470
190.000000	83.216	161.9566
192.500000	83.187	162.2424
195.000000	83.156	162.6086
197.500000	83.120	162.8937
200.000000	83.092	163.1644
203.000000	83.058	163.5661
206.000000	83.025	163.9359
209.000000	82.990	164.2837
212.000000	82.964	164.6360
214.000000	82.943	164.9026
218.000000	82.901	165.3313
220.000000	82.884	165.5703
224.000000	82.861	166.0779
227.000000	82.811	166.5013
230.000000	82.767	167.0110
233.000000	82.765	167.5357
236.000000	82.708	168.1762
240.000000	82.685	169.4985
243.000000	82.737	170.2530
247.000000	82.856	171.2391
250.000000	83.005	171.7105
254.000000	83.170	171.6001
258.000000	83.291	171.1309
262.000000	83.308	170.6895
265.000000	83.303	170.4504
269.000000	83.295	170.1559
272.000000	83.281	170.1197
276.000000	83.264	170.0440
280.000000	83.248	170.0594
285.000000	83.226	170.1048
290.000000	83.202	170.2153
295.000000	83.194	170.3666
300.000000	83.171	170.4870
304.000000	83.176	170.5659
307.000000	83.169	170.5986
311.000000	83.161	170.7471
315.000000	83.157	170.8683
320.000000	83.153	170.9880
325.000000	83.148	171.0802
330.000000	83.146	171.2319
335.000000	83.126	171.3229
340.000000	83.125	171.4621
345.000000	83.120	171.6230
350.000000	83.113	171.6557
355.000000	83.120	171.7685
360.000000	83.114	171.8504
365.000000	83.098	171.9612
370.000000	83.096	172.0550
375.000000	83.090	172.1867
382.000000	83.083	172.2756
387.000000	83.086	172.3464
395.000000	83.071	172.5365
400.000000	83.062	172.5856
406.000000	83.071	172.6986
412.000000	83.061	172.7659
418.000000	83.040	172.8573
425.000000	83.045	173.0023
431.000000	83.027	173.0447
437.000000	83.025	173.2022
444.000000	83.005	173.2988
450.000000	83.001	173.3444
455.000000	83.004	173.4414
462.000000	82.986	173.5620
468.000000	82.979	173.6688
475.000000	82.968	173.7705
482.000000	82.966	173.9057
487.000000	82.954	173.9782
494.000000	82.936	174.1013
500.000000	82.919	174.2117
508.000000	82.919	174.3888
515.000000	82.898	174.4642
522.000000	82.893	174.5946
530.000000	82.861	174.7979
538.000000	82.861	174.9171
545.000000	82.843	175.0421
552.000000	82.834	175.2372
560.000000	82.815	175.4215
570.000000	82.806	175.5841
580.000000	82.777	175.8234
590.000000	82.766	176.0977
600.000000	82.745	176.3148
608.000000	82.742	176.5156
615.000000	82.730	176.6447
622.000000	82.715	176.9202
630.000000	82.704	177.1022
640.000000	82.696	177.2953
650.000000	82.675	177.5817
660.000000	82.661	177.8693
670.000000	82.656	178.2343
680.000000	82.653	178.5504
690.000000	82.628	178.7613
700.000000	82.630	179.1570
710.000000	82.616	179.3899
720.000000	82.613	179.7070
730.000000	82.606	-179.9193
740.000000	82.609	-179.5438
750.000000	82.615	-179.2241
762.000000	82.622	-178.8461
775.000000	82.626	-178.3001
788.000000	82.635	-177.9552
800.000000	82.658	-177.4416
812.000000	82.674	-177.1084
825.000000	82.687	-176.6654
838.000000	82.720	-176.1707
850.000000	82.736	-175.7460
862.000000	82.759	-175.3665
875.000000	82.798	-174.9650
885.000000	82.820	-174.5459
900.000000	82.880	-174.1473
912.000000	82.900	-173.7617
925.000000	82.957	-173.3662
938.000000	83.015	-173.0427
950.000000	83.047	-172.7357
962.000000	83.092	-172.4195
975.000000	83.144	-172.0614
988.000000	83.199	-171.8179
1000.000000	83.226	-171.6988
1015.000000	83.321	-171.2513
1030.000000	83.379	-171.0726
1044.000000	83.443	-170.8107
1060.000000	83.516	-170.6082
1075.000000	83.575	-170.4431
1090.000000	83.638	-170.2941
1106.000000	83.701	-170.2202
1120.000000	83.757	-170.1261
1138.000000	83.837	-169.9638
1150.000000	83.873	-169.9219
1172.000000	83.950	-169.8931
1180.000000	83.975	-169.8633
1206.000000	84.062	-169.8473
1220.000000	84.106	-169.8015
1241.000000	84.168	-169.8361
1250.000000	84.177	-169.7111
1265.000000	84.229	-169.7302
1280.000000	84.259	-169.7944
1315.000000	84.341	-169.6657
1320.000000	84.341	-169.6721
1340.000000	84.388	-169.6547
1360.000000	84.430	-169.5491
1380.000000	84.468	-169.5035
1400.000000	84.499	-169.4203
1430.000000	84.557	-169.2959
1450.000000	84.593	-169.2564
1475.000000	84.633	-169.1169
1500.000000	84.685	-168.9342
1525.000000	84.727	-168.8055
1550.000000	84.763	-168.6094
1575.000000	84.817	-168.3405
1600.000000	84.865	-168.0436
1625.000000	84.912	-167.8849
1650.000000	84.966	-167.6242
1675.000000	85.022	-167.4207
1700.000000	85.088	-167.1171
1725.000000	85.164	-166.8534
1750.000000	85.226	-166.6482
1775.000000	85.305	-166.3594
1800.000000	85.382	-166.1207
1825.000000	85.455	-165.9290
1850.000000	85.536	-165.7355
1875.000000	85.612	-165.5318
1900.000000	85.700	-165.4070
1925.000000	85.797	-165.2353
1950.000000	85.885	-165.0970
1975.000000	85.997	-164.9797
2000.000000	86.085	-164.7803
2030.000000	86.197	-164.6504
2060.000000	86.318	-164.5440
2090.000000	86.436	-164.4721
2120.000000	86.570	-164.4037
2140.000000	86.657	-164.4107
2180.000000	86.830	-164.3593
2200.000000	86.928	-164.4043
2240.000000	87.109	-164.5274
2270.000000	87.251	-164.6183
2300.000000	87.387	-164.8077
2330.000000	87.544	-165.0377
2360.000000	87.694	-165.2727
2400.000000	87.884	-165.7506
2430.000000	88.027	-166.0744
2470.000000	88.223	-166.7096
2500.000000	88.368	-167.2451
2540.000000	88.561	-167.9852
2580.000000	88.740	-168.8824
2620.000000	88.930	-169.8782
2650.000000	89.048	-170.6242
2690.000000	89.198	-171.7663
2720.000000	89.310	-172.6054
2760.000000	89.445	-173.8686
2800.000000	89.570	-175.1483
2850.000000	89.706	-176.8640
2900.000000	89.837	-178.6751
2950.000000	89.935	179.3511
3000.000000	89.982	177.3321
3040.000000	90.019	175.6470
3070.000000	90.016	174.4281
3110.000000	89.990	172.8208
3150.000000	89.944	171.3626
3200.000000	89.874	169.7209
3250.000000	89.792	168.0742
3300.000000	89.690	166.6534
3350.000000	89.579	165.3391
3400.000000	89.450	164.1291
3450.000000	89.328	163.1406
3500.000000	89.212	162.2412
3550.000000	89.081	161.4244
3600.000000	88.958	160.7071
3650.000000	88.830	160.1445
3700.000000	88.706	159.6187
3750.000000	88.586	159.1971
3820.000000	88.441	158.9189
3870.000000	88.331	158.6728
3950.000000	88.198	158.5398
4000.000000	88.112	158.4938
4060.000000	88.056	158.4698
4120.000000	87.990	158.5056
4180.000000	87.952	158.5953
4250.000000	87.931	158.6422
4310.000000	87.947	158.5492
4370.000000	87.956	158.3915
4440.000000	87.973	158.0363
4500.000000	88.003	157.6661
4550.000000	88.017	157.2381
4620.000000	88.032	156.5701
4680.000000	88.034	155.8082
4750.000000	88.019	154.9897
4820.000000	87.996	153.9577
4870.000000	87.947	153.1747
4940.000000	87.861	152.0895
5000.000000	87.796	151.2633
5080.000000	87.617	150.0348
5150.000000	87.447	149.1983
5220.000000	87.254	148.3901
5300.000000	87.001	147.8123
5380.000000	86.735	147.4875
5450.000000	86.501	147.4554
5520.000000	86.253	147.6364
5600.000000	85.978	148.2197
5700.000000	85.675	149.3369
5800.000000	85.432	151.0665
5900.000000	85.232	153.0526
6000.000000	85.178	155.4773
6080.000000	85.208	156.9091
6150.000000	85.248	158.3276
6220.000000	85.335	159.3770
6300.000000	85.496	160.4762
6400.000000	85.731	161.1436
6500.000000	85.992	161.2577
6600.000000	86.224	160.5453
6700.000000	86.338	159.1855
6800.000000	86.371	157.8708
6900.000000	86.344	156.6141
7000.000000	86.265	155.9076
7100.000000	86.140	155.1196
7200.000000	86.048	154.8756
7300.000000	85.989	154.6212
7400.000000	85.957	154.3821
7500.000000	85.928	154.2106
7620.000000	85.995	153.9857
7750.000000	86.095	152.8759
7880.000000	86.184	151.0894
8000.000000	86.261	148.5958
8120.000000	86.214	145.3299
8250.000000	85.998	141.3506
8380.000000	85.574	137.2719
8500.000000	85.008	133.8670
8620.000000	84.317	131.3879
8750.000000	83.480	129.6284
8850.000000	82.803	129.1219
9000.000000	81.805	129.4019
9120.000000	81.056	130.3410
9250.000000	80.287	132.3970
9380.000000	79.627	134.5520
9500.000000	79.022	137.2546
9620.000000	78.518	139.9343
9750.000000	77.994	143.1974
9880.000000	77.537	146.6365
10000.000000	77.229	150.7582
10150.000000	76.814	154.4516
10300.000000	76.704	159.0953
10440.000000	76.475	162.6597
10600.000000	76.391	166.1699
10750.000000	76.293	169.3508
10900.000000	76.080	172.0526
11060.000000	75.811	175.5148
11200.000000	75.673	179.9824
11380.000000	75.577	-174.1145
11500.000000	75.786	-170.9847
11720.000000	76.238	-165.9252
11800.000000	76.328	-164.8540
12060.000000	76.821	-160.8879
12200.000000	77.057	-160.8911
12410.000000	77.144	-160.3361
12500.000000	77.130	-160.0800
12650.000000	77.020	-159.1215
12800.000000	76.775	-157.8325
13150.000000	76.449	-151.1864
13200.000000	76.471	-150.4915
13400.000000	76.607	-145.9012
13600.000000	76.894	-141.6737
13800.000000	77.377	-138.4460
14000.000000	78.065	-136.6698
14300.000000	79.010	-138.0353
14500.000000	79.475	-141.5213
14750.000000	79.370	-146.3423
15000.000000	78.766	-149.0691
15250.000000	78.152	-148.1562
15500.000000	77.847	-144.8489
15750.000000	78.065	-141.5871
16000.000000	78.668	-140.6023
16250.000000	79.113	-143.0095
16500.000000	79.164	-147.6208
16750.000000	78.863	-150.5123
17000.000000	78.375	-152.0814
17250.000000	77.886	-151.0143
17500.000000	77.850	-148.6943
17750.000000	78.192	-146.9205
18000.000000	78.708	-147.5979
18250.000000	79.535	-150.6639
18500.000000	80.061	-159.1837
18750.000000	79.743	-171.0804
19000.000000	78.611	179.2924
19250.000000	76.851	173.9284
19500.000000	75.146	172.3732
19750.000000	74.215	176.3557
