* Measurement data measured by REW V5.20.5
* Source: Microphone (3- USB Sound Device        ), MICROPHONE (Master Volume), L, volume: 0.560
* Format: 256k Log Swept Sine, 1 sweep at 6.0- dBFS with no timing reference
* Dated: 11/07/2023 12:25:54 Õ
* REW Settings:
*  C-weighting compensation: Off
*  Target level: 75.0 dB
* Note: ; 
* Measurement: SoftEars RSV WIZ L
* Smoothing: None
* Frequency Step: 1/48 octave
* Start Frequency: 20.000 Hz
*
* Freq(Hz)	SPL(dB)	Phase(degrees)
20.000000	89.364	-155.6176
20.299999	89.409	-156.1192
20.600000	89.450	-156.6027
20.900000	89.485	-157.0788
21.200001	89.514	-157.5529
21.400000	89.530	-157.8667
21.799999	89.555	-158.4892
22.000000	89.566	-158.8016
22.400000	89.586	-159.4445
22.700001	89.599	-159.9581
23.000000	89.609	-160.5040
23.299999	89.614	-161.0683
23.600000	89.615	-161.6310
24.000000	89.616	-162.3529
24.299999	89.621	-162.8719
24.700001	89.639	-163.5627
25.000000	89.659	-164.1064
25.400000	89.688	-164.8801
25.799999	89.714	-165.6811
26.200001	89.734	-166.4533
26.500000	89.748	-166.9876
26.900000	89.766	-167.6348
27.200001	89.783	-168.0836
27.600000	89.808	-168.6554
28.000000	89.832	-169.2124
28.500000	89.858	-169.8875
29.000000	89.875	-170.5250
29.500000	89.886	-171.1225
30.000000	89.893	-171.6981
30.400000	89.896	-172.1610
30.700001	89.897	-172.5159
31.100000	89.894	-172.9993
31.500000	89.888	-173.4872
32.000000	89.879	-174.0943
32.500000	89.870	-174.7040
33.000000	89.862	-175.3295
33.500000	89.853	-175.9638
34.000000	89.845	-176.5815
34.500000	89.839	-177.1752
35.000000	89.838	-177.7632
35.500000	89.837	-178.3572
36.000000	89.832	-178.9389
36.500000	89.825	-179.4862
37.000000	89.818	179.9978
37.500000	89.811	179.4948
38.200001	89.799	178.7999
38.700001	89.787	178.3146
39.500000	89.763	177.5564
40.000000	89.747	177.0995
40.599998	89.728	176.5688
41.200001	89.711	176.0282
41.799999	89.690	175.4703
42.500000	89.657	174.8542
43.099998	89.630	174.3770
43.700001	89.608	173.9027
44.400002	89.581	173.3191
45.000000	89.554	172.7938
45.500000	89.527	172.3499
46.200001	89.482	171.7833
46.799999	89.452	171.3679
47.500000	89.433	170.8206
48.200001	89.403	170.1951
48.700001	89.376	169.8246
49.400002	89.354	169.3863
50.000000	89.337	168.9317
50.799999	89.289	168.4378
51.500000	89.270	168.1448
52.200001	89.245	167.5680
53.000000	89.139	167.1147
53.799999	89.110	167.0122
54.500000	89.093	166.0701
55.200001	88.925	165.3007
56.000000	88.868	165.5030
57.000000	88.892	162.8400
58.000000	88.232	162.1884
59.000000	88.417	165.7699
60.000000	88.788	163.0262
60.799999	88.582	161.7580
61.500000	88.550	162.1201
62.200001	88.600	161.6885
63.000000	88.534	161.1664
64.000000	88.502	161.0872
65.000000	88.440	160.5316
66.000000	88.357	160.3213
67.000000	88.290	159.9073
68.000000	88.216	159.5925
69.000000	88.165	159.0854
70.000000	88.074	158.5712
71.000000	87.996	158.3456
72.000000	87.942	157.9916
73.000000	87.863	157.6816
74.000000	87.810	157.4413
75.000000	87.743	156.9860
76.199997	87.647	156.6609
77.500000	87.566	156.2095
78.800003	87.465	155.8555
80.000000	87.389	155.5923
81.199997	87.306	155.3306
82.500000	87.221	155.0382
83.800003	87.114	154.8113
85.000000	87.042	154.6177
86.199997	86.948	154.3012
87.500000	86.847	154.1871
88.500000	86.789	154.0637
90.000000	86.682	153.8208
91.199997	86.600	153.6830
92.500000	86.490	153.5091
93.800003	86.395	153.5011
95.000000	86.317	153.3885
96.199997	86.236	153.2431
97.500000	86.151	153.1467
98.800003	86.055	152.9673
100.000000	85.971	153.1019
101.500000	85.880	152.8966
103.000000	85.755	153.0374
104.400002	85.676	153.0322
106.000000	85.541	153.0490
107.500000	85.455	153.1578
109.000000	85.340	153.2572
110.599998	85.222	153.4967
112.000000	85.138	153.7027
113.800003	85.013	153.7274
115.000000	84.905	154.4270
117.199997	84.811	153.9888
118.000000	84.682	154.8682
120.599998	84.564	155.5540
122.000000	84.502	157.1345
124.099998	84.448	158.5875
125.000000	84.488	159.2520
126.500000	84.584	159.9828
128.000000	84.702	160.4534
131.500000	84.970	159.7068
132.000000	84.988	159.3954
134.000000	84.982	158.4418
136.000000	84.898	157.7047
138.000000	84.809	157.2128
140.000000	84.700	156.9357
143.000000	84.531	156.9354
145.000000	84.439	156.9724
147.500000	84.315	157.1177
150.000000	84.226	157.4964
152.500000	84.146	157.6301
155.000000	84.058	157.8999
157.500000	84.013	158.0930
160.000000	83.938	158.3439
162.500000	83.843	158.9056
165.000000	83.803	159.2083
167.500000	83.731	159.5205
170.000000	83.706	159.3773
172.500000	83.661	159.9002
175.000000	83.602	160.5317
177.500000	83.412	160.8615
180.000000	83.529	160.7584
182.500000	83.465	161.1751
185.000000	83.425	161.4689
187.500000	83.403	161.8890
190.000000	83.366	162.0562
192.500000	83.338	162.4322
195.000000	83.300	162.7131
197.500000	83.271	163.0768
200.000000	83.245	163.3716
203.000000	83.213	163.6561
206.000000	83.184	163.9491
209.000000	83.173	164.2523
212.000000	83.142	164.6364
214.000000	83.136	164.7990
218.000000	83.109	165.1471
220.000000	83.090	165.4445
224.000000	83.073	165.8407
227.000000	83.056	166.0569
230.000000	83.040	166.2097
233.000000	83.020	166.5657
236.000000	83.003	166.8430
240.000000	82.997	167.1355
243.000000	82.982	167.4390
247.000000	82.960	167.7513
250.000000	82.948	167.9837
254.000000	82.923	168.3322
258.000000	82.905	168.5990
262.000000	82.880	169.0335
265.000000	82.863	169.3389
269.000000	82.825	169.7753
272.000000	82.809	170.0966
276.000000	82.773	170.6693
280.000000	82.758	171.3479
285.000000	82.752	172.3877
290.000000	82.838	173.4928
295.000000	82.996	174.5235
300.000000	83.198	174.7890
304.000000	83.343	174.4471
307.000000	83.413	174.1247
311.000000	83.459	173.6013
315.000000	83.474	173.1486
320.000000	83.469	172.7295
325.000000	83.457	172.5295
330.000000	83.441	172.3765
335.000000	83.416	172.2540
340.000000	83.409	172.2493
345.000000	83.377	172.2430
350.000000	83.371	172.2174
355.000000	83.353	172.2356
360.000000	83.338	172.2950
365.000000	83.322	172.3360
370.000000	83.325	172.3773
375.000000	83.315	172.4611
382.000000	83.288	172.5595
387.000000	83.291	172.5921
395.000000	83.274	172.6579
400.000000	83.263	172.7880
406.000000	83.252	172.8271
412.000000	83.247	172.9536
418.000000	83.227	172.9756
425.000000	83.225	173.1015
431.000000	83.205	173.1534
437.000000	83.209	173.2442
444.000000	83.190	173.3093
450.000000	83.187	173.4174
455.000000	83.172	173.5418
462.000000	83.156	173.5767
468.000000	83.141	173.7349
475.000000	83.137	173.8166
482.000000	83.121	173.9321
487.000000	83.107	174.0631
494.000000	83.095	174.1193
500.000000	83.083	174.1938
508.000000	83.067	174.3285
515.000000	83.051	174.4789
522.000000	83.033	174.6416
530.000000	83.020	174.7104
538.000000	83.005	174.9121
545.000000	83.000	175.0291
552.000000	82.979	175.2076
560.000000	82.965	175.3646
570.000000	82.953	175.5943
580.000000	82.929	175.7471
590.000000	82.917	175.9901
600.000000	82.897	176.2548
608.000000	82.890	176.4940
615.000000	82.881	176.6266
622.000000	82.864	176.8489
630.000000	82.857	177.0543
640.000000	82.838	177.3058
650.000000	82.821	177.5469
660.000000	82.811	177.7975
670.000000	82.795	178.1676
680.000000	82.783	178.4376
690.000000	82.776	178.7620
700.000000	82.773	179.0866
710.000000	82.771	179.3945
720.000000	82.762	179.7363
730.000000	82.763	-179.9762
740.000000	82.764	-179.6552
750.000000	82.754	-179.3569
762.000000	82.767	-178.9031
775.000000	82.770	-178.4486
788.000000	82.786	-178.0053
800.000000	82.786	-177.6062
812.000000	82.808	-177.1392
825.000000	82.831	-176.6212
838.000000	82.850	-176.2893
850.000000	82.876	-175.8219
862.000000	82.910	-175.4032
875.000000	82.936	-174.9998
885.000000	82.963	-174.6802
900.000000	83.015	-174.1968
912.000000	83.050	-173.8192
925.000000	83.102	-173.4500
938.000000	83.142	-173.1028
950.000000	83.187	-172.7421
962.000000	83.227	-172.4186
975.000000	83.282	-172.1818
988.000000	83.336	-171.8639
1000.000000	83.388	-171.3931
1015.000000	83.453	-171.3632
1030.000000	83.518	-171.0978
1044.000000	83.578	-170.9121
1060.000000	83.655	-170.6810
1075.000000	83.726	-170.5421
1090.000000	83.780	-170.3949
1106.000000	83.847	-170.2834
1120.000000	83.901	-170.1653
1138.000000	83.967	-170.0783
1150.000000	84.017	-169.9684
1172.000000	84.093	-170.0009
1180.000000	84.124	-169.9628
1206.000000	84.206	-169.9062
1220.000000	84.244	-169.9635
1241.000000	84.306	-169.8893
1250.000000	84.331	-169.8716
1265.000000	84.380	-169.8255
1280.000000	84.415	-169.8619
1315.000000	84.490	-169.8718
1320.000000	84.511	-169.7830
1340.000000	84.541	-169.8294
1360.000000	84.584	-169.7229
1380.000000	84.626	-169.6837
1400.000000	84.656	-169.6189
1430.000000	84.714	-169.5235
1450.000000	84.746	-169.4128
1475.000000	84.798	-169.3412
1500.000000	84.839	-169.1606
1525.000000	84.891	-169.0535
1550.000000	84.928	-168.8012
1575.000000	84.989	-168.6387
1600.000000	85.031	-168.4433
1625.000000	85.085	-168.2007
1650.000000	85.145	-168.0735
1675.000000	85.194	-167.8686
1700.000000	85.266	-167.6539
1725.000000	85.318	-167.4854
1750.000000	85.392	-167.2414
1775.000000	85.451	-167.0695
1800.000000	85.522	-166.8460
1825.000000	85.605	-166.6526
1850.000000	85.675	-166.4374
1875.000000	85.760	-166.2563
1900.000000	85.828	-166.0767
1925.000000	85.915	-165.9594
1950.000000	85.999	-165.7435
1975.000000	86.088	-165.6008
2000.000000	86.181	-165.6443
2030.000000	86.300	-165.3264
2060.000000	86.417	-165.2525
2090.000000	86.538	-165.1605
2120.000000	86.669	-165.0656
2140.000000	86.752	-165.0518
2180.000000	86.924	-165.0751
2200.000000	87.023	-165.1117
2240.000000	87.210	-165.2193
2270.000000	87.337	-165.3564
2300.000000	87.490	-165.4990
2330.000000	87.624	-165.7565
2360.000000	87.765	-166.0504
2400.000000	87.961	-166.4561
2430.000000	88.112	-166.7963
2470.000000	88.301	-167.3713
2500.000000	88.440	-167.9076
2540.000000	88.626	-168.6657
2580.000000	88.808	-169.5341
2620.000000	88.978	-170.4634
2650.000000	89.110	-171.2239
2690.000000	89.273	-172.3474
2720.000000	89.396	-173.2297
2760.000000	89.531	-174.5838
2800.000000	89.660	-175.9598
2850.000000	89.787	-177.9096
2900.000000	89.879	-179.8605
2950.000000	89.937	178.2433
3000.000000	89.971	176.3015
3040.000000	89.983	174.8338
3070.000000	89.975	173.6551
3110.000000	89.950	172.1870
3150.000000	89.915	170.8182
3200.000000	89.845	169.1031
3250.000000	89.759	167.5621
3300.000000	89.659	166.1760
3350.000000	89.544	164.9582
3400.000000	89.425	163.8633
3450.000000	89.303	162.9107
3500.000000	89.194	162.0214
3550.000000	89.084	161.2112
3600.000000	88.962	160.4441
3650.000000	88.842	159.7583
3700.000000	88.722	159.1808
3750.000000	88.598	158.7891
3820.000000	88.436	158.2525
3870.000000	88.326	158.0525
3950.000000	88.195	157.8433
4000.000000	88.071	157.8409
4060.000000	88.032	157.7870
4120.000000	87.965	157.7773
4180.000000	87.898	157.7739
4250.000000	87.871	157.7239
4310.000000	87.838	157.6581
4370.000000	87.829	157.5638
4440.000000	87.816	157.3851
4500.000000	87.834	157.0818
4550.000000	87.841	156.7886
4620.000000	87.854	156.2573
4680.000000	87.846	155.7111
4750.000000	87.845	154.9345
4820.000000	87.840	154.0976
4870.000000	87.812	153.3145
4940.000000	87.753	152.3056
5000.000000	87.679	151.2352
5080.000000	87.540	150.0534
5150.000000	87.384	149.0797
5220.000000	87.195	148.1237
5300.000000	86.957	147.3027
5380.000000	86.667	146.6203
5450.000000	86.398	146.3040
5520.000000	86.137	146.2886
5600.000000	85.826	146.5691
5700.000000	85.422	147.4481
5800.000000	85.071	148.9282
5900.000000	84.738	150.8899
6000.000000	84.553	153.3391
6080.000000	84.466	155.2887
6150.000000	84.419	156.9985
6220.000000	84.440	158.6768
6300.000000	84.512	160.3788
6400.000000	84.664	162.2112
6500.000000	84.852	163.4645
6600.000000	85.094	164.2587
6700.000000	85.301	164.3210
6800.000000	85.456	164.1666
6900.000000	85.587	163.5034
7000.000000	85.675	162.7083
7100.000000	85.698	162.1100
7200.000000	85.696	161.6224
7300.000000	85.702	161.1165
7400.000000	85.688	160.6174
7500.000000	85.690	160.0984
7620.000000	85.715	159.7159
7750.000000	85.774	158.9188
7880.000000	85.853	157.5654
8000.000000	85.890	155.8431
8120.000000	85.891	153.2801
8250.000000	85.805	150.2189
8380.000000	85.558	146.7624
8500.000000	85.163	143.4980
8620.000000	84.677	140.5663
8750.000000	83.986	138.2638
8850.000000	83.398	137.0809
9000.000000	82.444	136.3239
9120.000000	81.698	136.6874
9250.000000	80.944	137.9078
9380.000000	80.204	139.7288
9500.000000	79.565	142.2197
9620.000000	79.071	144.8656
9750.000000	78.511	148.0060
9880.000000	78.090	151.1411
10000.000000	77.669	154.0112
10150.000000	77.308	158.6188
10300.000000	76.990	162.6102
10440.000000	76.884	166.8889
10600.000000	76.722	171.0501
10750.000000	76.642	174.5506
10900.000000	76.652	177.9427
11060.000000	76.543	-179.1118
11200.000000	76.447	-175.8697
11380.000000	76.450	-171.2086
11500.000000	76.668	-168.2634
11720.000000	76.935	-164.3947
11800.000000	77.056	-163.1822
12060.000000	77.469	-160.9766
12200.000000	77.678	-160.1283
12410.000000	77.657	-160.3857
12500.000000	77.596	-160.8440
12650.000000	77.360	-160.3936
12800.000000	77.067	-159.2412
13150.000000	76.514	-153.1066
13200.000000	76.500	-152.3811
13400.000000	76.369	-147.1203
13600.000000	76.605	-143.4693
13800.000000	76.967	-139.9204
14000.000000	77.391	-137.7091
14300.000000	78.241	-136.9463
14500.000000	78.645	-138.7021
14750.000000	78.657	-142.6706
15000.000000	78.338	-144.7939
15250.000000	77.683	-144.1475
15500.000000	77.420	-140.9379
15750.000000	77.607	-137.3260
16000.000000	78.267	-136.4654
16250.000000	78.985	-138.7960
16500.000000	79.185	-144.3635
16750.000000	78.947	-149.3403
17000.000000	78.329	-152.3756
17250.000000	77.780	-152.0761
17500.000000	77.615	-150.5279
17750.000000	77.818	-149.6380
18000.000000	78.334	-150.2784
18250.000000	79.235	-155.0888
18500.000000	79.900	-167.1460
18750.000000	79.216	176.6916
19000.000000	77.553	164.3114
19250.000000	75.293	157.0755
19500.000000	72.952	154.2752
19750.000000	71.176	157.2059
