* Measurement data measured by REW V5.20.5
* Source: Microphone (4- USB Sound Device        ), MICROPHONE (Master Volume), L, volume: 0.560
* Format: 256k Log Swept Sine, 1 sweep at 6.0- dBFS with no timing reference
* Dated: 08/06/2023 01:50:03 ã
* REW Settings:
*  C-weighting compensation: Off
*  Target level: 75.0 dB
* Note: ; 
* Measurement: zero  red  sipring l
* Smoothing: None
* Frequency Step: 1/48 octave
* Start Frequency: 20.000 Hz
*
* Freq(Hz)	SPL(dB)	Phase(degrees)
20.000000	89.615	-162.4551
20.299999	89.648	-162.9447
20.600000	89.670	-163.4263
20.900000	89.680	-163.8881
21.200001	89.678	-164.3059
21.400000	89.673	-164.5464
21.799999	89.663	-164.9422
22.000000	89.662	-165.1156
22.400000	89.677	-165.4877
22.700001	89.700	-165.8627
23.000000	89.724	-166.3653
23.299999	89.741	-166.9773
23.600000	89.745	-167.6469
24.000000	89.733	-168.5305
24.299999	89.719	-169.1306
24.700001	89.709	-169.8447
25.000000	89.713	-170.3567
25.400000	89.731	-171.0685
25.799999	89.754	-171.8315
26.200001	89.772	-172.6000
26.500000	89.782	-173.1419
26.900000	89.794	-173.7951
27.200001	89.805	-174.2397
27.600000	89.822	-174.7966
28.000000	89.838	-175.3339
28.500000	89.850	-175.9725
29.000000	89.852	-176.5480
29.500000	89.851	-177.0656
30.000000	89.849	-177.5754
30.400000	89.845	-178.0092
30.700001	89.839	-178.3528
31.100000	89.826	-178.8222
31.500000	89.808	-179.2878
32.000000	89.785	-179.8538
32.500000	89.766	179.5794
33.000000	89.752	178.9890
33.500000	89.740	178.3805
34.000000	89.730	177.7739
34.500000	89.722	177.1749
35.000000	89.714	176.5846
35.500000	89.704	176.0276
36.000000	89.693	175.5312
36.500000	89.687	175.0801
37.000000	89.685	174.6238
37.500000	89.678	174.1429
38.200001	89.653	173.4993
38.700001	89.632	173.0983
39.500000	89.606	172.4653
40.000000	89.588	172.0303
40.599998	89.561	171.5049
41.200001	89.535	171.0187
41.799999	89.518	170.5362
42.500000	89.504	169.8935
43.099998	89.482	169.2887
43.700001	89.448	168.7402
44.400002	89.409	168.2428
45.000000	89.390	167.8597
45.500000	89.381	167.4903
46.200001	89.359	166.9010
46.799999	89.327	166.4167
47.500000	89.288	165.9360
48.200001	89.256	165.4876
48.700001	89.237	165.1486
49.400002	89.208	164.6516
50.000000	89.180	164.2325
50.799999	89.140	163.6994
51.500000	89.104	163.2672
52.200001	89.073	162.8557
53.000000	89.038	162.3305
53.799999	88.988	161.7984
54.500000	88.943	161.4420
55.200001	88.916	161.0876
56.000000	88.888	160.5465
57.000000	88.835	159.8763
58.000000	88.788	159.2774
59.000000	88.735	158.6891
60.000000	88.682	158.2065
60.799999	88.642	157.8493
61.500000	88.607	157.5555
62.200001	88.576	157.2610
63.000000	88.539	156.8661
64.000000	88.478	156.3523
65.000000	88.419	155.9291
66.000000	88.373	155.4634
67.000000	88.323	154.9460
68.000000	88.266	154.4688
69.000000	88.209	154.0748
70.000000	88.163	153.6907
71.000000	88.112	153.2468
72.000000	88.052	152.8447
73.000000	87.995	152.4730
74.000000	87.938	152.1024
75.000000	87.886	151.7402
76.199997	87.819	151.2539
77.500000	87.741	150.8227
78.800003	87.673	150.3471
80.000000	87.602	149.9470
81.199997	87.538	149.5514
82.500000	87.464	149.1825
83.800003	87.398	148.7607
85.000000	87.324	148.4348
86.199997	87.260	148.0766
87.500000	87.178	147.6867
88.500000	87.117	147.4012
90.000000	87.039	146.9726
91.199997	86.959	146.5837
92.500000	86.886	146.3868
93.800003	86.821	146.0579
95.000000	86.751	145.7722
96.199997	86.672	145.5120
97.500000	86.594	145.2511
98.800003	86.512	144.9609
100.000000	86.436	144.6985
101.500000	86.340	144.4106
103.000000	86.253	144.1154
104.400002	86.155	143.8392
106.000000	86.058	143.5976
107.500000	85.950	143.3779
109.000000	85.845	143.1259
110.599998	85.721	142.9625
112.000000	85.612	142.8075
113.800003	85.469	142.6476
115.000000	85.367	142.5484
117.199997	85.173	142.6678
118.000000	85.104	142.6871
120.599998	84.849	143.0289
122.000000	84.719	143.5504
124.099998	84.513	144.4055
125.000000	84.447	145.0853
126.500000	84.368	146.1550
128.000000	84.375	147.5777
131.500000	84.535	149.3982
132.000000	84.579	149.5230
134.000000	84.696	149.6021
136.000000	84.794	149.4674
138.000000	84.845	149.0866
140.000000	84.862	148.6747
143.000000	84.847	148.1162
145.000000	84.821	147.8144
147.500000	84.781	147.4957
150.000000	84.751	147.2152
152.500000	84.699	147.0017
155.000000	84.653	146.8527
157.500000	84.602	146.7083
160.000000	84.548	146.5647
162.500000	84.505	146.4410
165.000000	84.455	146.2977
167.500000	84.407	146.1784
170.000000	84.348	146.1177
172.500000	84.295	146.1160
175.000000	84.229	146.0821
177.500000	84.197	146.0303
180.000000	84.146	146.0218
182.500000	84.110	146.0737
185.000000	84.053	146.0890
187.500000	84.015	146.1136
190.000000	83.965	146.1100
192.500000	83.934	146.1838
195.000000	83.896	146.2261
197.500000	83.858	146.3260
200.000000	83.827	146.4229
203.000000	83.794	146.4030
206.000000	83.755	146.5737
209.000000	83.713	146.5776
212.000000	83.681	146.6354
214.000000	83.663	146.6980
218.000000	83.639	146.7625
220.000000	83.622	146.8687
224.000000	83.572	146.9287
227.000000	83.561	147.0791
230.000000	83.535	147.1291
233.000000	83.520	147.1709
236.000000	83.498	147.2042
240.000000	83.463	147.3152
243.000000	83.457	147.4318
247.000000	83.437	147.5356
250.000000	83.427	147.5632
254.000000	83.414	147.7085
258.000000	83.416	147.7567
262.000000	83.408	147.7159
265.000000	83.408	147.8266
269.000000	83.399	147.7979
272.000000	83.392	147.7614
276.000000	83.391	147.7335
280.000000	83.379	147.7054
285.000000	83.370	147.6210
290.000000	83.356	147.5632
295.000000	83.344	147.5195
300.000000	83.336	147.5212
304.000000	83.316	147.4335
307.000000	83.310	147.4234
311.000000	83.291	147.4122
315.000000	83.277	147.3904
320.000000	83.274	147.4478
325.000000	83.261	147.4025
330.000000	83.245	147.4897
335.000000	83.243	147.5128
340.000000	83.243	147.5975
345.000000	83.260	147.6582
350.000000	83.289	147.6168
355.000000	83.305	147.5272
360.000000	83.318	147.3170
365.000000	83.312	147.0534
370.000000	83.317	146.8904
375.000000	83.298	146.7000
382.000000	83.285	146.4891
387.000000	83.267	146.3851
395.000000	83.246	146.1721
400.000000	83.231	146.0840
406.000000	83.225	145.9446
412.000000	83.208	145.9011
418.000000	83.188	145.8100
425.000000	83.167	145.7818
431.000000	83.164	145.6398
437.000000	83.138	145.6113
444.000000	83.133	145.6607
450.000000	83.122	145.5327
455.000000	83.115	145.5080
462.000000	83.104	145.4784
468.000000	83.095	145.4097
475.000000	83.079	145.4338
482.000000	83.074	145.3607
487.000000	83.062	145.3677
494.000000	83.061	145.3557
500.000000	83.044	145.3061
508.000000	83.048	145.2791
515.000000	83.038	145.2696
522.000000	83.037	145.2370
530.000000	83.027	145.3046
538.000000	83.034	145.3234
545.000000	83.035	145.3063
552.000000	83.033	145.3806
560.000000	83.035	145.3583
570.000000	83.049	145.3575
580.000000	83.043	145.3653
590.000000	83.050	145.4072
600.000000	83.055	145.4927
608.000000	83.069	145.4243
615.000000	83.073	145.4998
622.000000	83.077	145.5067
630.000000	83.095	145.5976
640.000000	83.104	145.6162
650.000000	83.112	145.6426
660.000000	83.130	145.7243
670.000000	83.163	145.7510
680.000000	83.180	145.7826
690.000000	83.199	145.8221
700.000000	83.217	145.8304
710.000000	83.234	145.8830
720.000000	83.265	145.9628
730.000000	83.295	145.9914
740.000000	83.312	146.0588
750.000000	83.354	146.1429
762.000000	83.380	146.2141
775.000000	83.425	146.3510
788.000000	83.465	146.3513
800.000000	83.515	146.3474
812.000000	83.561	146.4437
825.000000	83.607	146.5197
838.000000	83.664	146.6522
850.000000	83.711	146.6545
862.000000	83.775	146.7109
875.000000	83.822	146.6872
885.000000	83.883	146.7152
900.000000	83.942	146.7749
912.000000	84.018	146.8261
925.000000	84.083	146.7656
938.000000	84.138	146.7628
950.000000	84.216	146.7074
962.000000	84.293	146.7220
975.000000	84.363	146.6863
988.000000	84.432	146.5668
1000.000000	84.497	146.3693
1015.000000	84.589	146.3197
1030.000000	84.678	146.1823
1044.000000	84.763	146.0555
1060.000000	84.850	145.8481
1075.000000	84.915	145.6370
1090.000000	85.007	145.3215
1106.000000	85.087	145.1887
1120.000000	85.161	144.9146
1138.000000	85.251	144.6636
1150.000000	85.308	144.4317
1172.000000	85.416	144.0435
1180.000000	85.449	143.8983
1206.000000	85.559	143.5266
1220.000000	85.636	143.3060
1241.000000	85.710	143.0017
1250.000000	85.757	142.8036
1265.000000	85.814	142.6540
1280.000000	85.892	142.4061
1315.000000	86.042	141.9695
1320.000000	86.052	141.9296
1340.000000	86.143	141.7296
1360.000000	86.231	141.5481
1380.000000	86.338	141.3139
1400.000000	86.431	141.0173
1430.000000	86.593	140.7122
1450.000000	86.708	140.3637
1475.000000	86.838	139.9141
1500.000000	86.988	139.3174
1525.000000	87.122	138.7870
1550.000000	87.231	138.0485
1575.000000	87.353	137.3506
1600.000000	87.445	136.7164
1625.000000	87.531	136.0596
1650.000000	87.589	135.4508
1675.000000	87.681	134.7924
1700.000000	87.758	134.3162
1725.000000	87.830	133.7694
1750.000000	87.905	133.3530
1775.000000	87.968	132.8527
1800.000000	88.049	132.3903
1825.000000	88.127	131.9490
1850.000000	88.188	131.5203
1875.000000	88.263	131.1079
1900.000000	88.343	130.7755
1925.000000	88.406	130.2981
1950.000000	88.497	129.9326
1975.000000	88.573	129.4844
2000.000000	88.615	129.1816
2030.000000	88.730	128.7087
2060.000000	88.821	128.1845
2090.000000	88.918	127.7598
2120.000000	88.995	127.2914
2140.000000	89.058	127.0342
2180.000000	89.168	126.6882
2200.000000	89.220	126.3945
2240.000000	89.365	126.0688
2270.000000	89.493	125.7507
2300.000000	89.639	125.5078
2330.000000	89.799	124.9778
2360.000000	89.959	124.3582
2400.000000	90.150	123.3035
2430.000000	90.270	122.4001
2470.000000	90.432	121.2049
2500.000000	90.512	120.2483
2540.000000	90.619	119.0180
2580.000000	90.713	117.8334
2620.000000	90.810	116.6750
2650.000000	90.893	115.8939
2690.000000	90.967	114.6893
2720.000000	91.027	113.7463
2760.000000	91.117	112.5197
2800.000000	91.178	111.2391
2850.000000	91.181	109.6781
2900.000000	91.238	108.1269
2950.000000	91.267	106.6334
3000.000000	91.282	105.1599
3040.000000	91.279	103.9915
3070.000000	91.264	103.1842
3110.000000	91.218	102.0869
3150.000000	91.210	101.1918
3200.000000	91.115	99.2333
3250.000000	91.087	98.3404
3300.000000	91.031	97.0922
3350.000000	90.901	96.4403
3400.000000	90.795	94.8492
3450.000000	90.690	94.1120
3500.000000	90.608	93.1969
3550.000000	90.441	92.5495
3600.000000	90.297	91.9595
3650.000000	90.119	90.9424
3700.000000	89.942	91.0759
3750.000000	89.850	90.9679
3820.000000	89.518	90.3696
3870.000000	89.350	89.8376
3950.000000	89.131	90.2275
4000.000000	88.973	90.9959
4060.000000	88.776	90.4451
4120.000000	88.584	91.0917
4180.000000	88.319	92.2758
4250.000000	88.206	92.6223
4310.000000	87.912	93.6046
4370.000000	87.804	94.4527
4440.000000	87.582	94.7034
4500.000000	87.444	95.8713
4550.000000	87.381	97.1063
4620.000000	87.265	97.9135
4680.000000	86.975	98.6105
4750.000000	86.838	100.0079
4820.000000	86.698	102.0425
4870.000000	86.509	103.1153
4940.000000	86.356	104.8931
5000.000000	86.090	105.2654
5080.000000	86.104	108.5198
5150.000000	85.804	110.6133
5220.000000	85.707	112.2124
5300.000000	85.670	114.7192
5380.000000	85.362	117.8621
5450.000000	85.256	119.4107
5520.000000	85.320	121.9656
5600.000000	85.143	124.7484
5700.000000	85.127	127.0740
5800.000000	84.860	130.5405
5900.000000	84.964	135.6967
6000.000000	84.784	140.1976
6080.000000	84.846	141.4012
6150.000000	84.873	144.1611
6220.000000	84.677	148.4824
6300.000000	84.845	150.8408
6400.000000	84.964	155.5560
6500.000000	85.131	159.0013
6600.000000	85.260	160.8455
6700.000000	85.542	166.3192
6800.000000	85.605	168.3682
6900.000000	85.957	172.7327
7000.000000	86.269	177.4369
7100.000000	86.759	179.7855
7200.000000	86.953	-177.8243
7300.000000	87.259	-174.7767
7400.000000	87.771	-174.5385
7500.000000	88.490	-172.5401
7620.000000	88.751	-172.2921
7750.000000	89.574	-173.8969
7880.000000	89.997	-177.7005
8000.000000	90.070	177.2708
8120.000000	90.223	171.3337
8250.000000	89.282	166.6308
8380.000000	88.074	159.0639
8500.000000	86.468	159.1025
8620.000000	84.821	158.5320
8750.000000	83.286	161.9091
8850.000000	82.359	166.5499
9000.000000	80.510	173.5621
9120.000000	79.885	-178.8216
9250.000000	78.532	-173.8120
9380.000000	77.543	-165.3849
9500.000000	76.926	-155.2374
9620.000000	75.889	-148.5304
9750.000000	75.712	-137.8647
9880.000000	74.716	-128.5746
10000.000000	74.457	-119.7136
10150.000000	73.902	-110.3671
10300.000000	73.417	-98.8795
10440.000000	73.017	-89.1886
10600.000000	72.564	-77.1502
10750.000000	71.919	-67.2618
10900.000000	71.471	-56.6561
11060.000000	71.702	-42.5328
11200.000000	71.306	-32.0982
11380.000000	71.205	-20.5435
11500.000000	71.156	-12.2684
11720.000000	70.691	4.7650
11800.000000	70.525	12.0491
12060.000000	70.396	32.0681
12200.000000	70.415	42.9547
12410.000000	70.359	58.0901
12500.000000	70.507	66.6780
12650.000000	70.408	77.8282
12800.000000	70.937	92.0173
13150.000000	71.863	119.1801
13200.000000	72.060	125.0748
13400.000000	72.786	141.3274
13600.000000	73.858	155.2236
13800.000000	74.682	171.7657
14000.000000	75.742	-174.4180
14300.000000	77.610	-152.7531
14500.000000	79.425	-144.3827
14750.000000	82.400	-130.6404
15000.000000	84.870	-127.3948
15250.000000	87.370	-138.3289
15500.000000	87.118	-151.9023
15750.000000	85.188	-155.8148
16000.000000	82.971	-151.5766
16250.000000	81.296	-141.4294
16500.000000	79.771	-130.8189
16750.000000	78.623	-119.5473
17000.000000	77.586	-106.9564
17250.000000	76.465	-92.0788
17500.000000	75.560	-78.3511
17750.000000	74.828	-64.4514
18000.000000	73.241	-49.5677
18250.000000	72.154	-33.2313
18500.000000	70.688	-16.2614
18750.000000	69.792	1.4318
19000.000000	69.257	17.6023
19250.000000	68.278	37.5897
19500.000000	66.869	58.0498
19750.000000	66.415	80.5172
