* Measurement data measured by REW V5.20.5
* Source: Microphone (4- USB Sound Device        ), MICROPHONE (Master Volume), L, volume: 0.560
* Format: 256k Log Swept Sine, 1 sweep at 6.0- dBFS with no timing reference
* Dated: 08/06/2023 01:48:55 ã
* REW Settings:
*  C-weighting compensation: Off
*  Target level: 75.0 dB
* Note: ; 
* Measurement: zero  red 10 sipring l
* Smoothing: None
* Frequency Step: 1/48 octave
* Start Frequency: 20.000 Hz
*
* Freq(Hz)	SPL(dB)	Phase(degrees)
20.000000	92.313	-164.5036
20.299999	92.348	-164.9386
20.600000	92.380	-165.3849
20.900000	92.407	-165.8589
21.200001	92.427	-166.3655
21.400000	92.435	-166.7155
21.799999	92.438	-167.4265
22.000000	92.434	-167.7788
22.400000	92.420	-168.4660
22.700001	92.409	-168.9718
23.000000	92.398	-169.4828
23.299999	92.390	-170.0120
23.600000	92.383	-170.5651
24.000000	92.376	-171.3388
24.299999	92.372	-171.9362
24.700001	92.367	-172.7374
25.000000	92.366	-173.3303
25.400000	92.368	-174.1023
25.799999	92.377	-174.8547
26.200001	92.390	-175.5939
26.500000	92.402	-176.1394
26.900000	92.416	-176.8458
27.200001	92.424	-177.3480
27.600000	92.433	-177.9682
28.000000	92.442	-178.5323
28.500000	92.452	-179.1878
29.000000	92.459	-179.8245
29.500000	92.457	179.5559
30.000000	92.447	178.9716
30.400000	92.436	178.5251
30.700001	92.427	178.1909
31.100000	92.415	177.7318
31.500000	92.401	177.2540
32.000000	92.381	176.6402
32.500000	92.361	176.0164
33.000000	92.341	175.3788
33.500000	92.323	174.7297
34.000000	92.306	174.0862
34.500000	92.291	173.4597
35.000000	92.279	172.8459
35.500000	92.267	172.2460
36.000000	92.254	171.6762
36.500000	92.243	171.1436
37.000000	92.232	170.6310
37.500000	92.221	170.1179
38.200001	92.199	169.4066
38.700001	92.177	168.9238
39.500000	92.139	168.1934
40.000000	92.116	167.7498
40.599998	92.091	167.2173
41.200001	92.069	166.6575
41.799999	92.045	166.0546
42.500000	92.007	165.3454
43.099998	91.971	164.7967
43.700001	91.941	164.2984
44.400002	91.915	163.7103
45.000000	91.893	163.1725
45.500000	91.869	162.7242
46.200001	91.832	162.1315
46.799999	91.801	161.6546
47.500000	91.765	161.1160
48.200001	91.731	160.5797
48.700001	91.706	160.1900
49.400002	91.667	159.6537
50.000000	91.633	159.2262
50.799999	91.595	158.6631
51.500000	91.560	158.1406
52.200001	91.519	157.6356
53.000000	91.475	157.0860
53.799999	91.430	156.5201
54.500000	91.388	156.0365
55.200001	91.346	155.5634
56.000000	91.299	155.0286
57.000000	91.244	154.3792
58.000000	91.185	153.7159
59.000000	91.128	153.1743
60.000000	91.086	152.5493
60.799999	91.032	152.0243
61.500000	90.983	151.6632
62.200001	90.944	151.2982
63.000000	90.895	150.8306
64.000000	90.830	150.2719
65.000000	90.767	149.7095
66.000000	90.705	149.1776
67.000000	90.646	148.6444
68.000000	90.586	148.1388
69.000000	90.529	147.6448
70.000000	90.466	147.1364
71.000000	90.398	146.6810
72.000000	90.336	146.2452
73.000000	90.275	145.7610
74.000000	90.206	145.2736
75.000000	90.138	144.8583
76.199997	90.065	144.3443
77.500000	89.983	143.7859
78.800003	89.901	143.2447
80.000000	89.820	142.7540
81.199997	89.740	142.3361
82.500000	89.664	141.8467
83.800003	89.575	141.3383
85.000000	89.494	140.9436
86.199997	89.414	140.5105
87.500000	89.323	140.0857
88.500000	89.257	139.7446
90.000000	89.155	139.2856
91.199997	89.082	138.8878
92.500000	88.991	138.4653
93.800003	88.902	138.0943
95.000000	88.820	137.7708
96.199997	88.738	137.4281
97.500000	88.645	137.0723
98.800003	88.550	136.7419
100.000000	88.468	136.4637
101.500000	88.362	136.0462
103.000000	88.244	135.7051
104.400002	88.138	135.3662
106.000000	88.011	135.0645
107.500000	87.891	134.7563
109.000000	87.770	134.4968
110.599998	87.631	134.2177
112.000000	87.505	134.0412
113.800003	87.337	133.8653
115.000000	87.229	133.8077
117.199997	86.989	133.7938
118.000000	86.912	133.9194
120.599998	86.619	134.5573
122.000000	86.509	135.0392
124.099998	86.332	136.1514
125.000000	86.273	136.8513
126.500000	86.260	137.9501
128.000000	86.259	138.8963
131.500000	86.435	140.1405
132.000000	86.469	140.0980
134.000000	86.553	139.8801
136.000000	86.606	139.5434
138.000000	86.584	139.1147
140.000000	86.577	138.6645
143.000000	86.524	138.1372
145.000000	86.483	137.8061
147.500000	86.419	137.5163
150.000000	86.347	137.1953
152.500000	86.279	136.9598
155.000000	86.214	136.6943
157.500000	86.145	136.4057
160.000000	86.069	136.2563
162.500000	85.996	136.0300
165.000000	85.923	135.8614
167.500000	85.846	135.7914
170.000000	85.769	135.6484
172.500000	85.692	135.5873
175.000000	85.626	135.4470
177.500000	85.554	135.4775
180.000000	85.484	135.4465
182.500000	85.418	135.4230
185.000000	85.358	135.4165
187.500000	85.286	135.4705
190.000000	85.223	135.4692
192.500000	85.158	135.4494
195.000000	85.115	135.5236
197.500000	85.058	135.5577
200.000000	85.008	135.5710
203.000000	84.949	135.6741
206.000000	84.891	135.7232
209.000000	84.835	135.8647
212.000000	84.774	135.8904
214.000000	84.739	135.9388
218.000000	84.673	135.9938
220.000000	84.645	136.0353
224.000000	84.576	136.1450
227.000000	84.539	136.2277
230.000000	84.493	136.2812
233.000000	84.456	136.3096
236.000000	84.413	136.4803
240.000000	84.356	136.5803
243.000000	84.332	136.6396
247.000000	84.285	136.8154
250.000000	84.253	136.8906
254.000000	84.230	136.9744
258.000000	84.207	137.0348
262.000000	84.177	137.0376
265.000000	84.149	137.0273
269.000000	84.124	137.0931
272.000000	84.099	137.0346
276.000000	84.057	137.0646
280.000000	84.029	137.0678
285.000000	83.994	137.0108
290.000000	83.948	137.0137
295.000000	83.909	137.0136
300.000000	83.872	137.0375
304.000000	83.849	137.0849
307.000000	83.819	137.0468
311.000000	83.785	137.0878
315.000000	83.753	137.1053
320.000000	83.716	137.1877
325.000000	83.683	137.2065
330.000000	83.656	137.4332
335.000000	83.633	137.5174
340.000000	83.633	137.6716
345.000000	83.640	137.6866
350.000000	83.645	137.6172
355.000000	83.634	137.4622
360.000000	83.622	137.2531
365.000000	83.603	137.1202
370.000000	83.565	136.9257
375.000000	83.546	136.9024
382.000000	83.501	136.8182
387.000000	83.471	136.7123
395.000000	83.423	136.6690
400.000000	83.378	136.6365
406.000000	83.365	136.5877
412.000000	83.319	136.6484
418.000000	83.291	136.6189
425.000000	83.253	136.5354
431.000000	83.229	136.5981
437.000000	83.208	136.5819
444.000000	83.164	136.6620
450.000000	83.150	136.7158
455.000000	83.119	136.6913
462.000000	83.092	136.7133
468.000000	83.069	136.7790
475.000000	83.045	136.7621
482.000000	83.020	136.8471
487.000000	83.013	136.9173
494.000000	82.988	136.9849
500.000000	82.964	136.9548
508.000000	82.948	137.0698
515.000000	82.939	137.1896
522.000000	82.919	137.1550
530.000000	82.903	137.2600
538.000000	82.881	137.4264
545.000000	82.881	137.4839
552.000000	82.861	137.4460
560.000000	82.860	137.6607
570.000000	82.847	137.7381
580.000000	82.828	137.8385
590.000000	82.824	137.9706
600.000000	82.831	138.1171
608.000000	82.810	138.1428
615.000000	82.826	138.3617
622.000000	82.817	138.3251
630.000000	82.814	138.4451
640.000000	82.825	138.6166
650.000000	82.829	138.6933
660.000000	82.830	138.8323
670.000000	82.852	138.9344
680.000000	82.844	139.0377
690.000000	82.864	139.1971
700.000000	82.883	139.2772
710.000000	82.898	139.4594
720.000000	82.911	139.4747
730.000000	82.928	139.6427
740.000000	82.952	139.7774
750.000000	82.957	139.9501
762.000000	82.998	140.0771
775.000000	83.039	140.2661
788.000000	83.060	140.3806
800.000000	83.105	140.4563
812.000000	83.137	140.7170
825.000000	83.190	140.7772
838.000000	83.232	140.9288
850.000000	83.279	141.0680
862.000000	83.332	141.1860
875.000000	83.387	141.2163
885.000000	83.435	141.3476
900.000000	83.499	141.4810
912.000000	83.560	141.5063
925.000000	83.623	141.6101
938.000000	83.677	141.6672
950.000000	83.741	141.7178
962.000000	83.807	141.6631
975.000000	83.883	141.7059
988.000000	83.953	141.6376
1000.000000	84.025	141.4307
1015.000000	84.102	141.5367
1030.000000	84.176	141.4340
1044.000000	84.252	141.3275
1060.000000	84.337	141.2287
1075.000000	84.411	141.0704
1090.000000	84.492	140.9395
1106.000000	84.585	140.7367
1120.000000	84.635	140.5979
1138.000000	84.729	140.3047
1150.000000	84.777	140.1790
1172.000000	84.877	139.9008
1180.000000	84.915	139.7798
1206.000000	85.021	139.4549
1220.000000	85.085	139.2407
1241.000000	85.166	139.0256
1250.000000	85.218	138.8928
1265.000000	85.266	138.7414
1280.000000	85.328	138.5808
1315.000000	85.473	138.1943
1320.000000	85.495	138.1545
1340.000000	85.571	137.9778
1360.000000	85.660	137.8556
1380.000000	85.766	137.6712
1400.000000	85.849	137.5000
1430.000000	86.006	137.1663
1450.000000	86.118	136.8873
1475.000000	86.252	136.5550
1500.000000	86.394	136.0749
1525.000000	86.527	135.5835
1550.000000	86.649	134.9209
1575.000000	86.763	134.3080
1600.000000	86.860	133.7243
1625.000000	86.946	133.1188
1650.000000	87.014	132.5327
1675.000000	87.112	131.9102
1700.000000	87.173	131.5123
1725.000000	87.247	130.9967
1750.000000	87.322	130.5659
1775.000000	87.391	130.0927
1800.000000	87.462	129.6428
1825.000000	87.537	129.2899
1850.000000	87.608	128.9329
1875.000000	87.684	128.5412
1900.000000	87.751	128.2254
1925.000000	87.823	127.7195
1950.000000	87.915	127.4418
1975.000000	87.981	127.0493
2000.000000	88.045	126.6095
2030.000000	88.153	126.2996
2060.000000	88.237	125.8300
2090.000000	88.324	125.4118
2120.000000	88.411	125.0315
2140.000000	88.475	124.7250
2180.000000	88.589	124.3936
2200.000000	88.643	124.1931
2240.000000	88.787	123.9227
2270.000000	88.930	123.6818
2300.000000	89.081	123.4020
2330.000000	89.250	122.8185
2360.000000	89.406	122.1271
2400.000000	89.594	121.0496
2430.000000	89.713	120.1704
2470.000000	89.863	118.9812
2500.000000	89.956	118.1322
2540.000000	90.056	116.8886
2580.000000	90.165	115.7712
2620.000000	90.251	114.5634
2650.000000	90.331	113.7559
2690.000000	90.409	112.6000
2720.000000	90.476	111.6645
2760.000000	90.563	110.4124
2800.000000	90.632	109.1664
2850.000000	90.620	107.5001
2900.000000	90.685	106.0531
2950.000000	90.705	104.5230
3000.000000	90.713	103.2126
3040.000000	90.714	101.8095
3070.000000	90.703	101.0331
3110.000000	90.652	99.9333
3150.000000	90.643	98.9623
3200.000000	90.535	97.0569
3250.000000	90.503	96.1364
3300.000000	90.447	94.8661
3350.000000	90.306	94.2069
3400.000000	90.191	92.5952
3450.000000	90.083	91.8548
3500.000000	90.001	90.8911
3550.000000	89.812	90.3303
3600.000000	89.666	89.7137
3650.000000	89.480	88.6586
3700.000000	89.311	88.9873
3750.000000	89.209	88.8333
3820.000000	88.873	88.3162
3870.000000	88.694	87.7866
3950.000000	88.446	88.2950
4000.000000	88.291	88.9107
4060.000000	88.098	88.6090
4120.000000	87.918	89.2979
4180.000000	87.641	90.4669
4250.000000	87.537	90.7633
4310.000000	87.233	91.8430
4370.000000	87.117	92.7001
4440.000000	86.897	93.0189
4500.000000	86.733	94.2953
4550.000000	86.670	95.5372
4620.000000	86.555	96.3867
4680.000000	86.260	96.9923
4750.000000	86.133	98.5345
4820.000000	85.984	100.4708
4870.000000	85.809	101.7372
4940.000000	85.644	103.4512
5000.000000	85.374	104.1737
5080.000000	85.382	107.2008
5150.000000	85.103	109.4099
5220.000000	84.986	111.0020
5300.000000	84.970	113.6488
5380.000000	84.671	116.6568
5450.000000	84.531	118.3019
5520.000000	84.618	121.0255
5600.000000	84.430	123.8556
5700.000000	84.418	126.0582
5800.000000	84.158	129.7332
5900.000000	84.265	134.8083
6000.000000	84.078	139.3101
6080.000000	84.165	140.7756
6150.000000	84.199	143.2838
6220.000000	84.024	147.5910
6300.000000	84.177	150.0205
6400.000000	84.289	154.7958
6500.000000	84.457	158.3171
6600.000000	84.590	160.0319
6700.000000	84.906	165.4574
6800.000000	84.968	167.5126
6900.000000	85.314	171.8827
7000.000000	85.618	176.3327
7100.000000	86.136	178.7595
7200.000000	86.287	-178.9128
7300.000000	86.618	-175.8665
7400.000000	87.133	-175.6810
7500.000000	87.838	-173.6487
7620.000000	88.087	-173.5198
7750.000000	88.907	-175.0741
7880.000000	89.337	-179.0158
8000.000000	89.386	175.7779
8120.000000	89.483	169.6096
8250.000000	88.433	165.0103
8380.000000	87.195	158.0318
8500.000000	85.608	158.6053
8620.000000	83.987	158.3355
8750.000000	82.515	161.7805
8850.000000	81.636	166.7279
9000.000000	79.751	173.6343
9120.000000	79.186	-178.8151
9250.000000	77.853	-173.7003
9380.000000	76.836	-165.2665
9500.000000	76.222	-155.4286
9620.000000	75.115	-149.0090
9750.000000	74.955	-138.4656
9880.000000	73.975	-129.0357
10000.000000	73.801	-119.8208
10150.000000	73.148	-110.5535
10300.000000	72.725	-99.0347
10440.000000	72.299	-88.7866
10600.000000	71.859	-77.8560
10750.000000	71.232	-67.2523
10900.000000	70.792	-57.4181
11060.000000	71.024	-43.2949
11200.000000	70.551	-31.9841
11380.000000	70.747	-21.4400
11500.000000	70.511	-12.7067
11720.000000	70.064	3.7546
11800.000000	69.658	11.9398
12060.000000	69.670	30.4517
12200.000000	69.786	42.8823
12410.000000	69.564	58.4844
12500.000000	69.803	66.1054
12650.000000	69.908	76.9963
12800.000000	70.222	91.4818
13150.000000	71.158	118.0579
13200.000000	71.379	124.4393
13400.000000	72.121	141.0813
13600.000000	73.090	155.1762
13800.000000	73.914	171.5544
14000.000000	75.013	-175.4891
14300.000000	76.826	-153.4548
14500.000000	78.622	-143.9917
14750.000000	81.548	-130.2264
15000.000000	84.064	-126.4205
15250.000000	86.671	-136.6023
15500.000000	86.573	-150.6147
15750.000000	84.610	-155.4152
16000.000000	82.403	-151.6337
16250.000000	80.688	-141.9435
16500.000000	79.117	-130.6046
16750.000000	77.883	-119.6392
17000.000000	76.910	-106.6064
17250.000000	75.771	-91.2523
17500.000000	74.948	-78.1286
17750.000000	74.055	-63.8622
18000.000000	72.624	-48.1088
18250.000000	71.691	-33.8750
18500.000000	70.307	-16.1285
18750.000000	69.182	2.5455
19000.000000	68.699	16.9850
19250.000000	67.568	38.2200
19500.000000	66.546	58.8375
19750.000000	65.385	79.2495
