* Measurement data measured by REW V5.20.13
* Source: USB Sound Device        , MICROPHONE, R, volume: 0.222
* Format: 256k Log Swept Sine, 1 sweep at -6.0 dBFS with no timing reference
* Dated: Aug 23, 2023 10:18:28 AM
* REW Settings:
*  C-weighting compensation: Off
*  Target level: 75.0 dB
* Note: ; 
* Measurement: mest WIZ L
* Smoothing: None
* Frequency Step: 1/48 octave
* Start Frequency: 20.000 Hz
*
* Freq(Hz)	SPL(dB)	Phase(degrees)
20.000000	89.114	178.3940
20.299999	89.107	178.2213
20.600000	89.095	178.0650
20.900000	89.077	177.9021
21.200001	89.055	177.7094
21.400000	89.037	177.5598
21.799999	88.993	177.2142
22.000000	88.968	177.0199
22.400000	88.916	176.5867
22.700001	88.878	176.2110
23.000000	88.842	175.7805
23.299999	88.805	175.3006
23.600000	88.769	174.7902
24.000000	88.721	174.0999
24.299999	88.692	173.5956
24.700001	88.665	172.9404
25.000000	88.655	172.4488
25.400000	88.651	171.7834
25.799999	88.650	171.1279
26.200001	88.650	170.5249
26.500000	88.650	170.1262
26.900000	88.651	169.6697
27.200001	88.653	169.3755
27.600000	88.655	169.0336
28.000000	88.656	168.7336
28.500000	88.650	168.3896
29.000000	88.634	168.0475
29.500000	88.600	167.7073
30.000000	88.553	167.3988
30.400000	88.512	167.1735
30.700001	88.482	166.9981
31.100000	88.445	166.7251
31.500000	88.408	166.3975
32.000000	88.360	165.9385
32.500000	88.314	165.4659
33.000000	88.278	164.9790
33.500000	88.251	164.4538
34.000000	88.229	163.9018
34.500000	88.207	163.3661
35.000000	88.187	162.8707
35.500000	88.168	162.4127
36.000000	88.149	161.9886
36.500000	88.127	161.6036
37.000000	88.101	161.2577
37.500000	88.071	160.9426
38.200001	88.026	160.5290
38.700001	87.992	160.2289
39.500000	87.930	159.7078
40.000000	87.888	159.3736
40.599998	87.838	158.9765
41.200001	87.792	158.5610
41.799999	87.748	158.1265
42.500000	87.697	157.6375
43.099998	87.657	157.2393
43.700001	87.619	156.8482
44.400002	87.574	156.4186
45.000000	87.535	156.0728
45.500000	87.502	155.7840
46.200001	87.451	155.3881
46.799999	87.406	155.0749
47.500000	87.354	154.7161
48.200001	87.303	154.3501
48.700001	87.266	154.1000
49.400002	87.218	153.7724
50.000000	87.181	153.4963
50.799999	87.135	153.1171
51.500000	87.094	152.7788
52.200001	87.049	152.4517
53.000000	86.996	152.0873
53.799999	86.940	151.7175
54.500000	86.889	151.3959
55.200001	86.839	151.0517
56.000000	86.777	150.6351
57.000000	86.696	150.2026
58.000000	86.634	149.8189
59.000000	86.578	149.4126
60.000000	86.521	149.0279
60.799999	86.472	148.7202
61.500000	86.424	148.4611
62.200001	86.373	148.2276
63.000000	86.317	147.9590
64.000000	86.243	147.6035
65.000000	86.176	147.2707
66.000000	86.113	146.8836
67.000000	86.045	146.5442
68.000000	85.987	146.2403
69.000000	85.924	145.9137
70.000000	85.858	145.6494
71.000000	85.795	145.3679
72.000000	85.726	145.0994
73.000000	85.664	144.8412
74.000000	85.601	144.5360
75.000000	85.536	144.2904
76.199997	85.469	143.9925
77.500000	85.388	143.6537
78.800003	85.312	143.3565
80.000000	85.235	143.0889
81.199997	85.176	142.8441
82.500000	85.092	142.4894
83.800003	85.017	142.2929
85.000000	84.943	142.0365
86.199997	84.871	141.8609
87.500000	84.799	141.5914
88.500000	84.739	141.3805
90.000000	84.657	141.1269
91.199997	84.599	140.9073
92.500000	84.527	140.6471
93.800003	84.452	140.4866
95.000000	84.388	140.3042
96.199997	84.321	140.1404
97.500000	84.252	139.9418
98.800003	84.189	139.8022
100.000000	84.133	139.5932
101.500000	84.054	139.4074
103.000000	83.977	139.2257
104.400002	83.905	139.0247
106.000000	83.819	138.8505
107.500000	83.757	138.6904
109.000000	83.685	138.5018
110.599998	83.614	138.2887
112.000000	83.546	138.2171
113.800003	83.470	138.0147
115.000000	83.416	137.9260
117.199997	83.315	137.7740
118.000000	83.277	137.6883
120.599998	83.163	137.4799
122.000000	83.094	137.3652
124.099998	83.019	137.2095
125.000000	82.982	137.1346
126.500000	82.920	137.0253
128.000000	82.859	136.9632
131.500000	82.726	136.7692
132.000000	82.707	136.7283
134.000000	82.627	136.6145
136.000000	82.546	136.4494
138.000000	82.472	136.4234
140.000000	82.405	136.3200
143.000000	82.295	136.2783
145.000000	82.227	135.9887
147.500000	82.146	135.9795
150.000000	82.070	135.8784
152.500000	81.986	135.8425
155.000000	81.905	135.7486
157.500000	81.824	135.7713
160.000000	81.751	135.5883
162.500000	81.675	135.4847
165.000000	81.605	135.5636
167.500000	81.532	135.4642
170.000000	81.464	135.4599
172.500000	81.385	135.4536
175.000000	81.317	135.4284
177.500000	81.251	135.3847
180.000000	81.189	135.3706
182.500000	81.131	135.3525
185.000000	81.058	135.3848
187.500000	80.996	135.4037
190.000000	80.937	135.3987
192.500000	80.874	135.5244
195.000000	80.826	135.5540
197.500000	80.767	135.6197
200.000000	80.704	135.7902
203.000000	80.646	135.8551
206.000000	80.582	136.0491
209.000000	80.527	136.3554
212.000000	80.502	136.6183
214.000000	80.495	136.8495
218.000000	80.505	137.1763
220.000000	80.508	137.2147
224.000000	80.538	137.1465
227.000000	80.550	136.9267
230.000000	80.548	136.6589
233.000000	80.518	136.4597
236.000000	80.499	136.2736
240.000000	80.460	135.9881
243.000000	80.422	135.8477
247.000000	80.375	135.6104
250.000000	80.346	135.5911
254.000000	80.302	135.4479
258.000000	80.260	135.3087
262.000000	80.213	135.2163
265.000000	80.198	135.1428
269.000000	80.155	135.0569
272.000000	80.140	135.0359
276.000000	80.096	134.9421
280.000000	80.062	134.8599
285.000000	80.027	134.7756
290.000000	80.012	134.7269
295.000000	79.978	134.6513
300.000000	79.966	134.5050
304.000000	79.935	134.5031
307.000000	79.934	134.5141
311.000000	79.917	134.3920
315.000000	79.894	134.3637
320.000000	79.889	134.2263
325.000000	79.880	134.2589
330.000000	79.865	134.1149
335.000000	79.864	133.9971
340.000000	79.854	133.9473
345.000000	79.857	133.9082
350.000000	79.858	133.8611
355.000000	79.858	133.7775
360.000000	79.876	133.6685
365.000000	79.888	133.5582
370.000000	79.892	133.4531
375.000000	79.904	133.3665
382.000000	79.924	133.1476
387.000000	79.947	132.9751
395.000000	79.964	132.7416
400.000000	79.984	132.5529
406.000000	80.003	132.3850
412.000000	80.027	132.2561
418.000000	80.032	131.9625
425.000000	80.067	131.7030
431.000000	80.100	131.5533
437.000000	80.120	131.2839
444.000000	80.155	131.1040
450.000000	80.174	130.8482
455.000000	80.198	130.6958
462.000000	80.234	130.3671
468.000000	80.260	130.2264
475.000000	80.289	129.8781
482.000000	80.335	129.5051
487.000000	80.361	129.3057
494.000000	80.396	129.0685
500.000000	80.416	128.7817
508.000000	80.466	128.4528
515.000000	80.497	128.0049
522.000000	80.529	127.7675
530.000000	80.574	127.4238
538.000000	80.625	127.0663
545.000000	80.651	126.7429
552.000000	80.686	126.3937
560.000000	80.749	126.0350
570.000000	80.783	125.5766
580.000000	80.850	125.1413
590.000000	80.883	124.6237
600.000000	80.938	124.1933
608.000000	80.973	123.7719
615.000000	81.002	123.4979
622.000000	81.044	123.2015
630.000000	81.089	122.8839
640.000000	81.130	122.3730
650.000000	81.196	121.8506
660.000000	81.232	121.4089
670.000000	81.284	120.9242
680.000000	81.311	120.3835
690.000000	81.353	119.9007
700.000000	81.388	119.4536
710.000000	81.412	119.0008
720.000000	81.458	118.5990
730.000000	81.476	118.2437
740.000000	81.499	117.8066
750.000000	81.529	117.4751
762.000000	81.560	117.0297
775.000000	81.602	116.5562
788.000000	81.631	116.0822
800.000000	81.643	115.5655
812.000000	81.677	115.1109
825.000000	81.683	114.7486
838.000000	81.707	114.3753
850.000000	81.704	114.1289
862.000000	81.732	113.8920
875.000000	81.760	113.6617
885.000000	81.790	113.5001
900.000000	81.808	113.2933
912.000000	81.832	112.9456
925.000000	81.869	112.8205
938.000000	81.890	112.5229
950.000000	81.923	112.3576
962.000000	81.946	112.1250
975.000000	81.961	111.9025
988.000000	81.981	111.6838
1000.000000	82.010	111.6107
1015.000000	82.047	111.2274
1030.000000	82.064	110.9123
1044.000000	82.094	110.7312
1060.000000	82.123	110.4919
1075.000000	82.149	110.2394
1090.000000	82.171	109.9680
1106.000000	82.192	109.6499
1120.000000	82.218	109.4919
1138.000000	82.220	109.1423
1150.000000	82.233	109.0372
1172.000000	82.254	108.6911
1180.000000	82.245	108.5556
1206.000000	82.260	108.1842
1220.000000	82.257	108.0306
1241.000000	82.260	107.8307
1250.000000	82.252	107.7221
1265.000000	82.251	107.5275
1280.000000	82.248	107.4336
1315.000000	82.233	107.2239
1320.000000	82.234	107.1418
1340.000000	82.220	107.0542
1360.000000	82.207	107.0240
1380.000000	82.184	107.0166
1400.000000	82.184	106.9364
1430.000000	82.163	106.9265
1450.000000	82.139	106.8921
1475.000000	82.120	107.1060
1500.000000	82.101	107.2032
1525.000000	82.092	107.2805
1550.000000	82.081	107.4675
1575.000000	82.073	107.6924
1600.000000	82.064	107.9054
1625.000000	82.045	108.1845
1650.000000	82.051	108.3984
1675.000000	82.057	108.6609
1700.000000	82.044	108.8708
1725.000000	82.064	109.2817
1750.000000	82.075	109.3906
1775.000000	82.085	109.7793
1800.000000	82.099	110.0461
1825.000000	82.108	110.3012
1850.000000	82.140	110.5744
1875.000000	82.156	110.7881
1900.000000	82.196	111.1668
1925.000000	82.223	111.3898
1950.000000	82.252	111.5244
1975.000000	82.290	111.7669
2000.000000	82.299	112.1306
2030.000000	82.366	112.1017
2060.000000	82.422	112.3786
2090.000000	82.471	112.6055
2120.000000	82.524	112.8060
2140.000000	82.549	112.7051
2180.000000	82.646	112.8712
2200.000000	82.668	112.8790
2240.000000	82.740	112.8604
2270.000000	82.816	112.9162
2300.000000	82.877	112.7320
2330.000000	82.926	112.6834
2360.000000	83.002	112.4662
2400.000000	83.080	112.1330
2430.000000	83.138	111.9504
2470.000000	83.207	111.4613
2500.000000	83.259	111.0969
2540.000000	83.322	110.6357
2580.000000	83.370	109.9976
2620.000000	83.440	109.2513
2650.000000	83.493	108.8546
2690.000000	83.541	108.0808
2720.000000	83.573	107.4974
2760.000000	83.633	106.5350
2800.000000	83.681	105.5636
2850.000000	83.731	104.1252
2900.000000	83.758	102.6055
2950.000000	83.797	100.8773
3000.000000	83.807	99.1544
3040.000000	83.769	97.6486
3070.000000	83.750	96.4539
3110.000000	83.706	94.9134
3150.000000	83.668	93.1736
3200.000000	83.583	91.1375
3250.000000	83.481	88.9900
3300.000000	83.351	86.7454
3350.000000	83.213	84.6407
3400.000000	83.044	82.6459
3450.000000	82.879	80.7021
3500.000000	82.703	78.8273
3550.000000	82.535	76.9584
3600.000000	82.376	75.1905
3650.000000	82.234	73.5371
3700.000000	82.089	71.7898
3750.000000	81.962	70.0676
3820.000000	81.823	67.7531
3870.000000	81.718	66.1003
3950.000000	81.646	63.2697
4000.000000	81.538	61.0650
4060.000000	81.561	59.1487
4120.000000	81.578	56.8809
4180.000000	81.592	54.4093
4250.000000	81.707	51.8208
4310.000000	81.830	49.3514
4370.000000	81.981	46.6911
4440.000000	82.226	43.5592
4500.000000	82.453	40.9048
4550.000000	82.676	38.2374
4620.000000	83.035	34.3162
4680.000000	83.336	30.5974
4750.000000	83.670	25.8852
4820.000000	83.950	20.4212
4870.000000	84.095	16.6966
4940.000000	84.202	11.5849
5000.000000	84.222	7.4228
5080.000000	84.214	3.0172
5150.000000	84.221	-0.3939
5220.000000	84.249	-3.4027
5300.000000	84.311	-6.7551
5380.000000	84.398	-9.8197
5450.000000	84.487	-12.4865
5520.000000	84.563	-15.1547
5600.000000	84.592	-18.2317
5700.000000	84.593	-21.7759
5800.000000	84.543	-24.9147
5900.000000	84.420	-27.5628
6000.000000	84.267	-29.6535
6080.000000	84.166	-30.8956
6150.000000	84.047	-31.6644
6220.000000	83.942	-32.1841
6300.000000	83.859	-32.6794
6400.000000	83.763	-32.6866
6500.000000	83.707	-32.3839
6600.000000	83.684	-31.9606
6700.000000	83.699	-31.4093
6800.000000	83.734	-30.5542
6900.000000	83.775	-29.9280
7000.000000	83.863	-28.9647
7100.000000	83.967	-28.1579
7200.000000	84.137	-27.3888
7300.000000	84.303	-26.7135
7400.000000	84.482	-26.3599
7500.000000	84.663	-26.2468
7620.000000	84.870	-26.3123
7750.000000	85.105	-27.0238
7880.000000	85.209	-27.7775
8000.000000	85.253	-28.9011
8120.000000	85.245	-29.7736
8250.000000	85.141	-30.8400
8380.000000	84.963	-31.7034
8500.000000	84.695	-31.9221
8620.000000	84.440	-31.6543
8750.000000	84.125	-31.0105
8850.000000	83.905	-29.8636
9000.000000	83.644	-27.7048
9120.000000	83.487	-25.5895
9250.000000	83.410	-23.0620
9380.000000	83.428	-20.7443
9500.000000	83.465	-18.9585
9620.000000	83.577	-17.3643
9750.000000	83.695	-16.1208
9880.000000	83.816	-15.2367
10000.000000	83.912	-14.7673
10150.000000	83.947	-14.2668
10300.000000	83.893	-13.9163
10440.000000	83.862	-13.5085
10600.000000	83.772	-12.6077
10750.000000	83.728	-11.7811
10900.000000	83.707	-11.0648
11060.000000	83.659	-10.2092
11200.000000	83.679	-9.8110
11380.000000	83.622	-9.5687
11500.000000	83.592	-9.8743
11720.000000	83.435	-10.5480
11800.000000	83.351	-11.0561
12060.000000	82.791	-11.8381
12200.000000	82.404	-11.7408
12410.000000	81.792	-10.6376
12500.000000	81.509	-9.8723
12650.000000	81.129	-8.4703
12800.000000	80.701	-6.3766
13150.000000	79.885	-1.1897
13200.000000	79.826	0.0233
13400.000000	79.526	3.2093
13600.000000	79.357	7.1989
13800.000000	79.269	11.3032
14000.000000	79.347	13.8054
14300.000000	79.734	17.1695
14500.000000	80.167	17.1466
14750.000000	80.669	13.3125
15000.000000	80.628	6.0390
15250.000000	79.813	-2.7768
15500.000000	78.150	-8.7103
15750.000000	76.306	-9.7712
16000.000000	74.370	-6.4273
16250.000000	72.710	-2.2449
16500.000000	71.346	6.0439
16750.000000	70.210	14.9993
17000.000000	69.389	27.8505
17250.000000	69.323	38.7683
17500.000000	69.900	50.2960
17750.000000	70.765	59.4794
18000.000000	72.206	62.7419
18250.000000	73.224	61.8297
18500.000000	74.013	56.8826
18750.000000	73.956	52.0593
19000.000000	73.703	48.0562
19250.000000	73.424	45.2585
19500.000000	73.341	42.8565
19750.000000	73.689	37.7561
